%OpenBCI Raw EXG Data
%Number of channels = 16
%Sample Rate = 125 Hz
%Board = OpenBCI_GUI$BoardCytonSerialDaisy
Sample Index, EXG Channel 0, EXG Channel 1, EXG Channel 2, EXG Channel 3, EXG Channel 4, EXG Channel 5, EXG Channel 6, EXG Channel 7, EXG Channel 8, EXG Channel 9, EXG Channel 10, EXG Channel 11, EXG Channel 12, EXG Channel 13, EXG Channel 14, EXG Channel 15, Accel Channel 0, Accel Channel 1, Accel Channel 2, Other, Other, Other, Other, Other, Other, Other, Analog Channel 0, Analog Channel 1, Analog Channel 2, Timestamp, Other, Timestamp (Formatted)
184.0, -24446.3711317028, -26502.329290190853, 6095.7006926179765, -7877.022966983673, 40088.345418971236, 10524.184766314598, 25388.698326194088, -1875.7583946893687, 15451.87270067605, -1477.8526398959923, 37017.79687616788, 23545.685237131744, 35503.957927698844, 26168.84126291767, 24991.37371675655, 24980.13078929553, 0.154, 1.016, 0.138, 192.0, 2.0, 104.0, 15.5, 96.0, 2.0, 40.0, 0.0, 0.0, 0.0, 1.7074738659885995E9, 0.0, 2024-02-09 11:17:45.988
186.0, -24461.682076654684, -26517.528476420463, 6080.6803203440095, -7874.676033815866, 40240.20317080059, 10531.538490240395, 25456.84879503832, -1826.137521998587, 15729.30255285532, -1413.099636208968, 37525.29323402563, 23650.269049438128, 36111.120714082805, 26441.33137957232, 25244.753091901912, 25251.726836171965, 0.154, 1.016, 0.138, 192.0, 0.0, 0.0, 0.0, 0.0, 0.0, 0.0, 0.0, 0.0, 0.0, 1.7074738659890485E9, 0.0, 2024-02-09 11:17:45.989
0.0, -12024.769130321638, -12847.20156755466, 3420.554509229006, -3683.5227827456933, 20262.43749409169, 5604.342294256961, 13166.31742314308, -284.5600586605142, 7758.804590559554, -738.2781193587923, 18632.280067477237, 11776.597711634364, 17962.778265807425, 13137.193100117816, 12560.205168748518, 12589.642416196159, 0.137, 1.026, 0.138, 192.0, 1.5, 96.0, 16.0, 48.0, 2.0, 40.0, 0.0, 0.0, 0.0, 1.7074738661005485E9, 0.0, 2024-02-09 11:17:46.100
2.0, -23979.711410964897, -25639.820175149463, 6880.828068355092, -7393.8229553488445, 40906.44161777993, 11271.649452644522, 26499.62472911176, -471.3982905624259, 17008.381129310266, -630.7662285287653, 37385.81834862451, 23887.935148231405, 36244.582980225445, 26912.617911412468, 25431.188992403626, 25120.320930519218, 0.137, 1.026, 0.138, 192.0, 0.0, 0.0, 0.0, 0.0, 0.0, 0.0, 0.0, 0.0, 0.0, 1.707473866107642E9, 0.0, 2024-02-09 11:17:46.107
4.0, -24067.307897485247, -25693.21849265319, 6812.051750666113, -7374.846324306289, 40704.381847903955, 11218.02761769624, 26387.195454501565, -543.7061838753443, 17116.094185840393, -625.133588926028, 37693.445407562904, 23901.547360604687, 36733.08035529618, 27040.49224144128, 25587.315927423948, 25320.994892238963, 0.137, 1.026, 0.138, 192.0, 0.0, 0.0, 0.0, 0.0, 0.0, 0.0, 0.0, 0.0, 0.0, 1.7074738661145794E9, 0.0, 2024-02-09 11:17:46.114
6.0, -24023.498478352845, -25649.900811898806, 6852.463704641307, -7374.779269072923, 40650.80471644458, 11243.799179053209, 26365.536614124372, -530.8315790690874, 16850.644868689164, -662.259836466293, 37191.425227096704, 23834.983865616785, 36068.205364728616, 26817.019500377122, 25324.548819607357, 25069.694229327946, 0.137, 1.026, 0.138, 192.0, 0.0, 0.0, 0.0, 0.0, 0.0, 0.0, 0.0, 0.0, 0.0, 1.707473866123612E9, 0.0, 2024-02-09 11:17:46.123
8.0, -24009.595693301642, -25635.93097161424, 6861.225588467788, -7377.997920274487, 40926.04409766723, 11282.110069049606, 26491.846322041314, -458.72485145626683, 17172.26411965658, -595.8081002006651, 37690.11499763906, 23941.579334924143, 36630.95523487988, 27060.385294006504, 25583.02439248853, 25297.793781494354, 0.10200000000000001, 1.03, 0.148, 192.0, 1.5, 24.0, 16.0, 24.0, 2.0, 80.0, 0.0, 0.0, 0.0, 1.70747386613062E9, 0.0, 2024-02-09 11:17:46.130
10.0, -24067.978449818904, -25674.89006219984, 6821.305372870609, -7357.680184564613, 40503.37261001737, 11215.07718742814, 26293.184017322543, -584.2075448283607, 16921.92458175714, -649.8322665491422, 37384.320781746006, 23850.071293124118, 36368.72456893022, 26897.105800760484, 25431.56897205937, 25209.817315318265, 0.10200000000000001, 1.03, 0.148, 192.0, 0.0, 0.0, 0.0, 0.0, 0.0, 0.0, 0.0, 0.0, 0.0, 1.707473866138634E9, 0.0, 2024-02-09 11:17:46.138
12.0, -23981.99128889934, -25605.35378519938, 6875.418946196908, -7389.151440757685, 40865.06853879315, 11285.909865607007, 26476.624784067248, -477.1873923763505, 17002.569675751885, -621.2667371352599, 37380.40922646633, 23900.742697804297, 36201.91350006026, 26918.51877194867, 25417.286207352427, 25129.574552723712, 0.10200000000000001, 1.03, 0.148, 192.0, 0.0, 0.0, 0.0, 0.0, 0.0, 0.0, 0.0, 0.0, 0.0, 1.7074738661466365E9, 0.0, 2024-02-09 11:17:46.146
14.0, -24055.14854850156, -25652.49361425562, 6823.652306038417, -7362.8881410226995, 40661.62296076095, 11246.950775021407, 26357.93702100957, -520.3709626640037, 17114.82013640644, -614.3376963541147, 37694.2500703633, 23917.707671845874, 36696.490549622846, 27055.69142767089, 25577.50351160807, 25348.01815128543, 0.10200000000000001, 1.03, 0.148, 192.0, 0.0, 0.0, 0.0, 0.0, 0.0, 0.0, 0.0, 0.0, 0.0, 1.7074738661546216E9, 0.0, 2024-02-09 11:17:46.154
16.0, -24007.852257234128, -25613.802744603487, 6875.508353174729, -7358.238978175996, 40605.34126822249, 11259.199530982916, 26329.885581718157, -538.3417652060706, 16855.651659447154, -646.4795048808462, 37199.36009637834, 23857.156796116447, 36027.27932063095, 26833.35862557395, 25316.77041253691, 25088.804970837235, 0.10200000000000001, 1.03, 0.148, 192.0, 0.0, 0.0, 0.0, 0.0, 0.0, 0.0, 0.0, 0.0, 0.0, 1.707473866162799E9, 0.0, 2024-02-09 11:17:46.162
18.0, -23996.40816407301, -25612.21577074716, 6875.888332830469, -7365.816219546345, 40906.62043173557, 11292.481278476867, 26474.747237533003, -449.9629676297865, 17175.21454992468, -571.8023266556653, 37703.660154778976, 23969.049628859717, 36587.65990586995, 27079.45133202688, 25579.761037798053, 25300.923025718097, 0.07200000000000001, 1.04, 0.162, 192.0, 1.0, 32.0, 16.0, 64.0, 2.5, 8.0, 0.0, 0.0, 0.0, 1.7074738661706493E9, 0.0, 2024-02-09 11:17:46.170
20.0, -24056.646115380063, -25662.060160882495, 6841.444294624841, -7349.45474260506, 40479.38918821683, 11223.973181721352, 26235.315350927754, -592.9694286548411, 16924.919715514152, -634.2978041527039, 37406.31489829003, 23875.641688780986, 36333.60997839093, 26919.077565560052, 25425.73516675653, 25217.79688808881, 0.07200000000000001, 1.04, 0.162, 192.0, 0.0, 0.0, 0.0, 0.0, 0.0, 0.0, 0.0, 0.0, 0.0, 1.707473866178666E9, 0.0, 2024-02-09 11:17:46.178
22.0, -23966.523881736266, -25611.008776546572, 6895.6472749289605, -7377.752051085478, 40860.93346606892, 11289.732013908866, 26451.210850621566, -497.66159029741175, 17000.580370495365, -602.0665886481511, 37389.618145181914, 23918.06529975716, 36169.369360133336, 26922.050347572607, 25407.965529914563, 25112.34135774867, 0.07200000000000001, 1.04, 0.162, 192.0, 0.0, 0.0, 0.0, 0.0, 0.0, 0.0, 0.0, 0.0, 0.0, 1.7074738661856873E9, 0.0, 2024-02-09 11:17:46.185
24.0, -24039.99406576086, -25670.240899353135, 6828.927317729869, -7366.307957924361, 40671.9494666993, 11230.07520795765, 26349.421006372097, -573.0093208562519, 17128.432348779723, -584.9004489064752, 37716.35594562959, 23943.993323325318, 36698.25633743481, 27067.135520832006, 25594.133209482814, 25328.125098720207, 0.07200000000000001, 1.04, 0.162, 192.0, 0.0, 0.0, 0.0, 0.0, 0.0, 0.0, 0.0, 0.0, 0.0, 1.7074738661946871E9, 0.0, 2024-02-09 11:17:46.194
26.0, -24008.14282991205, -25644.715207185174, 6854.83298955357, -7377.729699341024, 40607.50938743465, 11243.665068586477, 26338.20043065553, -594.0199606442405, 16853.125912323703, -637.6058623320893, 37205.775047037016, 23863.839967708587, 36029.045108442915, 26833.06805289603, 25316.546895092357, 25041.776900503268, 0.07200000000000001, 1.04, 0.162, 192.0, 0.0, 0.0, 0.0, 0.0, 0.0, 0.0, 0.0, 0.0, 0.0, 1.7074738662027345E9, 0.0, 2024-02-09 11:17:46.202
28.0, -23996.296405350735, -25628.577247688445, 6856.710536087816, -7386.26806572295, 40917.63984175204, 11269.771906110276, 26488.62767083975, -516.4817591287803, 17181.093058716426, -566.6390736864894, 37698.6980675099, 23964.288707290736, 36591.638516383, 27062.888689385498, 25577.570566841434, 25248.61994369268, 0.056, 0.988, 0.16, 192.0, 0.5, 96.0, 15.0, 112.0, 2.5, 0.0, 0.0, 0.0, 0.0, 1.7074738662109163E9, 0.0, 2024-02-09 11:17:46.210
30.0, -24064.178653261504, -25669.592698763932, 6823.607602549506, -7363.558693356359, 40514.235557822656, 11203.901315200486, 26307.44443028503, -638.2093594323826, 16938.286058698424, -624.3512778700922, 37407.8795204019, 23868.511482299746, 36351.73724314418, 26914.651920157903, 25436.307541883893, 25175.55209106828, 0.056, 0.988, 0.16, 192.0, 0.0, 0.0, 0.0, 0.0, 0.0, 0.0, 0.0, 0.0, 0.0, 1.7074738662187207E9, 0.0, 2024-02-09 11:17:46.218
32.0, -23981.320736565678, -25598.983538029617, 6888.762937636726, -7387.229190734529, 40893.23173680684, 11278.109106792106, 26531.922999849678, -510.8491195260429, 17011.286856089457, -585.97333264033, 37388.05352307004, 23914.690186344407, 36177.14776720378, 26931.460431988293, 25436.821632006366, 25101.612520410126, 0.056, 0.988, 0.16, 192.0, 0.0, 0.0, 0.0, 0.0, 0.0, 0.0, 0.0, 0.0, 0.0, 1.7074738662267227E9, 0.0, 2024-02-09 11:17:46.226
34.0, -24060.915298571028, -25659.13208235885, 6829.933146230358, -7367.202027702574, 40716.49649339873, 11229.091731201617, 26432.27892306792, -569.4330417434028, 17133.01445639306, -584.7663384397433, 37717.853512508096, 23924.97198879385, 36694.88122402206, 27059.44652073938, 25606.225503233138, 25315.518714847414, 0.056, 0.988, 0.16, 192.0, 0.0, 0.0, 0.0, 0.0, 0.0, 0.0, 0.0, 0.0, 0.0, 1.7074738662349524E9, 0.0, 2024-02-09 11:17:46.234
36.0, -24024.504306853334, -25633.15935530178, 6868.087574015567, -7373.348757427783, 40657.77846071464, 11244.492083131325, 26415.313949026342, -563.1074980625508, 16862.15601708365, -634.0072314747848, 37207.40672438225, 23852.306467569648, 36032.15200092221, 26828.01655864913, 25341.200869226563, 25058.697171055934, 0.056, 0.988, 0.16, 192.0, 0.0, 0.0, 0.0, 0.0, 0.0, 0.0, 0.0, 0.0, 0.0, 1.707473866241756E9, 0.0, 2024-02-09 11:17:46.241
38.0, -24008.5675130567, -25632.511154712578, 6875.530704919184, -7390.380786702727, 40976.335522691676, 11269.928368321463, 26570.658572990727, -481.6800930118672, 17171.05712545599, -578.7984226701764, 37683.99061965831, 23938.941829078416, 36596.13121701851, 27049.16471828994, 25596.033107761516, 25271.306964314816, 0.052000000000000005, 0.984, 0.152, 192.0, 0.5, 80.0, 15.0, 96.0, 2.0, 96.0, 0.0, 0.0, 0.0, 1.7074738662507815E9, 0.0, 2024-02-09 11:17:46.250
40.0, -24067.50906318534, -25680.70151575822, 6850.429695895875, -7364.408059645661, 40567.81268928202, 11202.917838444453, 26369.492872892963, -597.3280188236259, 16929.904154527685, -635.9518332423966, 37401.17399706531, 23850.808900691143, 36380.8839179139, 26895.85410307099, 25453.786606047943, 25195.243977933405, 0.052000000000000005, 0.984, 0.152, 192.0, 0.0, 0.0, 0.0, 0.0, 0.0, 0.0, 0.0, 0.0, 0.0, 1.707473866258809E9, 0.0, 2024-02-09 11:17:46.258
42.0, -23985.768733712284, -25622.050538307496, 6905.549097722662, -7392.03481579242, 40930.536798302746, 11265.94975780842, 26552.39719777074, -481.81420347859904, 16991.97494888007, -613.1307021535281, 37358.526868644585, 23888.471590098336, 36195.02916276803, 26896.010565282177, 25437.51453608448, 25108.094526302164, 0.052000000000000005, 0.984, 0.152, 192.0, 0.0, 0.0, 0.0, 0.0, 0.0, 0.0, 0.0, 0.0, 0.0, 1.707473866265846E9, 0.0, 2024-02-09 11:17:46.265
44.0, -24055.930859557495, -25666.977544662663, 6861.314995445609, -7361.792905544389, 40748.21361878081, 11221.067454942162, 26442.448966795084, -547.9977188107632, 17125.504270256075, -599.3396758246035, 37693.89244245201, 23909.996320008795, 36722.30681446872, 27030.389252947483, 25615.7473463711, 25326.560476608334, 0.052000000000000005, 0.984, 0.152, 192.0, 0.0, 0.0, 0.0, 0.0, 0.0, 0.0, 0.0, 0.0, 0.0, 1.7074738662738595E9, 0.0, 2024-02-09 11:17:46.273
46.0, -24022.157373685524, -25636.243896036613, 6889.478193459296, -7374.287530694906, 40657.06320489207, 11225.493100344313, 26392.51516968193, -578.910181392453, 16846.621554687208, -649.6534525934998, 37185.569070049416, 23832.346359771058, 36046.814745284886, 26800.05452633554, 25343.10076750526, 25058.898336756032, 0.052000000000000005, 0.984, 0.152, 192.0, 0.0, 0.0, 0.0, 0.0, 0.0, 0.0, 0.0, 0.0, 0.0, 1.7074738662828817E9, 0.0, 2024-02-09 11:17:46.282
48.0, -24013.574303814687, -25626.677349409743, 6887.354777736042, -7390.984283803021, 40964.26558068581, 11254.103333247105, 26542.987113355055, -493.9959042067414, 17164.530416075042, -590.5554402536679, 37658.39787225698, 23925.240209727315, 36577.66867609843, 27022.096755754563, 25588.031183246516, 25259.080560097762, 0.06, 1.006, 0.132, 192.0, 0.5, 112.0, 15.5, 56.0, 2.0, 16.0, 0.0, 0.0, 0.0, 1.7074738662911036E9, 0.0, 2024-02-09 11:17:46.291
50.0, -24077.20972027895, -25659.93674515924, 6848.060410983612, -7364.586873601303, 40540.83413372447, 11185.617588236046, 26324.02942467087, -623.8148360031648, 16922.192802690603, -654.03439450674, 37388.075874814494, 23840.37063603051, 36359.96268510374, 26888.500379145193, 25447.975152489562, 25195.80277154479, 0.06, 1.006, 0.132, 192.0, 0.0, 0.0, 0.0, 0.0, 0.0, 0.0, 0.0, 0.0, 0.0, 1.707473866297861E9, 0.0, 2024-02-09 11:17:46.297
52.0, -23986.50634127931, -25589.26052919156, 6912.008751870246, -7388.9502750575875, 40900.29488805472, 11259.065420516185, 26508.699537360615, -528.4846459012801, 16981.044945841426, -620.9091092239748, 37347.23923769465, 23886.325822630624, 36164.317865886434, 26887.740419833714, 25417.621483519255, 25093.87881682859, 0.06, 1.006, 0.132, 192.0, 0.0, 0.0, 0.0, 0.0, 0.0, 0.0, 0.0, 0.0, 0.0, 1.7074738663068345E9, 0.0, 2024-02-09 11:17:46.306
54.0, -24062.703438127453, -25647.151547330803, 6853.916568030902, -7367.246731191484, 40719.64808936693, 11224.464920099368, 26388.31304172433, -553.7644688802325, 17120.452776009177, -604.7040944938773, 37694.60769827458, 23913.63965435501, 36704.380715415566, 27035.328988472105, 25596.569549628442, 25316.85981951473, 0.06, 1.006, 0.132, 192.0, 0.0, 0.0, 0.0, 0.0, 0.0, 0.0, 0.0, 0.0, 0.0, 1.7074738663148725E9, 0.0, 2024-02-09 11:17:46.314
56.0, -24026.739481298864, -25622.475221452147, 6893.859135372536, -7366.419716646638, 40642.2439983182, 11245.27439418726, 26384.557948655838, -542.9909280527745, 16841.882984862685, -656.6495486080108, 37194.286250386984, 23834.156851071937, 36045.85362027331, 26810.73866018518, 25335.188249968083, 25076.39975266454, 0.06, 1.006, 0.132, 192.0, 0.0, 0.0, 0.0, 0.0, 0.0, 0.0, 0.0, 0.0, 0.0, 1.7074738663228693E9, 0.0, 2024-02-09 11:17:46.322
58.0, -24000.69969900843, -25604.996157288097, 6907.001961112257, -7376.232132462518, 40946.22772291037, 11275.09162129064, 26526.53622943595, -478.75201448822196, 17162.138779418325, -588.2755623192265, 37677.12863411053, 23937.287799988724, 36591.28088847171, 27049.432939223403, 25591.58511061491, 25284.561548776812, 0.07, 1.028, 0.10400000000000001, 192.0, 1.0, 24.0, 16.0, 16.0, 1.5, 32.0, 0.0, 0.0, 0.0, 1.7074738663299572E9, 0.0, 2024-02-09 11:17:46.329
60.0, -24070.99593532037, -25657.925088158263, 6860.1974082228435, -7358.373088642727, 40519.9129009143, 11207.79051873571, 26319.089689146243, -587.5603064966567, 16932.07227373985, -650.7039845828992, 37409.10886634694, 23847.165566344927, 36393.82557795353, 26901.777315351646, 25463.219042208082, 25218.98153054494, 0.07, 1.028, 0.10400000000000001, 192.0, 0.0, 0.0, 0.0, 0.0, 0.0, 0.0, 0.0, 0.0, 0.0, 1.7074738663389325E9, 0.0, 2024-02-09 11:17:46.338
62.0, -23984.539387767243, -25593.172084471236, 6908.164251823932, -7389.8890483247105, 40868.443652205904, 11281.908903349507, 26490.371106907263, -479.7131394998002, 16980.620262696775, -622.4066761024804, 37354.324740686985, 23879.86616848304, 36184.07680798493, 26897.91046356088, 25431.07723368135, 25125.350073021662, 0.07, 1.028, 0.10400000000000001, 192.0, 0.0, 0.0, 0.0, 0.0, 0.0, 0.0, 0.0, 0.0, 0.0, 1.70747386634696E9, 0.0, 2024-02-09 11:17:46.346
64.0, -24059.57419390371, -25650.63841946583, 6847.143989460945, -7376.433298162616, 40701.364362402484, 11229.427007368447, 26368.64350660366, -547.7965531106655, 17122.710302199164, -616.3046498661816, 37699.547433799205, 23895.15476169047, 36723.29029122475, 27025.136593000483, 25610.561741657468, 25338.697473847566, 0.07, 1.028, 0.10400000000000001, 192.0, 0.0, 0.0, 0.0, 0.0, 0.0, 0.0, 0.0, 0.0, 0.0, 1.7074738663539157E9, 0.0, 2024-02-09 11:17:46.353
66.0, -24016.12240268259, -25617.40137546079, 6889.813469626126, -7369.548960870381, 40613.11967529293, 11242.5027778748, 26346.69409354855, -557.9218933489196, 16848.275583776904, -656.7166038413768, 37194.59917480936, 23823.4727172223, 36059.599943113324, 26806.313014783027, 25347.526412907413, 25079.461941654914, 0.07, 1.028, 0.10400000000000001, 192.0, 0.0, 0.0, 0.0, 0.0, 0.0, 0.0, 0.0, 0.0, 0.0, 1.7074738663619566E9, 0.0, 2024-02-09 11:17:46.361
68.0, -23997.36928908459, -25602.693927609198, 6893.814431883626, -7383.384690688216, 40923.20542612141, 11282.199476027426, 26489.365278406774, -477.5003167987248, 17170.855959755892, -595.4057688004696, 37671.40658752997, 23925.575485894144, 36585.469434913335, 27046.50486069976, 25605.622006132842, 25289.85891221272, 0.064, 1.033, 0.1, 192.0, 0.5, 104.0, 16.0, 56.0, 1.5, 0.0, 0.0, 0.0, 0.0, 1.7074738663712325E9, 0.0, 2024-02-09 11:17:46.371
70.0, -24066.413827707034, -25657.16512884678, 6844.193559192844, -7365.525646868426, 40499.37164775987, 11213.110233916073, 26268.015953065868, -620.1044464235838, 16936.87789879774, -651.2627781942819, 37413.042773371075, 23840.39298777497, 36386.225984838726, 26913.176705023852, 25470.840987067342, 25233.398405718614, 0.064, 1.033, 0.1, 192.0, 0.0, 0.0, 0.0, 0.0, 0.0, 0.0, 0.0, 0.0, 0.0, 1.7074738663780055E9, 0.0, 2024-02-09 11:17:46.378
72.0, -23975.17400684047, -25591.294537936992, 6906.644333200972, -7394.381748960227, 40846.24836996179, 11286.200438284926, 26436.36929230324, -521.6673638424115, 16985.761163921496, -627.2346529048268, 37348.379176661874, 23878.18978764889, 36167.335351387905, 26902.269053729662, 25424.639931278223, 25129.373387023617, 0.064, 1.033, 0.1, 192.0, 0.0, 0.0, 0.0, 0.0, 0.0, 0.0, 0.0, 0.0, 0.0, 1.7074738663862753E9, 0.0, 2024-02-09 11:17:46.386
74.0, -24043.883269296082, -25643.128233328847, 6856.442315154352, -7377.461478407559, 40694.457673365796, 11241.586356352134, 26348.30341914933, -580.6759692044221, 17136.92601167274, -603.3182863376483, 37703.03430593423, 23902.150857704983, 36713.947262042435, 27050.237602023793, 25605.666709621753, 25347.05702627385, 0.064, 1.033, 0.1, 192.0, 0.0, 0.0, 0.0, 0.0, 0.0, 0.0, 0.0, 0.0, 0.0, 1.707473866395023E9, 0.0, 2024-02-09 11:17:46.395
76.0, -24002.577245542678, -25608.706546867677, 6889.3664347370195, -7378.93669354161, 40590.902041304354, 11253.298670446715, 26304.717517461482, -611.45432131938, 16856.411618758633, -650.7039845828992, 37196.27555564351, 23821.371653243503, 36054.23552444405, 26831.995169162175, 25342.050235515864, 25095.354031962637, 0.064, 1.033, 0.1, 192.0, 0.0, 0.0, 0.0, 0.0, 0.0, 0.0, 0.0, 0.0, 0.0, 1.7074738664020295E9, 0.0, 2024-02-09 11:17:46.402
78.0, -23977.587995241644, -25587.36063091286, 6896.921324362913, -7387.899743068188, 40913.95180391691, 11291.22958078737, 26459.011609436468, -541.2474919852605, 17176.06391621398, -577.680835447411, 37673.373541042034, 23930.6493318855, 36565.48697537029, 27058.708913172355, 25586.243043690094, 25284.360383076717, 0.057, 1.0295, 0.097, 192.0, 0.5, 72.0, 16.0, 8.0, 1.0, 120.0, 0.0, 0.0, 0.0, 1.7074738664100547E9, 0.0, 2024-02-09 11:17:46.410
80.0, -24042.340998928667, -25633.98636984663, 6856.509370387718, -7366.777344557923, 40518.32592705797, 11232.288030658727, 26277.604851437194, -654.1461532290165, 16957.5532624189, -627.3017081381927, 37434.05341315906, 23849.91483091293, 36389.66815348484, 26934.075586089562, 25476.361867947802, 25236.86292610919, 0.057, 1.0295, 0.097, 192.0, 0.0, 0.0, 0.0, 0.0, 0.0, 0.0, 0.0, 0.0, 0.0, 1.707473866418053E9, 0.0, 2024-02-09 11:17:46.418
82.0, -23948.17309953846, -25554.458863074648, 6920.904746163457, -7385.821030833845, 40881.00533258979, 11309.490956007357, 26476.89300500071, -514.8277300390876, 17006.28006533147, -604.7040944938773, 37367.64638038235, 23888.002203464774, 36156.003016949064, 26921.75977489469, 25443.482451854044, 25143.49968951937, 0.057, 1.0295, 0.097, 192.0, 0.0, 0.0, 0.0, 0.0, 0.0, 0.0, 0.0, 0.0, 0.0, 1.707473866427182E9, 0.0, 2024-02-09 11:17:46.427
84.0, -24020.592751573655, -25597.82124731794, 6857.850475055036, -7372.655853349669, 40732.07565928408, 11247.867196544075, 26375.661954362626, -587.2697338187378, 17158.562500305474, -587.7167687078439, 37728.694108568925, 23917.841782312607, 36717.12120975509, 27074.6904104579, 25640.55778271649, 25364.513738693448, 0.057, 1.0295, 0.097, 192.0, 0.0, 0.0, 0.0, 0.0, 0.0, 0.0, 0.0, 0.0, 0.0, 1.707473866434039E9, 0.0, 2024-02-09 11:17:46.434
86.0, -23983.64531798903, -25567.534633581, 6888.092385303067, -7372.275873693929, 40635.00203311468, 11266.687365375445, 26355.098349463744, -589.7507774532769, 16874.896511423172, -630.6991732953994, 37220.8848262888, 23833.86627839402, 36064.29380944894, 26839.147727387874, 25376.226052788028, 25111.69315715947, 0.057, 1.0295, 0.097, 192.0, 0.0, 0.0, 0.0, 0.0, 0.0, 0.0, 0.0, 0.0, 0.0, 1.7074738664420483E9, 0.0, 2024-02-09 11:17:46.442
88.0, -23954.565698452676, -25555.24117413058, 6890.707539404338, -7383.384690688216, 40966.21018245342, 11312.597848486645, 26514.131011263253, -529.9822127797858, 17193.654739100308, -567.2425707867826, 37683.387122558015, 23927.20716323938, 36581.17789997791, 27063.447482996882, 25621.804669118486, 25305.169857164605, 0.0475, 1.0157500000000002, 0.0935, 192.0, 0.5, 24.0, 15.5, 40.0, 1.0, 104.0, 0.0, 0.0, 0.0, 1.70747386645109E9, 0.0, 2024-02-09 11:17:46.451
90.0, -24030.80749878973, -25618.563666172467, 6851.681393585372, -7354.573292085325, 40565.51045960313, 11253.544539635723, 26324.945846193536, -630.3638971285698, 16975.725230661064, -621.4008476019917, 37444.67049177534, 23845.08685411058, 36412.288118873614, 26941.116385592984, 25501.95461534913, 25252.017408849886, 0.0475, 1.0157500000000002, 0.0935, 192.0, 0.0, 0.0, 0.0, 0.0, 0.0, 0.0, 0.0, 0.0, 0.0, 1.7074738664581027E9, 0.0, 2024-02-09 11:17:46.458
92.0, -23943.658047158486, -25554.86119447484, 6918.1331298509995, -7379.361376686261, 40922.37841157656, 11320.376255557092, 26517.796697353926, -499.2262124092832, 17019.244077115545, -599.1608618689611, 37373.480185685185, 23889.72328778783, 36179.80762479396, 26928.778222653655, 25464.04605675293, 25147.232430843407, 0.0475, 1.0157500000000002, 0.0935, 192.0, 0.0, 0.0, 0.0, 0.0, 0.0, 0.0, 0.0, 0.0, 0.0, 1.7074738664661078E9, 0.0, 2024-02-09 11:17:46.466
94.0, -24026.068928965204, -25620.105936539883, 6851.279062185176, -7374.913379539655, 40780.713055218825, 11249.632984356045, 26416.051556593367, -571.1094225775507, 17172.554692334495, -589.5496117531791, 37738.394765662524, 23912.767936321252, 36745.776146146796, 27065.503843486767, 25655.153471845802, 25368.69351490659, 0.0475, 1.0157500000000002, 0.0935, 192.0, 0.0, 0.0, 0.0, 0.0, 0.0, 0.0, 0.0, 0.0, 0.0, 1.7074738664741309E9, 0.0, 2024-02-09 11:17:46.474
96.0, -24004.767716499297, -25605.4431921772, 6877.631768897983, -7381.820068576345, 40666.406234074384, 11244.156806964495, 26377.561852641327, -598.5573647686679, 16879.724488225518, -646.7253740698545, 37211.34063140638, 23818.778850886687, 36085.14798702574, 26820.439317278782, 25381.992802857498, 25099.556159920237, 0.0475, 1.0157500000000002, 0.0935, 192.0, 0.0, 0.0, 0.0, 0.0, 0.0, 0.0, 0.0, 0.0, 0.0, 1.7074738664832337E9, 0.0, 2024-02-09 11:17:46.483
98.0, -23973.721143450875, -25584.05257273347, 6895.98255109579, -7389.307902968872, 41005.30338350575, 11294.7164529224, 26563.036628131467, -474.7063487418114, 17189.4079076538, -591.1589373539612, 37669.59609622909, 23911.96327352086, 36591.99614429428, 27040.089910041086, 25628.89017211082, 25292.58582503627, 0.04475, 1.009875, 0.09375, 192.0, 0.5, 40.0, 15.5, 48.0, 1.0, 120.0, 0.0, 0.0, 0.0, 1.7074738664903543E9, 0.0, 2024-02-09 11:17:46.490
100.0, -24053.38276068959, -25647.73269268664, 6840.63963182445, -7379.6743011086355, 40579.97203826571, 11216.21712639536, 26327.985683439456, -627.2123011603715, 16974.518236460477, -649.0946589821172, 37444.17875339732, 23820.61169393202, 36442.440622143826, 26917.937626592833, 25507.699013674144, 25245.89303086913, 0.04475, 1.009875, 0.09375, 192.0, 0.0, 0.0, 0.0, 0.0, 0.0, 0.0, 0.0, 0.0, 0.0, 1.7074738664982133E9, 0.0, 2024-02-09 11:17:46.498
102.0, -23965.495701491323, -25588.321755924437, 6908.946562879868, -7400.193202518607, 40927.69812675692, 11280.098412048628, 26499.937653534136, -525.4448086553584, 17004.693091475143, -635.9741849868518, 37342.27715042557, 23847.34438030057, 36183.42860739573, 26885.92992853283, 25447.908097256197, 25121.907904375545, 0.04475, 1.009875, 0.09375, 192.0, 0.0, 0.0, 0.0, 0.0, 0.0, 0.0, 0.0, 0.0, 0.0, 1.707473866507156E9, 0.0, 2024-02-09 11:17:46.507
104.0, -24039.636437849575, -25645.542221730022, 6856.598777365539, -7385.1951819890955, 40796.22516587081, 11228.912917245974, 26418.622007205726, -573.0093208562519, 17167.92788123225, -625.2229959038492, 37713.249053150306, 23880.24614813878, 36755.43209975149, 27032.579723904102, 25646.816271163974, 25347.6828751186, 0.04475, 1.009875, 0.09375, 192.0, 0.0, 0.0, 0.0, 0.0, 0.0, 0.0, 0.0, 0.0, 0.0, 1.7074738665142083E9, 0.0, 2024-02-09 11:17:46.514
106.0, -24016.99412071635, -25622.363462729867, 6886.974798080301, -7381.037757520409, 40680.3537226145, 11250.862330301086, 26370.856329304737, -564.7168236633329, 16866.961642141538, -682.6222756650777, 37201.572919079415, 23792.627309873977, 36094.200443530135, 26796.433543733783, 25379.824683645333, 25102.43953495497, 0.04475, 1.009875, 0.09375, 192.0, 0.0, 0.0, 0.0, 0.0, 0.0, 0.0, 0.0, 0.0, 0.0, 1.7074738665222704E9, 0.0, 2024-02-09 11:17:46.522
108.0, -23995.268225105792, -25604.01268053206, 6896.429585984896, -7399.142670529208, 41000.60951717014, 11280.366632982092, 26518.221380498577, -498.4886048422581, 17174.521645846566, -603.7206177378438, 37659.7389769243, 23897.34523264709, 36598.05346704167, 27021.515610398725, 25614.92033182625, 25292.474066313993, 0.048375, 1.0139375, 0.092875, 192.0, 0.5, 80.0, 15.5, 104.0, 1.0, 112.0, 0.0, 0.0, 0.0, 1.7074738665303147E9, 0.0, 2024-02-09 11:17:46.530
110.0, -24063.776321861307, -25650.370198532368, 6854.050678497634, -7373.415812661149, 40575.50168937465, 11220.016922952762, 26305.902159917612, -608.8615189625643, 16967.36567823478, -673.4357086939465, 37432.10881139145, 23806.08306003607, 36450.44254665882, 26891.204940224285, 25493.103324544827, 25242.517917456382, 0.048375, 1.0139375, 0.092875, 192.0, 0.0, 0.0, 0.0, 0.0, 0.0, 0.0, 0.0, 0.0, 0.0, 1.7074738665392854E9, 0.0, 2024-02-09 11:17:46.539
112.0, -23962.768788667774, -25574.329563895415, 6924.481025276306, -7391.565429158858, 40904.27349856776, 11295.699929678432, 26484.805522537892, -491.3360466165598, 16999.060451872403, -645.0936967246172, 37340.28784516905, 23846.897345411464, 36186.64725859729, 26885.482893643726, 25445.359998388292, 25131.675616702512, 0.048375, 1.0139375, 0.092875, 192.0, 0.0, 0.0, 0.0, 0.0, 0.0, 0.0, 0.0, 0.0, 0.0, 1.7074738665462139E9, 0.0, 2024-02-09 11:17:46.546
114.0, -24029.84637377815, -25623.034015063527, 6877.676472386894, -7367.917283525144, 40782.23297384178, 11257.61255712659, 26422.153582829666, -531.9268145473975, 17174.432238868743, -615.8576149770755, 37723.32968989965, 23882.414267350945, 36765.46803301192, 27049.656456667955, 25653.342980544923, 25361.384494469705, 0.048375, 1.0139375, 0.092875, 192.0, 0.0, 0.0, 0.0, 0.0, 0.0, 0.0, 0.0, 0.0, 0.0, 1.7074738665542564E9, 0.0, 2024-02-09 11:17:46.554
116.0, -24002.08550716466, -25608.080698022928, 6900.877583131502, -7369.258388192462, 40647.876637920934, 11262.46288567339, 26362.40736990063, -566.3708527530257, 16877.086982379795, -665.8584673235974, 37216.45918088665, 23804.47373443529, 36105.599833202345, 26818.561770744538, 25383.64683194719, 25110.64262517007, 0.048375, 1.0139375, 0.092875, 192.0, 0.0, 0.0, 0.0, 0.0, 0.0, 0.0, 0.0, 0.0, 0.0, 1.7074738665624795E9, 0.0, 2024-02-09 11:17:46.562
118.0, -23970.346030038123, -25581.124494209827, 6922.156443852955, -7374.108716739263, 40979.55417389324, 11303.120708837594, 26500.898778545714, -487.1339186589621, 17193.364166422387, -597.1268531235282, 37670.0431311182, 23914.466668899855, 36586.69878085837, 27034.479622182804, 25615.233256248626, 25287.534330789367, 0.0471875, 1.02496875, 0.0904375, 192.0, 0.5, 56.0, 16.0, 48.0, 1.0, 96.0, 0.0, 0.0, 0.0, 1.7074738665705016E9, 0.0, 2024-02-09 11:17:46.570
120.0, -24039.077644238194, -25624.755099386588, 6880.403385210441, -7345.11850418073, 40567.38800613737, 11236.780731294242, 26314.328767577266, -612.9295364534303, 16989.516256989988, -650.1675427159719, 37464.31767515155, 23831.921676626407, 36460.880811319454, 26929.404071498404, 25514.270426544004, 25249.42460649307, 0.0471875, 1.02496875, 0.0904375, 192.0, 0.0, 0.0, 0.0, 0.0, 0.0, 0.0, 0.0, 0.0, 0.0, 1.707473866578298E9, 0.0, 2024-02-09 11:17:46.578
122.0, -23949.53655595023, -25560.426778844212, 6937.825016716125, -7371.068879493342, 40890.817748405665, 11311.346150797148, 26489.34292666232, -500.3437996320486, 17016.494812547542, -615.5893940436118, 37355.97876977668, 23857.782644961197, 36187.943659775694, 26906.80645785409, 25459.016914250486, 25139.69989296197, 0.0471875, 1.02496875, 0.0904375, 192.0, 0.0, 0.0, 0.0, 0.0, 0.0, 0.0, 0.0, 0.0, 0.0, 1.7074738665862691E9, 0.0, 2024-02-09 11:17:46.586
124.0, -24025.75600454283, -25622.899904596798, 6875.955388063835, -7366.55382711337, 40761.423499753895, 11251.37642042356, 26389.095352780267, -577.8149459141429, 17178.522608104064, -608.9956294292962, 37731.84570453712, 23887.778686020218, 36757.913143386024, 27069.54950923318, 25651.398378777314, 25355.461282189048, 0.0471875, 1.02496875, 0.0904375, 192.0, 0.0, 0.0, 0.0, 0.0, 0.0, 0.0, 0.0, 0.0, 0.0, 1.7074738665953257E9, 0.0, 2024-02-09 11:17:46.595
126.0, -23995.156466383516, -25601.68809910871, 6900.721120920315, -7366.330309668817, 40629.369393511945, 11251.510530890291, 26331.249038129932, -620.0373911902179, 16886.34060458429, -661.6563393659997, 37210.312451161444, 23798.729336110275, 36106.29273728046, 26824.35087255846, 25380.674049934634, 25092.15773250553, 0.0471875, 1.02496875, 0.0904375, 192.0, 0.0, 0.0, 0.0, 0.0, 0.0, 0.0, 0.0, 0.0, 0.0, 1.7074738666025014E9, 0.0, 2024-02-09 11:17:46.602
128.0, -23959.79600665522, -25570.529767338012, 6923.072865375622, -7367.023213746931, 40977.05077851424, 11309.669769962999, 26496.562540121384, -507.5410613466575, 17198.616826369383, -583.4699372613355, 37663.114090337054, 23913.416136910455, 36590.208004737855, 27047.153061288962, 25618.809535361474, 25272.513958515403, 0.04459375, 1.030484375, 0.09021875, 192.0, 0.5, 40.0, 16.0, 48.0, 1.0, 104.0, 0.0, 0.0, 0.0, 1.7074738666103468E9, 0.0, 2024-02-09 11:17:46.610
130.0, -24034.942571513962, -25625.872686609353, 6869.607492638528, -7347.934823982099, 40571.612485839425, 11236.914841760974, 26287.931357375546, -636.644737320511, 17000.245094328537, -640.6904030669216, 37466.82107053055, 23836.190859817372, 36479.11983479498, 26942.010455371197, 25519.076051601896, 25251.346856516226, 0.04459375, 1.030484375, 0.09021875, 192.0, 0.0, 0.0, 0.0, 0.0, 0.0, 0.0, 0.0, 0.0, 0.0, 1.7074738666185312E9, 0.0, 2024-02-09 11:17:46.618
132.0, -23950.274163517257, -25566.260584147047, 6937.400333571474, -7368.923112025633, 40911.56016726019, 11314.877726421086, 26480.80456028039, -504.1435961894508, 17011.93505667866, -615.9246702104414, 37347.08277548347, 23853.692275725876, 36190.93879353271, 26895.65293737089, 25460.425074151168, 25130.893305646576, 0.04459375, 1.030484375, 0.09021875, 192.0, 0.0, 0.0, 0.0, 0.0, 0.0, 0.0, 0.0, 0.0, 0.0, 1.7074738666256285E9, 0.0, 2024-02-09 11:17:46.625
134.0, -24021.12919344058, -25616.239084749115, 6879.665777643416, -7360.138876454696, 40800.53905255068, 11272.990557311841, 26404.875684365714, -570.1706493104278, 17189.519666376076, -601.8877746925086, 37742.462783153394, 23888.940976731894, 36777.850899440156, 27080.97125064984, 25672.118445887383, 25361.5856601698, 0.04459375, 1.030484375, 0.09021875, 192.0, 0.0, 0.0, 0.0, 0.0, 0.0, 0.0, 0.0, 0.0, 0.0, 1.7074738666343477E9, 0.0, 2024-02-09 11:17:46.634
136.0, -23997.6151582736, -25595.3402036834, 6895.759033651238, -7364.497466623482, 40655.789155458115, 11277.103278291617, 26348.12460519369, -600.099635136084, 16893.873142465727, -656.7166038413768, 37223.92466353472, 23802.37267045649, 36124.1741328447, 26835.45968955275, 25402.534056011922, 25106.35109023465, 0.04459375, 1.030484375, 0.09021875, 192.0, 0.0, 0.0, 0.0, 0.0, 0.0, 0.0, 0.0, 0.0, 0.0, 1.7074738666423728E9, 0.0, 2024-02-09 11:17:46.642
138.0, -23958.723122921365, -25566.72997078061, 6909.728873935804, -7375.226303962029, 41011.94185160898, 11317.626990989089, 26522.222342756075, -513.1066457160289, 17198.21449496919, -581.4582802603579, 37663.42701475943, 23908.297587430192, 36598.67931588642, 27053.97034334783, 25633.15935530178, 25280.091199885752, 0.043296875, 1.0282421875, 0.094109375, 192.0, 0.5, 40.0, 16.0, 8.0, 1.5, 8.0, 0.0, 0.0, 0.0, 1.707473866650453E9, 0.0, 2024-02-09 11:17:46.650
140.0, -24033.04267323526, -25623.12342204135, 6863.840742569058, -7357.568425842336, 40597.495805918676, 11246.593147110123, 26309.120811119177, -629.1121994390726, 17005.78832695345, -629.067495950162, 37471.73845431071, 23831.452289992845, 36494.90016638043, 26948.112481607495, 25533.6270372423, 25246.31771401378, 0.043296875, 1.0282421875, 0.094109375, 192.0, 0.0, 0.0, 0.0, 0.0, 0.0, 0.0, 0.0, 0.0, 0.0, 1.7074738666574414E9, 0.0, 2024-02-09 11:17:46.657
142.0, -23942.853384358095, -25558.52688056551, 6935.2098626148545, -7375.606283617769, 40930.49209481384, 11316.6211624886, 26501.14464773472, -516.9511457623418, 17022.373321339288, -609.9791061853298, 37342.21009519221, 23854.20636584835, 36203.52282566104, 26900.592672895513, 25467.443521910136, 25118.599846196157, 0.043296875, 1.0282421875, 0.094109375, 192.0, 0.0, 0.0, 0.0, 0.0, 0.0, 0.0, 0.0, 0.0, 0.0, 1.7074738666665192E9, 0.0, 2024-02-09 11:17:46.666
144.0, -24023.74434754185, -25617.35667197188, 6876.603588653039, -7365.5927021017915, 40821.192064427385, 11267.067345031184, 26432.681254468116, -564.8285823856095, 17201.29903570402, -594.2211263443382, 37740.227608707864, 23893.321918645135, 36790.166710635036, 27072.187015078907, 25682.08732391445, 25356.511814178448, 0.043296875, 1.0282421875, 0.094109375, 192.0, 0.0, 0.0, 0.0, 0.0, 0.0, 0.0, 0.0, 0.0, 0.0, 1.7074738666744733E9, 0.0, 2024-02-09 11:17:46.674
146.0, -23997.436344317957, -25591.942738526195, 6901.928115120902, -7361.50233286647, 40666.02625441865, 11260.384173439048, 26372.018620016413, -608.9509259403856, 16898.321139612333, -648.7370310708321, 37226.42805891372, 23804.294920479646, 36130.79024920348, 26832.26339009564, 25408.03258514793, 25103.177142521996, 0.043296875, 1.0282421875, 0.094109375, 192.0, 0.0, 0.0, 0.0, 0.0, 0.0, 0.0, 0.0, 0.0, 0.0, 1.70747386668145E9, 0.0, 2024-02-09 11:17:46.681
148.0, -23966.61328871409, -25571.088560949393, 6915.920307149924, -7372.991129516498, 41014.19937779896, 11304.484165249369, 26535.454575473617, -522.7849510651769, 17203.60126538292, -584.7216349508327, 37663.248200803784, 23910.711575831363, 36586.5870221361, 27047.287171755695, 25632.578209945943, 25271.731647459466, 0.0456484375, 1.02412109375, 0.0970546875, 192.0, 0.5, 64.0, 15.5, 112.0, 1.5, 16.0, 0.0, 0.0, 0.0, 1.7074738666894736E9, 0.0, 2024-02-09 11:17:46.689
150.0, -24048.465376909422, -25619.278921995035, 6872.937902562368, -7343.330364624306, 40603.66488738834, 11240.312306918182, 26332.88071547517, -631.6155948180669, 17015.08665264686, -636.644737320511, 37478.332218925025, 23831.496993481756, 36490.5639279561, 26941.71988269328, 25546.099310648362, 25253.447920495026, 0.0456484375, 1.02412109375, 0.0970546875, 192.0, 0.0, 0.0, 0.0, 0.0, 0.0, 0.0, 0.0, 0.0, 0.0, 1.707473866698868E9, 0.0, 2024-02-09 11:17:46.698
152.0, -23950.654143172997, -25559.01861894353, 6936.059228904156, -7367.224379447029, 40921.32787958716, 11314.095415365151, 26498.507141888997, -521.6003086090457, 17018.953504437628, -624.8430162481089, 37343.77471730408, 23852.395874547467, 36187.183700464215, 26896.122324004453, 25480.116961016294, 25125.21596255493, 0.0456484375, 1.02412109375, 0.0970546875, 192.0, 0.0, 0.0, 0.0, 0.0, 0.0, 0.0, 0.0, 0.0, 0.0, 1.7074738667054856E9, 0.0, 2024-02-09 11:17:46.705
154.0, -24023.99021673086, -25610.807610846474, 6880.001053810246, -7361.748202055479, 40820.16388418244, 11266.933234564453, 26423.829963663815, -567.0637568311402, 17208.093966018434, -593.9529054108746, 37746.866076811086, 23892.271386655735, 36777.225050595414, 27068.901308643977, 25689.172826906783, 25356.176538011616, 0.0456484375, 1.02412109375, 0.0970546875, 192.0, 0.0, 0.0, 0.0, 0.0, 0.0, 0.0, 0.0, 0.0, 0.0, 1.707473866713489E9, 0.0, 2024-02-09 11:17:46.713
156.0, -24008.008719445315, -25595.451962405677, 6899.804699397648, -7360.451800877071, 40665.66862650736, 11267.737897364843, 26362.943811767556, -617.0646091776621, 16906.77009901644, -653.2073799618936, 37227.12096299183, 23797.81291458761, 36129.73971721408, 26821.422794034817, 25414.156963128684, 25103.512418688824, 0.0456484375, 1.02412109375, 0.0970546875, 192.0, 0.0, 0.0, 0.0, 0.0, 0.0, 0.0, 0.0, 0.0, 0.0, 1.707473866722525E9, 0.0, 2024-02-09 11:17:46.722
158.0, -23976.716277207885, -25584.544311111487, 6913.349856537564, -7387.855039579277, 41008.52203470731, 11299.656188447021, 26517.10379327581, -515.811206795121, 17206.41758518429, -595.4951757782908, 37655.64860768898, 23895.177113434926, 36581.15554823346, 27043.330912987105, 25631.460622723178, 25268.848272424733, 0.04782421875, 1.020060546875, 0.09952734375, 192.0, 0.5, 72.0, 15.5, 96.0, 1.5, 24.0, 0.0, 0.0, 0.0, 1.7074738667305355E9, 0.0, 2024-02-09 11:17:46.730
160.0, -24048.264211209324, -25637.294428026013, 6872.4014606954415, -7366.062088735353, 40592.69018086078, 11231.662181813977, 26306.192732595533, -638.9246152549524, 17014.907838691215, -656.1354584855388, 37475.73941656821, 23812.788583372665, 36500.33164028307, 26925.268998774172, 25532.598856997356, 25239.14280404363, 0.04782421875, 1.020060546875, 0.09952734375, 192.0, 0.0, 0.0, 0.0, 0.0, 0.0, 0.0, 0.0, 0.0, 0.0, 1.707473866737568E9, 0.0, 2024-02-09 11:17:46.737
162.0, -23964.534576479742, -25571.848520260875, 6927.65497298896, -7389.039682035409, 40901.61364097758, 11297.599827957134, 26473.67435379915, -528.5069976457355, 17013.83495495736, -639.8186850331647, 37328.329661885466, 23836.213211561826, 36182.86981378434, 26884.812341310066, 25453.808957792397, 25095.44343894046, 0.04782421875, 1.020060546875, 0.09952734375, 192.0, 0.0, 0.0, 0.0, 0.0, 0.0, 0.0, 0.0, 0.0, 0.0, 1.707473866745541E9, 0.0, 2024-02-09 11:17:46.745
164.0, -24029.71226331142, -25608.907712567772, 6868.98164379378, -7375.9192080401435, 40800.87432871751, 11246.950775021407, 26419.493725239485, -570.7517946662658, 17197.432183913254, -617.5116440667682, 37737.81362030669, 23876.669869025933, 36782.14243437558, 27067.44844525438, 25670.486768542145, 25329.220334198515, 0.04782421875, 1.020060546875, 0.09952734375, 192.0, 0.0, 0.0, 0.0, 0.0, 0.0, 0.0, 0.0, 0.0, 0.0, 1.7074738667545767E9, 0.0, 2024-02-09 11:17:46.754
166.0, -24005.32651011068, -25588.567625113443, 6905.3926355114745, -7359.8930072656885, 40641.77461168464, 11254.304498947204, 26352.41614012911, -615.6788010214331, 16901.852715236273, -672.0275487932621, 37224.72932633512, 23794.57191164159, 36128.01863289102, 26830.005863905655, 25400.79061994441, 25084.75930509082, 0.04782421875, 1.020060546875, 0.09952734375, 192.0, 0.0, 0.0, 0.0, 0.0, 0.0, 0.0, 0.0, 0.0, 0.0, 1.7074738667617326E9, 0.0, 2024-02-09 11:17:46.761
168.0, -23973.542329495234, -25572.764941783542, 6929.599574756572, -7377.372071429739, 41001.99532532637, 11295.431708744969, 26516.321482219875, -513.8442532830541, 17202.30486420451, -594.9587339113634, 37651.580590198115, 23899.82627628163, 36571.38783590649, 27041.11809028603, 25622.54227668551, 25249.916344871086, 0.04782421875, 1.020060546875, 0.09952734375, 192.0, 0.0, 0.0, 0.0, 0.0, 0.0, 0.0, 0.0, 0.0, 0.0, 1.707473866769675E9, 0.0, 2024-02-09 11:17:46.769
170.0, -24046.09609199716, -25620.061233050972, 6879.911646832425, -7352.6733938066245, 40587.03518951359, 11221.179213664438, 26315.53576177785, -630.9897459733183, 17012.672664245685, -650.1898944604271, 37484.9483352838, 23822.66805442191, 36509.07117236509, 26944.200926327816, 25541.47249954611, 25243.322580256772, 0.054, 1.02, 0.096, 192.0, 0.5, 88.0, 15.5, 112.0, 1.5, 0.0, 0.0, 0.0, 0.0, 1.7074738667786088E9, 0.0, 2024-02-09 11:17:46.778
172.0, -23957.73964616533, -25550.703770006156, 6945.759885997759, -7365.972681757532, 40889.61075420508, 11304.461813504913, 26481.497464358505, -502.15429093292846, 17011.912704934206, -632.5543680851898, 37330.274263653075, 23848.081987867594, 36171.649238067774, 26897.239911227218, 25461.967344518584, 25108.45215421345, 0.054, 1.02, 0.096, 192.0, 0.0, 0.0, 0.0, 0.0, 0.0, 0.0, 0.0, 0.0, 0.0, 1.7074738667866035E9, 0.0, 2024-02-09 11:17:46.786
174.0, -24026.270094665302, -25594.98257577212, 6888.919399847913, -7356.830818275312, 40799.39911358346, 11264.832170585654, 26412.028242591412, -544.8014193536543, 17207.848096829428, -593.0141321437517, 37752.90104781402, 23889.075087198627, 36760.66240795403, 27082.714686717354, 25674.733599988653, 25352.957886810054, 0.054, 1.02, 0.096, 192.0, 0.0, 0.0, 0.0, 0.0, 0.0, 0.0, 0.0, 0.0, 0.0, 1.707473866793631E9, 0.0, 2024-02-09 11:17:46.793
176.0, -24007.360518856112, -25580.275127920526, 6909.930039635902, -7359.177751443119, 40629.48115223422, 11252.762228579788, 26346.35881738172, -599.4067310579695, 16897.404718089667, -661.0304905212511, 37237.40276544127, 23797.47763842078, 36097.10617030933, 26841.427605322315, 25399.74008795501, 25108.295692002263, 0.054, 1.02, 0.096, 192.0, 0.0, 0.0, 0.0, 0.0, 0.0, 0.0, 0.0, 0.0, 0.0, 1.707473866801608E9, 0.0, 2024-02-09 11:17:46.801
178.0, -23962.612326456587, -25562.505491078555, 6933.019391658234, -7375.382766173216, 40987.712560619424, 11306.09349085015, 26519.517781676983, -495.56052631861286, 17198.907399047304, -591.6059722430673, 37659.2919420352, 23898.30635765867, 36532.94283544336, 27031.68565412589, 25617.133154527328, 25262.679190955067, 0.054, 1.02, 0.096, 192.0, 0.0, 0.0, 0.0, 0.0, 0.0, 0.0, 0.0, 0.0, 0.0, 1.7074738668106349E9, 0.0, 2024-02-09 11:17:46.810
180.0, -24044.95615302994, -25625.045672064505, 6880.805716610636, -7353.634518818202, 40583.12363423391, 11236.266641171771, 26314.842857699736, -616.8187399886536, 17022.4180248282, -633.4484378634022, 37503.0532482926, 23826.44549923486, 36471.162613768895, 26940.132908836953, 25537.15861286624, 25250.89982162712, 0.06, 1.03, 0.1, 192.0, 0.5, 112.0, 16.0, 24.0, 1.5, 16.0, 0.0, 0.0, 0.0, 1.707473866817661E9, 0.0, 2024-02-09 11:17:46.817
182.0, -23963.282878790247, -25567.62404055882, 6940.440170817396, -7377.059147007364, 40893.52230948476, 11306.674636205988, 26495.601415109806, -501.3049246436268, 17014.28198984647, -627.1452459270056, 37334.409336377306, 23847.21026983384, 36140.46855455262, 26897.75400134969, 25454.457158381603, 25106.440497212472, 0.06, 1.03, 0.1, 192.0, 0.0, 0.0, 0.0, 0.0, 0.0, 0.0, 0.0, 0.0, 0.0, 1.7074738668256404E9, 0.0, 2024-02-09 11:17:46.825
184.0, -24022.17972542998, -25612.88632308082, 6877.564713664618, -7367.291434680395, 40815.380610869004, 11264.27337697427, 26429.306141055364, -536.9559570498416, 17211.916114320295, -595.8975071784863, 37748.65421636751, 23893.165456433948, 36753.28633228378, 27071.471759256336, 25676.14175988934, 25345.939439051086, 0.06, 1.03, 0.1, 192.0, 0.0, 0.0, 0.0, 0.0, 0.0, 0.0, 0.0, 0.0, 0.0, 1.7074738668340724E9, 0.0, 2024-02-09 11:17:46.834
186.0, -23996.83284721766, -25587.025354746027, 6909.192432068877, -7350.728792039013, 40641.68520470682, 11270.017775299284, 26362.20620420053, -578.7984226701764, 16904.087889681803, -648.9829002598406, 37230.652538615774, 23808.921731581897, 36103.38701050127, 26839.348893087972, 25404.23278859053, 25101.947796576955, 0.06, 1.03, 0.1, 192.0, 0.0, 0.0, 0.0, 0.0, 0.0, 0.0, 0.0, 0.0, 0.0, 1.7074738668426883E9, 0.0, 2024-02-09 11:17:46.842
188.0, -23963.193471812425, -25565.858252746853, 6929.823092201125, -7369.12427772573, 41002.196491026465, 11313.849546176141, 26534.44874697313, -485.61400003600124, 17210.016216041593, -567.4213847424251, 37656.40856700046, 23923.362663193067, 36535.04389942216, 27058.798320150177, 25629.761890144575, 25263.103874099717, 0.06, 1.03, 0.1, 192.0, 0.0, 0.0, 0.0, 0.0, 0.0, 0.0, 0.0, 0.0, 0.0, 1.7074738668497145E9, 0.0, 2024-02-09 11:17:46.849
190.0, -24027.56649584371, -25608.080698022928, 6879.621074154506, -7343.5762338133145, 40577.33453241998, 11233.427969625947, 26306.818581440282, -626.8099697601759, 17031.492833077053, -624.9994784592961, 37501.555681414095, 23848.461967523333, 36484.707770908804, 26964.496310293238, 25546.05460715945, 25256.57716471877, 0.062, 1.032, 0.094, 192.0, 0.5, 120.0, 16.0, 32.0, 1.0, 120.0, 0.0, 0.0, 0.0, 1.7074738668577373E9, 0.0, 2024-02-09 11:17:46.857
192.0, -23946.183794281937, -25543.260639102537, 6945.201092386376, -7360.809428788356, 40881.6982366679, 11309.267438562803, 26486.034868482933, -523.2543376987384, 17020.071091660393, -602.5359752817125, 37334.29757765503, 23869.517310800235, 36141.56379003093, 26907.409954954383, 25454.457158381603, 25109.88266585859, 0.062, 1.032, 0.094, 192.0, 0.0, 0.0, 0.0, 0.0, 0.0, 0.0, 0.0, 0.0, 0.0, 1.7074738668667235E9, 0.0, 2024-02-09 11:17:46.866
194.0, -24013.596655559144, -25598.089468251404, 6891.668664415916, -7355.60147233027, 40821.30382314966, 11273.862275345598, 26434.894077169192, -546.6566141434448, 17226.958838338716, -570.5729807106234, 37765.50743168681, 23922.20037248139, 36766.51856500132, 27093.35411707808, 25689.08341992896, 25359.6857618911, 0.062, 1.032, 0.094, 192.0, 0.0, 0.0, 0.0, 0.0, 0.0, 0.0, 0.0, 0.0, 0.0, 1.70747386687376E9, 0.0, 2024-02-09 11:17:46.873
196.0, -24002.152562398027, -25578.039953474996, 6909.684170446893, -7353.8356845183, 40623.624995186925, 11247.353106421604, 26340.279142889874, -632.8896442520195, 16915.263761909457, -641.0927344671172, 37237.62628288582, 23818.24240901976, 36135.88644693929, 26854.615134550946, 25415.65453000719, 25114.10714556064, 0.062, 1.032, 0.094, 192.0, 0.0, 0.0, 0.0, 0.0, 0.0, 0.0, 0.0, 0.0, 0.0, 1.7074738668817532E9, 0.0, 2024-02-09 11:17:46.881
198.0, -23968.736704437342, -25559.063322432437, 6927.811435200148, -7374.131068483719, 40986.952601307945, 11301.980769870373, 26514.890970574736, -524.394276665959, 17209.904457319317, -576.8985243914752, 37644.852715117064, 23920.255770713782, 36549.90780948494, 27049.41058747895, 25615.859105093376, 25248.95521985951, 0.062, 1.032, 0.094, 192.0, 0.0, 0.0, 0.0, 0.0, 0.0, 0.0, 0.0, 0.0, 0.0, 1.70747386688978E9, 0.0, 2024-02-09 11:17:46.889
200.0, -24047.258382708835, -25607.67836662273, 6872.4014606954415, -7348.471265849026, 40574.18293645179, 11243.732123819844, 26319.939055435545, -596.9256874234304, 17038.623039558297, -625.714734281866, 37503.12030352596, 23848.171394845416, 36513.27330032269, 26959.78009221317, 25542.947714680162, 25263.126225844175, 0.064, 1.026, 0.098, 192.0, 1.0, 0.0, 16.0, 8.0, 1.5, 8.0, 0.0, 0.0, 0.0, 1.7074738668978014E9, 0.0, 2024-02-09 11:17:46.897
202.0, -23965.763922424787, -25546.121662392816, 6929.979554412313, -7376.03096676242, 40861.06757653566, 11296.6163512011, 26479.932842246635, -528.2611284567271, 17015.488984047053, -613.2648126202599, 37318.22667339166, 23861.91771768543, 36151.26444712454, 26899.98917579522, 25443.32598964286, 25102.752459377345, 0.064, 1.026, 0.098, 192.0, 0.0, 0.0, 0.0, 0.0, 0.0, 0.0, 0.0, 0.0, 0.0, 1.7074738669060476E9, 0.0, 2024-02-09 11:17:46.906
204.0, -24040.597562861152, -25600.05642176347, 6872.714385117815, -7369.683071337113, 40793.855880958545, 11258.506626904802, 26422.600617718774, -562.5487044511682, 17209.278608474568, -591.7847861987098, 37746.5084488998, 23911.225665953836, 36764.573963233706, 27079.674849471434, 25671.716114487186, 25345.15712799515, 0.064, 1.026, 0.098, 192.0, 0.0, 0.0, 0.0, 0.0, 0.0, 0.0, 0.0, 0.0, 0.0, 1.707473866913776E9, 0.0, 2024-02-09 11:17:46.913
206.0, -24011.60735030262, -25568.339296381393, 6899.4023679974525, -7355.042678718887, 40604.067218788536, 11259.311289705192, 26342.11198593521, -614.3600480985699, 16899.796354746384, -650.2569496937931, 37233.737079350605, 23816.94600784135, 36112.90885363923, 26824.864962680935, 25399.494218766, 25101.545465176758, 0.064, 1.026, 0.098, 192.0, 0.0, 0.0, 0.0, 0.0, 0.0, 0.0, 0.0, 0.0, 0.0, 1.7074738669228044E9, 0.0, 2024-02-09 11:17:46.922
208.0, -23957.851404887606, -25536.242191343572, 6924.883356676502, -7365.302129423872, 40975.44145291346, 11316.799976444243, 26537.48858421905, -473.1864301188505, 17207.982207296158, -574.3504255235703, 37652.698177420876, 23932.616285397566, 36535.37917558899, 27042.056863553153, 25612.506343425077, 25259.48289149796, 0.064, 1.026, 0.098, 192.0, 0.0, 0.0, 0.0, 0.0, 0.0, 0.0, 0.0, 0.0, 0.0, 1.7074738669298313E9, 0.0, 2024-02-09 11:17:46.929
210.0, -24029.198173188946, -25592.88151179332, 6873.966082807313, -7337.138931410186, 40564.19170668026, 11241.005210996296, 26324.342349093244, -608.4368358179136, 17058.337278167877, -619.098617923095, 37520.979347345754, 23863.4823397973, 36515.821399190594, 26975.046333676142, 25546.278124604003, 25271.41872303709, 0.068, 1.022, 0.096, 192.0, 1.0, 16.0, 15.5, 120.0, 1.5, 0.0, 0.0, 0.0, 0.0, 1.707473866937846E9, 0.0, 2024-02-09 11:17:46.937
212.0, -23955.593878697622, -25525.647464471756, 6930.739513723793, -7372.40998416066, 40837.66530009095, 11293.554162210723, 26458.00578093598, -539.2358349842829, 17023.535612050964, -602.3348095816148, 37332.19651367623, 23868.28796485519, 36143.64250226528, 26900.79383859561, 25440.912001241686, 25109.323872247205, 0.068, 1.022, 0.096, 192.0, 0.0, 0.0, 0.0, 0.0, 0.0, 0.0, 0.0, 0.0, 0.0, 1.7074738669458833E9, 0.0, 2024-02-09 11:17:46.945
214.0, -24010.087431679658, -25570.30624989346, 6890.215801026321, -7357.367260142239, 40798.79561648317, 11260.965318794886, 26450.22737386553, -546.5672071656236, 17234.066693075503, -570.103594077062, 37765.865059598094, 23917.238285212316, 36767.41263477953, 27089.174340864938, 25670.12914063086, 25354.88013683321, 0.068, 1.022, 0.096, 192.0, 0.0, 0.0, 0.0, 0.0, 0.0, 0.0, 0.0, 0.0, 0.0, 1.7074738669538798E9, 0.0, 2024-02-09 11:17:46.953
216.0, -24003.404260087522, -25547.932153693695, 6907.113719834533, -7350.6840885501015, 40595.19357623978, 11259.266586216281, 26358.898146021147, -585.8839256625088, 16920.91875325665, -632.1073331960837, 37244.86824808935, 23822.556295699633, 36136.646406250766, 26853.36343686145, 25410.26775959346, 25123.673692187513, 0.068, 1.022, 0.096, 192.0, 0.0, 0.0, 0.0, 0.0, 0.0, 0.0, 0.0, 0.0, 0.0, 1.707473866961861E9, 0.0, 2024-02-09 11:17:46.961
218.0, -23960.82418690016, -25534.14112736477, 6933.2205573583315, -7362.910492767155, 40973.25098195684, 11304.171240826994, 26534.471098717582, -494.57704956257936, 17208.31748346299, -568.8071928986541, 37644.383328483505, 23926.78248009473, 36531.08764065357, 27051.042264824184, 25608.035994534017, 25267.194243335038, 0.068, 1.022, 0.096, 192.0, 0.0, 0.0, 0.0, 0.0, 0.0, 0.0, 0.0, 0.0, 0.0, 1.7074738669698818E9, 0.0, 2024-02-09 11:17:46.969
220.0, -24035.94840001445, -25586.086581478907, 6894.1273563059995, -7323.63847775918, 40575.97107600821, 11259.80302808321, 26330.243209629443, -596.5457077676901, 17059.812493301928, -610.1802718854275, 37527.28253928215, 23871.01487767874, 36514.41323928991, 26986.803351259634, 25551.44137757318, 25284.13686563216, 0.054, 1.026, 0.1, 192.0, 0.5, 88.0, 16.0, 8.0, 1.5, 16.0, 0.0, 0.0, 0.0, 1.7074738669779956E9, 0.0, 2024-02-09 11:17:46.977
222.0, -23960.801835155708, -25527.256790072537, 6943.748228996781, -7360.004765987965, 40851.00929153077, 11314.318932809703, 26468.131121174232, -510.8044160371323, 17018.93115269317, -601.3736845700365, 37327.614406062894, 23885.45410459687, 36121.134295598786, 26911.008585811687, 25440.7555390305, 25123.11489857613, 0.054, 1.026, 0.1, 192.0, 0.0, 0.0, 0.0, 0.0, 0.0, 0.0, 0.0, 0.0, 0.0, 1.7074738669849055E9, 0.0, 2024-02-09 11:17:46.984
224.0, -24022.827926019185, -25566.34999112487, 6895.4684609733185, -7350.21470191654, 40806.12698866451, 11278.913769592496, 26432.12246085673, -549.7635066227325, 17233.329085508478, -576.4738412468245, 37763.94280957494, 23928.660026628975, 36743.18334378998, 27088.995526909297, 25671.98433542065, 25366.458340461057, 0.054, 1.026, 0.1, 192.0, 0.0, 0.0, 0.0, 0.0, 0.0, 0.0, 0.0, 0.0, 0.0, 1.7074738669939568E9, 0.0, 2024-02-09 11:17:46.993
226.0, -24013.306082881223, -25555.777615997507, 6905.951429122857, -7347.554844326359, 40600.356829208955, 11262.105257762107, 26340.994398712446, -603.4076933154695, 16921.365788145755, -635.9294814979412, 37247.23753300161, 23834.24625804976, 36117.848589163856, 26850.569468804537, 25402.489352523015, 25121.79614565327, 0.054, 1.026, 0.1, 192.0, 0.0, 0.0, 0.0, 0.0, 0.0, 0.0, 0.0, 0.0, 0.0, 1.7074738670019224E9, 0.0, 2024-02-09 11:17:47.001
228.0, -23962.634678201044, -25512.32582477639, 6930.381885812508, -7363.558693356359, 40978.88362155958, 11320.823290446198, 26519.24956074352, -484.5634680466018, 17214.352454465923, -564.7838788966989, 37631.48637193279, 23934.024445298248, 36504.33260254057, 27038.279418740207, 25599.408221174268, 25251.995057105432, 0.054, 1.026, 0.1, 192.0, 0.0, 0.0, 0.0, 0.0, 0.0, 0.0, 0.0, 0.0, 0.0, 1.707473867009939E9, 0.0, 2024-02-09 11:17:47.009
230.0, -24044.151490229546, -25567.288764391993, 6875.687167130372, -7340.156416911652, 40590.8796895599, 11242.770998808266, 26332.567791052796, -622.3619726135698, 17059.588975857376, -611.968411441852, 37517.604233933, 23870.67960151191, 36507.90888165341, 26975.113388909507, 25546.25577285955, 25271.709295715013, 0.054, 1.02, 0.1, 192.0, 0.5, 88.0, 15.5, 112.0, 1.5, 16.0, 0.0, 0.0, 0.0, 1.7074738670169432E9, 0.0, 2024-02-09 11:17:47.016
232.0, -23959.661896188485, -25510.940016620163, 6944.687002263904, -7358.8871787652, 40874.43391971993, 11310.250915318837, 26483.307955659388, -523.522558632202, 17017.12066139229, -598.9149926799528, 37309.86712096538, 23879.083857427104, 36116.507484496535, 26899.497437417205, 25443.66126580969, 25107.088697801675, 0.054, 1.02, 0.1, 192.0, 0.0, 0.0, 0.0, 0.0, 0.0, 0.0, 0.0, 0.0, 0.0, 1.707473867025992E9, 0.0, 2024-02-09 11:17:47.025
234.0, -24008.07577467868, -25549.317961849923, 6895.624923184505, -7353.634518818202, 40833.95491051137, 11270.04012704374, 26436.8386789368, -559.7100329053442, 17246.94129788176, -566.616721942034, 37763.33931247465, 23933.48800343132, 36755.16387881802, 27097.332727591125, 25677.393457578833, 25356.86944208973, 0.054, 1.02, 0.1, 192.0, 0.0, 0.0, 0.0, 0.0, 0.0, 0.0, 0.0, 0.0, 0.0, 1.707473867033983E9, 0.0, 2024-02-09 11:17:47.033
236.0, -24003.828943232173, -25539.81847045642, 6911.405254769952, -7352.002841472965, 40617.23239627271, 11255.042106514229, 26336.188773654554, -627.100542438095, 16935.603849363786, -628.1287226830391, 37251.640826659306, 23831.94402837086, 36136.13231612829, 26845.383864090905, 25401.617634489256, 25112.564875193224, 0.054, 1.02, 0.1, 192.0, 0.0, 0.0, 0.0, 0.0, 0.0, 0.0, 0.0, 0.0, 0.0, 1.7074738670409813E9, 0.0, 2024-02-09 11:17:47.040
238.0, -23957.806701398695, -25510.962368364617, 6931.633583502005, -7373.236998705506, 40994.37338046711, 11307.23342981737, 26510.01829028348, -515.4312271393809, 17214.553620166018, -560.4029369834586, 37635.44263070138, 23927.251866728293, 36511.06047762161, 27043.934410087397, 25593.6414711048, 25243.47904246796, 0.054, 1.02, 0.1, 192.0, 0.0, 0.0, 0.0, 0.0, 0.0, 0.0, 0.0, 0.0, 0.0, 1.7074738670500731E9, 0.0, 2024-02-09 11:17:47.050
240.0, -24044.777339074295, -25576.140055196294, 6872.826143840092, -7355.959100241555, 40589.85150931496, 11216.485347328824, 26302.30352906031, -654.4590776513908, 17066.67447884971, -610.4931963078018, 37522.90159736891, 23851.568860002622, 36524.33741382807, 26965.837414960555, 25535.214011098626, 25261.7627694324, 0.052000000000000005, 1.02, 0.10200000000000001, 192.0, 0.5, 80.0, 15.5, 112.0, 1.5, 24.0, 0.0, 0.0, 0.0, 1.707473867058124E9, 0.0, 2024-02-09 11:17:47.058
242.0, -23958.343143265625, -25502.781629893976, 6945.066981919645, -7363.849266034278, 40869.225963261844, 11315.48122352138, 26485.833702782835, -509.5974218365457, 17019.624056771285, -603.0724171486398, 37310.18004538775, 23864.935203186895, 36126.94574915716, 26883.47123664275, 25430.22786739205, 25109.703851902945, 0.052000000000000005, 1.02, 0.10200000000000001, 192.0, 0.0, 0.0, 0.0, 0.0, 0.0, 0.0, 0.0, 0.0, 0.0, 1.7074738670660467E9, 0.0, 2024-02-09 11:17:47.066
244.0, -24023.923161497496, -25559.39859859927, 6890.841649871069, -7367.514952124948, 40832.390288399496, 11268.028470042762, 26453.26721111145, -544.4437914423694, 17238.69350417775, -572.651692944967, 37757.59491414963, 23913.617302610553, 36756.236762551875, 27082.781741950723, 25677.304050601015, 25368.961735840054, 0.052000000000000005, 1.02, 0.10200000000000001, 192.0, 0.0, 0.0, 0.0, 0.0, 0.0, 0.0, 0.0, 0.0, 0.0, 1.7074738670730486E9, 0.0, 2024-02-09 11:17:47.073
246.0, -24024.906638253527, -25557.230479387104, 6900.497603475762, -7365.771516057434, 40607.08470429, 11253.723353591366, 26346.962314482014, -615.0976556655951, 16915.755500287476, -647.9994235038071, 37229.15497173726, 23803.75847861272, 36120.50844675404, 26827.524820271115, 25400.36593679976, 25117.102279317653, 0.052000000000000005, 1.02, 0.10200000000000001, 192.0, 0.0, 0.0, 0.0, 0.0, 0.0, 0.0, 0.0, 0.0, 0.0, 1.7074738670820081E9, 0.0, 2024-02-09 11:17:47.082
248.0, -23966.12155033607, -25507.587254951868, 6937.288574849198, -7372.40998416066, 40992.69699963296, 11317.984618900373, 26536.97449409658, -489.8384797380543, 17208.563352651996, -572.2046580558608, 37612.95677577934, 23909.102250230582, 36494.07315183558, 27038.86056409604, 25591.540407126, 25248.910516370597, 0.052000000000000005, 1.02, 0.10200000000000001, 192.0, 0.0, 0.0, 0.0, 0.0, 0.0, 0.0, 0.0, 0.0, 0.0, 1.707473867090042E9, 0.0, 2024-02-09 11:17:47.090
250.0, -24045.55965013023, -25568.339296381393, 6885.678396901893, -7343.2856611353955, 40597.11582626293, 11248.470693644369, 26341.910820235113, -599.8984694359863, 17076.88922606578, -613.5553852981789, 37523.10276306901, 23849.42309253491, 36521.78931496016, 26989.709078038824, 25549.809700227943, 25282.34872607574, 0.054, 1.018, 0.11, 192.0, 0.5, 88.0, 15.5, 104.0, 1.5, 56.0, 0.0, 0.0, 0.0, 1.707473867097134E9, 0.0, 2024-02-09 11:17:47.097
252.0, -23966.523881736266, -25508.078993329884, 6946.788066242703, -7367.582007358314, 40856.39606194449, 11305.154717583027, 26473.316725887864, -531.0103930247299, 17015.93601893616, -610.001457929785, 37299.518263282574, 23853.468758281324, 36107.65619369223, 26898.69277461681, 25424.88580046723, 25106.485200701383, 0.054, 1.018, 0.11, 192.0, 0.0, 0.0, 0.0, 0.0, 0.0, 0.0, 0.0, 0.0, 0.0, 1.7074738671060994E9, 0.0, 2024-02-09 11:17:47.106
254.0, -24020.45864110692, -25545.451110059155, 6907.784272168193, -7352.31576589534, 40844.974320527836, 11274.398717212525, 26471.52858633144, -540.6663466294225, 17249.064713605014, -563.5321812072017, 37758.7125013724, 23915.740718333807, 36752.258152038834, 27087.185035608418, 25679.114541901894, 25361.138625280695, 0.054, 1.018, 0.11, 192.0, 0.0, 0.0, 0.0, 0.0, 0.0, 0.0, 0.0, 0.0, 0.0, 1.7074738671140664E9, 0.0, 2024-02-09 11:17:47.114
0.0, -24019.251646906334, -25538.231496600092, 6914.668609460427, -7352.986318228998, 40621.747448652684, 11260.093600761129, 26372.867986305715, -585.3027803066708, 16932.25108769549, -637.4494001209022, 37246.030538801024, 23814.420260717903, 36136.981682417594, 26854.70454152877, 25412.994672417008, 25124.053671843252, 0.054, 1.018, 0.11, 192.0, 0.0, 0.0, 0.0, 0.0, 0.0, 0.0, 0.0, 0.0, 0.0, 1.7074738671211092E9, 0.0, 2024-02-09 11:17:47.121
2.0, -23981.477198776865, -25518.606664968334, 6926.336220066098, -7387.65387387918, 40998.57550842471, 11309.42390077399, 26547.725683179582, -482.104776156518, 17212.653721887316, -579.4913267482909, 37609.96164202233, 23905.77184030674, 36498.74466642674, 27033.630255893502, 25599.519979896544, 25249.357551259705, 0.054, 1.018, 0.11, 192.0, 0.0, 0.0, 0.0, 0.0, 0.0, 0.0, 0.0, 0.0, 0.0, 1.7074738671293576E9, 0.0, 2024-02-09 11:17:47.129
4.0, -24062.43521719399, -25573.77077028403, 6872.133239761978, -7357.702536309068, 40598.0322477856, 11239.574699351157, 26339.809756256316, -611.4990248082906, 17069.423743417712, -619.5009493232906, 37518.07362056657, 23836.05674935064, 36531.40056507594, 26963.132853881463, 25544.646447258765, 25275.374981805682, 0.05, 1.012, 0.112, 192.0, 0.5, 72.0, 15.5, 80.0, 1.5, 64.0, 0.0, 0.0, 0.0, 1.707473867138153E9, 0.0, 2024-02-09 11:17:47.138
6.0, -23971.910652149996, -25506.827295640385, 6941.937737695902, -7364.676280579124, 40863.92859982594, 11318.85633693413, 26489.544092362416, -517.2864219291713, 17010.45984154461, -600.16669036945, 37290.04112363352, 23846.942048900375, 36110.2713477935, 26885.237024454716, 25425.73516675653, 25104.384136722583, 0.05, 1.012, 0.112, 192.0, 0.0, 0.0, 0.0, 0.0, 0.0, 0.0, 0.0, 0.0, 0.0, 1.7074738671451747E9, 0.0, 2024-02-09 11:17:47.145
8.0, -24027.56649584371, -25548.87092696082, 6904.118586077522, -7355.020326974432, 40853.31152120966, 11292.682444176966, 26469.852205497293, -534.7654860932215, 17249.84702466095, -575.1774400684167, 37760.165364762, 23913.572599121642, 36764.81983242271, 27093.30941358917, 25676.74525698963, 25366.234823016504, 0.05, 1.012, 0.112, 192.0, 0.0, 0.0, 0.0, 0.0, 0.0, 0.0, 0.0, 0.0, 0.0, 1.7074738671531265E9, 0.0, 2024-02-09 11:17:47.153
10.0, -24023.3196643972, -25541.91953443522, 6919.965972896335, -7345.409076858649, 40625.6366521879, 11283.562932439201, 26374.276146206397, -596.6351147455114, 16936.184994719624, -637.9411384989189, 37252.49019294861, 23822.04220557716, 36159.86986873983, 26859.666628797848, 25419.320216097858, 25139.49872726187, 0.05, 1.012, 0.112, 192.0, 0.0, 0.0, 0.0, 0.0, 0.0, 0.0, 0.0, 0.0, 0.0, 1.7074738671621757E9, 0.0, 2024-02-09 11:17:47.162
12.0, -23977.789160941742, -25503.89921711674, 6942.787103985203, -7367.671414336135, 41009.796084141264, 11333.161453385526, 26557.180471084175, -495.22525015178326, 17212.229038742666, -569.3659865100368, 37615.14724673596, 23911.762107820763, 36502.767980428696, 27045.722549643822, 25607.991291045106, 25262.634487466155, 0.05, 1.012, 0.112, 192.0, 0.0, 0.0, 0.0, 0.0, 0.0, 0.0, 0.0, 0.0, 0.0, 1.7074738671701827E9, 0.0, 2024-02-09 11:17:47.170
14.0, -24055.528528157298, -25561.142034666784, 6893.277990016698, -7329.539338295382, 40619.80284688507, 11272.118839278084, 26357.601744842737, -597.3056670791707, 17083.505342424553, -602.3348095816148, 37542.794649934134, 23853.222889092314, 36553.26057115324, 26988.278566393685, 25569.546290581977, 25301.347708862748, 0.052000000000000005, 1.016, 0.11, 192.0, 0.5, 88.0, 15.5, 112.0, 1.5, 48.0, 0.0, 0.0, 0.0, 1.7074738671772468E9, 0.0, 2024-02-09 11:17:47.177
16.0, -23966.16625382498, -25495.89729260174, 6966.703470552382, -7346.034925703398, 40866.67786439394, 11337.028305176294, 26491.66750808567, -511.2290991817831, 17017.478289303577, -596.2327833453159, 37300.79231271653, 23867.080970654606, 36137.20519986215, 26890.914367546367, 25443.169527431673, 25126.31119803324, 0.052000000000000005, 1.016, 0.11, 192.0, 0.0, 0.0, 0.0, 0.0, 0.0, 0.0, 0.0, 0.0, 0.0, 1.707473867185238E9, 0.0, 2024-02-09 11:17:47.185
18.0, -24015.13892592656, -25532.263580830528, 6926.850310188569, -7332.936803452588, 40854.07148052115, 11310.295618807748, 26473.942574732613, -540.8898640739756, 17259.83825443247, -553.6974136468666, 37769.4636904554, 23932.012788297274, 36782.745931475874, 27104.5970445391, 25689.865730984897, 25381.679878435123, 0.052000000000000005, 1.016, 0.11, 192.0, 0.0, 0.0, 0.0, 0.0, 0.0, 0.0, 0.0, 0.0, 0.0, 1.70747386719424E9, 0.0, 2024-02-09 11:17:47.194
20.0, -24006.779373500274, -25524.216952826617, 6934.4499033033735, -7325.113692893231, 40616.58419568351, 11294.135307566561, 26371.348067682753, -586.2415535737937, 16945.505672157487, -605.1064258940728, 37263.88958262081, 23836.928467384394, 36181.88633702831, 26864.18168117782, 25429.6020185473, 25155.74844548088, 0.052000000000000005, 1.016, 0.11, 192.0, 0.0, 0.0, 0.0, 0.0, 0.0, 0.0, 0.0, 0.0, 0.0, 1.7074738672012844E9, 0.0, 2024-02-09 11:17:47.201
22.0, -23966.948564880917, -25497.99835658054, 6947.548025554183, -7362.731678811512, 40996.76501712382, 11337.989430187874, 26553.20186057113, -478.8190697215879, 17227.1153005499, -555.5302566922018, 37622.38921193948, 23934.49383193181, 36524.82915220608, 27045.566087432635, 25606.426668933236, 25270.658763725613, 0.052000000000000005, 1.016, 0.11, 192.0, 0.0, 0.0, 0.0, 0.0, 0.0, 0.0, 0.0, 0.0, 0.0, 1.7074738672095373E9, 0.0, 2024-02-09 11:17:47.209
24.0, -24054.656810123543, -25562.974877712117, 6885.991321324268, -7344.649117547169, 40596.62408788491, 11255.13151349205, 26335.272352131888, -629.9839174728296, 17082.611272646343, -614.0918271651062, 37544.24751332373, 23855.323953071114, 36579.4344639104, 26989.887891994465, 25563.645430045777, 25296.586787293767, 0.051000000000000004, 1.017, 0.109, 192.0, 0.5, 72.0, 15.5, 104.0, 1.5, 48.0, 0.0, 0.0, 0.0, 1.7074738672172952E9, 0.0, 2024-02-09 11:17:47.217
26.0, -23976.157483596504, -25497.28310075797, 6949.80555174417, -7362.619920089236, 40839.788715814204, 11319.951572412441, 26473.316725887864, -528.2834802011824, 17013.432623557168, -608.615649773556, 37292.946850412714, 23857.894403683473, 36148.805755234454, 26898.424553683348, 25426.495126068014, 25104.92057858951, 0.051000000000000004, 1.017, 0.109, 192.0, 0.0, 0.0, 0.0, 0.0, 0.0, 0.0, 0.0, 0.0, 0.0, 1.7074738672262783E9, 0.0, 2024-02-09 11:17:47.226
28.0, -24023.342016141658, -25539.974932667606, 6914.914478649435, -7354.707402552057, 40846.18131472842, 11289.083813319661, 26471.282717142432, -537.6041576390455, 17255.79258868606, -572.2493615447714, 37767.630847410066, 23915.271331700245, 36801.02965844031, 27099.679660758935, 25679.60628027991, 25367.77709338392, 0.051000000000000004, 1.017, 0.109, 192.0, 0.0, 0.0, 0.0, 0.0, 0.0, 0.0, 0.0, 0.0, 0.0, 1.7074738672333076E9, 0.0, 2024-02-09 11:17:47.233
30.0, -24024.54901034224, -25539.25967684504, 6923.050513631167, -7354.461533363049, 40607.554090923564, 11263.915749062986, 26376.108989251734, -608.392132329003, 16934.620372607755, -635.6612605644775, 37258.1451842958, 23804.38432745747, 36189.910613287764, 26856.626791551924, 25416.660358507677, 25131.228581813408, 0.051000000000000004, 1.017, 0.109, 192.0, 0.0, 0.0, 0.0, 0.0, 0.0, 0.0, 0.0, 0.0, 0.0, 1.70747386724133E9, 0.0, 2024-02-09 11:17:47.241
32.0, -23978.638527231044, -25506.849647384843, 6946.56454879815, -7380.613074375758, 41004.76694163882, 11320.018627645806, 26565.048285132445, -507.4293026243809, 17203.78007933856, -576.3397307800926, 37612.66620310142, 23898.57457859213, 36508.93706189836, 27031.35037795906, 25603.20801773167, 25248.7093506705, 0.051000000000000004, 1.017, 0.109, 192.0, 0.0, 0.0, 0.0, 0.0, 0.0, 0.0, 0.0, 0.0, 0.0, 1.7074738672503066E9, 0.0, 2024-02-09 11:17:47.250
34.0, -24060.5800224042, -25569.993325471085, 6890.819298126615, -7348.158341426652, 40608.49286419068, 11256.18204548145, 26348.43752961606, -616.9081469664749, 17082.365403457334, -619.6574115344777, 37554.05992913961, 23833.553353971645, 36591.8396820831, 26981.126008167987, 25574.19545342868, 25291.28942385786, 0.052500000000000005, 1.0154999999999998, 0.10450000000000001, 192.0, 0.5, 88.0, 15.5, 88.0, 1.5, 16.0, 0.0, 0.0, 0.0, 1.7074738672572937E9, 0.0, 2024-02-09 11:17:47.257
36.0, -23984.44998078942, -25509.24128404156, 6947.704487765371, -7364.0057282454645, 40850.65166361948, 11321.940877668963, 26506.218493726075, -529.2669569572159, 17003.150821107723, -618.2492516337934, 37290.73402771164, 23836.48143249529, 36144.469516810124, 26900.100934517497, 25440.7555390305, 25111.268474014818, 0.052500000000000005, 1.0154999999999998, 0.10450000000000001, 192.0, 0.0, 0.0, 0.0, 0.0, 0.0, 0.0, 0.0, 0.0, 0.0, 1.707473867265321E9, 0.0, 2024-02-09 11:17:47.265
38.0, -24032.32741741269, -25546.903973448752, 6907.963086123835, -7355.69087930809, 40861.98399805832, 11299.186801813461, 26490.393458651717, -533.1114570035287, 17243.141501324357, -585.3027803066708, 37762.64640839653, 23894.417154123446, 36786.70219024446, 27107.92745446294, 25690.5139315741, 25372.40390448617, 0.052500000000000005, 1.0154999999999998, 0.10450000000000001, 192.0, 0.0, 0.0, 0.0, 0.0, 0.0, 0.0, 0.0, 0.0, 0.0, 1.7074738672735064E9, 0.0, 2024-02-09 11:17:47.273
40.0, -24034.89786802505, -25548.803871727454, 6912.768711181726, -7353.433353118105, 40619.914605607344, 11269.794257854732, 26369.89520429316, -610.4484928188912, 16922.3939683907, -645.2948624247149, 37252.19962027069, 23795.287167464157, 36176.45486312567, 26858.07965494152, 25423.656454522188, 25146.383064554106, 0.052500000000000005, 1.0154999999999998, 0.10450000000000001, 192.0, 0.0, 0.0, 0.0, 0.0, 0.0, 0.0, 0.0, 0.0, 0.0, 1.7074738672823775E9, 0.0, 2024-02-09 11:17:47.282
42.0, -23980.31490806519, -25507.676661929687, 6941.110723151055, -7378.6237691192355, 41007.94088935148, 11325.42774980399, 26551.369017525794, -492.4089303504146, 17196.06872750148, -565.0520998301625, 37593.01901972521, 23898.77574429223, 36488.39580874393, 27024.53309590019, 25591.02631700353, 25242.920248856575, 0.052500000000000005, 1.0154999999999998, 0.10450000000000001, 192.0, 0.0, 0.0, 0.0, 0.0, 0.0, 0.0, 0.0, 0.0, 0.0, 1.707473867289379E9, 0.0, 2024-02-09 11:17:47.289
44.0, -24060.423560193012, -25570.216842915637, 6885.253713757243, -7352.3828211287055, 40624.049678331576, 11252.762228579788, 26365.894242035658, -606.8722137060421, 17084.488819180588, -618.2045481448828, 37542.77229818968, 23839.700083696855, 36579.792091821684, 26981.930670968377, 25570.01567721554, 25288.24958661194, 0.052250000000000005, 1.0187499999999998, 0.10125, 192.0, 0.5, 80.0, 15.5, 120.0, 1.5, 8.0, 0.0, 0.0, 0.0, 1.70747386729742E9, 0.0, 2024-02-09 11:17:47.297
46.0, -23976.336297552145, -25502.759278149522, 6950.94549071139, -7369.07957423682, 40850.22698047483, 11315.5706304992, 26486.504255116495, -534.944300048864, 16998.926341405673, -620.1267981680392, 37278.70878919468, 23836.7273016843, 36131.48315328159, 26874.910518516364, 25435.03349244994, 25102.39483146606, 0.052250000000000005, 1.0187499999999998, 0.10125, 192.0, 0.0, 0.0, 0.0, 0.0, 0.0, 0.0, 0.0, 0.0, 0.0, 1.707473867306474E9, 0.0, 2024-02-09 11:17:47.306
48.0, -24020.972731229394, -25540.220801856616, 6915.786196683192, -7355.534417096904, 40869.20361151738, 11294.09060407765, 26473.2496706545, -526.2271197112942, 17253.110379351423, -580.0277686152183, 37760.54534441773, 23898.194598936392, 36778.85672794065, 27099.70201250339, 25682.93669020375, 25356.78003511191, 0.052250000000000005, 1.0187499999999998, 0.10125, 192.0, 0.0, 0.0, 0.0, 0.0, 0.0, 0.0, 0.0, 0.0, 0.0, 1.7074738673134005E9, 0.0, 2024-02-09 11:17:47.313
50.0, -24024.14667894205, -25540.086691389883, 6925.240984587787, -7344.336193124795, 40611.957384581256, 11272.23059800036, 26346.671741804093, -597.4174258014472, 16936.16264297517, -635.6836123089329, 37257.496983706595, 23800.204551244326, 36195.31973544595, 26858.571393319537, 25429.400852847204, 25139.25285807286, 0.052250000000000005, 1.0187499999999998, 0.10125, 192.0, 0.0, 0.0, 0.0, 0.0, 0.0, 0.0, 0.0, 0.0, 0.0, 1.707473867321392E9, 0.0, 2024-02-09 11:17:47.321
52.0, -23966.61328871409, -25503.139257805262, 6964.602406573583, -7362.038774733398, 41013.32765976521, 11339.62110753311, 26549.603229713826, -480.9424854448421, 17205.277646217066, -572.7858034116988, 37592.54963309165, 23901.569712349145, 36501.60568971702, 27028.981093046797, 25601.48693340861, 25239.165155788083, 0.052250000000000005, 1.0187499999999998, 0.10125, 192.0, 0.0, 0.0, 0.0, 0.0, 0.0, 0.0, 0.0, 0.0, 0.0, 1.7074738673294525E9, 0.0, 2024-02-09 11:17:47.329
54.0, -24056.534356657787, -25576.989421485596, 6897.480117974296, -7345.07380069182, 40622.75327715317, 11260.719449605876, 26352.438491873563, -597.9538676683745, 17097.05049956447, -610.4037893299806, 37560.78780422066, 23843.544583743165, 36599.238109497805, 26986.04339194815, 25590.57928211442, 25296.05034542684, 0.051125000000000004, 1.020375, 0.100625, 192.0, 0.5, 72.0, 15.5, 120.0, 1.5, 16.0, 0.0, 0.0, 0.0, 1.707473867338492E9, 0.0, 2024-02-09 11:17:47.338
56.0, -23973.497626006323, -25509.353042763836, 6957.449848347885, -7364.676280579124, 40843.499105393785, 11312.731958953376, 26473.741409032515, -531.3009657026489, 17002.010882140505, -610.5602515411678, 37277.837071160924, 23830.13353706998, 36127.839818935376, 26883.27007094265, 25445.382350132746, 25101.791334365767, 0.051125000000000004, 1.020375, 0.100625, 192.0, 0.0, 0.0, 0.0, 0.0, 0.0, 0.0, 0.0, 0.0, 0.0, 1.7074738673454165E9, 0.0, 2024-02-09 11:17:47.345
58.0, -24016.61414106061, -25536.15278436575, 6920.927097907913, -7352.449876362071, 40868.48835569482, 11294.381176755569, 26469.09224618581, -543.0132797972298, 17258.85477767644, -565.0297480857072, 37765.70859738691, 23896.182941935414, 36777.73914071788, 27098.56207353617, 25697.04064095505, 25355.148357766673, 0.051125000000000004, 1.020375, 0.100625, 192.0, 0.0, 0.0, 0.0, 0.0, 0.0, 0.0, 0.0, 0.0, 0.0, 1.7074738673535244E9, 0.0, 2024-02-09 11:17:47.353
60.0, -24019.89984749554, -25543.282990846994, 6921.284725819198, -7345.699649536568, 40604.91658507784, 11274.264606745794, 26338.15572716662, -616.5058155662794, 16946.77972159144, -630.3638971285698, 37267.10823382238, 23802.23855998976, 36189.95531677667, 26856.827957252022, 25439.883820996743, 25137.464718516436, 0.051125000000000004, 1.020375, 0.100625, 192.0, 0.0, 0.0, 0.0, 0.0, 0.0, 0.0, 0.0, 0.0, 0.0, 1.7074738673625147E9, 0.0, 2024-02-09 11:17:47.362
62.0, -23970.100160849117, -25503.65334792773, 6945.379906342019, -7369.861885292756, 40995.42391245651, 11326.612392260122, 26520.367147966284, -510.73736080376636, 17204.674149116774, -576.2056203133608, 37586.89464174445, 23894.30539540117, 36474.94005858184, 27029.11520351353, 25599.45292466318, 25232.12435628466, 0.051125000000000004, 1.020375, 0.100625, 192.0, 0.0, 0.0, 0.0, 0.0, 0.0, 0.0, 0.0, 0.0, 0.0, 1.70747386736854E9, 0.0, 2024-02-09 11:17:47.368
64.0, -24053.226298478403, -25568.652220803764, 6889.478193459296, -7350.8852542502, 40616.89712010588, 11251.063496001185, 26340.189735912056, -632.2861471517261, 17101.722014155628, -617.2434231333045, 37559.156126875416, 23837.509612740232, 36596.57825190762, 26985.842226248056, 25586.377154156824, 25283.354554576228, 0.0525625, 1.0171875, 0.1053125, 192.0, 0.5, 88.0, 15.5, 88.0, 1.5, 56.0, 0.0, 0.0, 0.0, 1.7074738673775434E9, 0.0, 2024-02-09 11:17:47.377
66.0, -23969.161387581993, -25501.172304293195, 6956.131095425021, -7366.8220480468335, 40838.51466638025, 11322.186746857971, 26471.81915900936, -532.5750151366013, 17014.23728635756, -617.5563475556788, 37279.2005275727, 23831.206420803835, 36126.8786939238, 26879.917309274355, 25450.389140890737, 25091.308366216228, 0.0525625, 1.0171875, 0.1053125, 192.0, 0.0, 0.0, 0.0, 0.0, 0.0, 0.0, 0.0, 0.0, 0.0, 1.7074738673855314E9, 0.0, 2024-02-09 11:17:47.385
68.0, -24010.646225291042, -25535.191659354172, 6918.17783333991, -7360.474152621527, 40868.26483825026, 11292.704795921421, 26472.75793227648, -547.5283321772018, 17278.54666454156, -569.4106899989474, 37773.39759747954, 23902.374375149535, 36783.371780320624, 27108.620358541055, 25700.728678790176, 25347.615819885235, 0.0525625, 1.0171875, 0.1053125, 192.0, 0.0, 0.0, 0.0, 0.0, 0.0, 0.0, 0.0, 0.0, 0.0, 1.707473867393578E9, 0.0, 2024-02-09 11:17:47.393
70.0, -24020.03395796227, -25544.467633303124, 6915.406217027452, -7353.813332773845, 40601.89909957637, 11264.072211274173, 26344.34716038074, -625.357106370581, 16960.079009542347, -630.6321180620334, 37269.27635303454, 23796.963548298307, 36196.280860457526, 26862.438245110305, 25440.040283207927, 25121.93025612, 0.0525625, 1.0171875, 0.1053125, 192.0, 0.0, 0.0, 0.0, 0.0, 0.0, 0.0, 0.0, 0.0, 0.0, 1.7074738674016824E9, 0.0, 2024-02-09 11:17:47.401
72.0, -23968.379076526056, -25506.022632839995, 6945.312851108653, -7372.387632416205, 41009.99724984136, 11338.861148221631, 26547.524517479484, -474.751052230722, 17210.50795441961, -577.1667453249389, 37581.887850986466, 23889.902101743475, 36483.813701130595, 27024.53309590019, 25608.393622445303, 25226.826992848753, 0.0525625, 1.0171875, 0.1053125, 192.0, 0.0, 0.0, 0.0, 0.0, 0.0, 0.0, 0.0, 0.0, 0.0, 1.707473867409528E9, 0.0, 2024-02-09 11:17:47.409
74.0, -24059.23891773688, -25577.68232556371, 6884.359643979031, -7350.371164127728, 40630.59873945698, 11253.477484402358, 26341.50848883492, -610.1802718854275, 17108.829868892415, -616.6622777774666, 37557.703263485826, 23835.073272594604, 36602.70262988837, 26994.559406585624, 25597.19539847319, 25284.94152843255, 0.05628125, 1.01459375, 0.10665625000000001, 192.0, 0.5, 112.0, 15.5, 80.0, 1.5, 48.0, 0.0, 0.0, 0.0, 1.7074738674175324E9, 0.0, 2024-02-09 11:17:47.417
76.0, -23969.764884682285, -25511.454106742636, 6957.382793114519, -7359.378917143216, 40851.00929153077, 11329.540470783768, 26470.18748166412, -520.1250934749953, 17010.213972355603, -610.4037893299806, 37273.25496354759, 23826.75842365723, 36133.04777539346, 26880.02906799663, 25453.853661281308, 25100.24906399835, 0.05628125, 1.01459375, 0.10665625000000001, 192.0, 0.0, 0.0, 0.0, 0.0, 0.0, 0.0, 0.0, 0.0, 0.0, 1.7074738674245389E9, 0.0, 2024-02-09 11:17:47.424
78.0, -24014.22250440389, -25543.35004608036, 6916.948487394869, -7354.55094034087, 40882.97228610185, 11298.449194246436, 26459.391589092207, -529.0434395126629, 17270.231815604187, -565.6332451860005, 37766.356797976114, 23901.3908983935, 36790.010248423845, 27111.727251020344, 25708.17180969379, 25359.21637525754, 0.05628125, 1.01459375, 0.10665625000000001, 192.0, 0.0, 0.0, 0.0, 0.0, 0.0, 0.0, 0.0, 0.0, 0.0, 1.7074738674336028E9, 0.0, 2024-02-09 11:17:47.433
80.0, -24026.09128070966, -25553.542441551977, 6908.655990201949, -7352.941614740088, 40598.14400650788, 11268.363746209592, 26329.840878229246, -612.8848329645197, 16949.707800115088, -640.3327751556367, 37257.31816975095, 23791.28620520666, 36203.478122172135, 26868.607326579968, 25439.906172741197, 25128.322855034217, 0.05628125, 1.01459375, 0.10665625000000001, 192.0, 0.0, 0.0, 0.0, 0.0, 0.0, 0.0, 0.0, 0.0, 0.0, 1.7074738674416027E9, 0.0, 2024-02-09 11:17:47.441
82.0, -23969.51901549328, -25518.696071946153, 6942.161255140455, -7379.786059830912, 40996.07211304571, 11322.343209069159, 26536.281590018465, -491.1572326609174, 17202.818954326984, -581.4806320048133, 37568.610914780016, 23882.883653984507, 36471.65435214691, 27036.759500117245, 25597.798895573487, 25224.033024791843, 0.05628125, 1.01459375, 0.10665625000000001, 192.0, 0.0, 0.0, 0.0, 0.0, 0.0, 0.0, 0.0, 0.0, 0.0, 1.7074738674495983E9, 0.0, 2024-02-09 11:17:47.449
84.0, -24061.854071838152, -25582.64441283279, 6887.578295180595, -7355.5567688413585, 40616.11480904994, 11250.907033789998, 26328.902104962126, -613.5553852981789, 17106.840563635895, -624.3512778700922, 37557.680911741365, 23830.066481836617, 36601.741504876794, 26990.178464672383, 25589.998136758582, 25285.612080766212, 0.059140625, 1.016296875, 0.106328125, 192.0, 0.5, 120.0, 15.5, 104.0, 1.5, 40.0, 0.0, 0.0, 0.0, 1.7074738674565911E9, 0.0, 2024-02-09 11:17:47.456
86.0, -23979.75611445381, -25516.639711456268, 6956.868702992047, -7369.504257381471, 40821.21441617184, 11304.640627460556, 26453.691894256102, -549.7411548782773, 17003.59785599683, -623.4348563474246, 37256.17823078373, 23818.532981697677, 36117.24509206356, 26887.98628902272, 25435.61463780578, 25084.021697523796, 0.059140625, 1.016296875, 0.106328125, 192.0, 0.0, 0.0, 0.0, 0.0, 0.0, 0.0, 0.0, 0.0, 0.0, 1.7074738674656892E9, 0.0, 2024-02-09 11:17:47.465
88.0, -24014.4683735929, -25543.014769913527, 6921.396484541475, -7357.568425842336, 40866.27553299374, 11299.94676112494, 26460.643286781706, -518.4710643853026, 17280.24539712017, -575.5574197241568, 37753.88452457005, 23890.30443314367, 36780.08607388569, 27119.170381923963, 25700.482809601166, 25352.35438970976, 0.059140625, 1.016296875, 0.106328125, 192.0, 0.0, 0.0, 0.0, 0.0, 0.0, 0.0, 0.0, 0.0, 0.0, 1.707473867473845E9, 0.0, 2024-02-09 11:17:47.473
90.0, -24026.4712603654, -25556.96225845364, 6914.869775160525, -7351.9134344951435, 40588.51040464764, 11272.901150334019, 26346.917610993103, -591.4271582874248, 16961.420114209668, -637.6058623320893, 37260.313303507966, 23791.532074395665, 36207.70260187419, 26884.678230843336, 25447.32695190036, 25143.432634286004, 0.059140625, 1.016296875, 0.106328125, 192.0, 0.0, 0.0, 0.0, 0.0, 0.0, 0.0, 0.0, 0.0, 0.0, 1.7074738674806693E9, 0.0, 2024-02-09 11:17:47.480
92.0, -23961.785311911743, -25508.503676474535, 6960.199112915888, -7368.6995945810795, 40990.931211820985, 11326.835909704676, 26543.903534877725, -485.0999099135292, 17204.562390394498, -582.3076465496596, 37559.69256874234, 23884.314165629647, 36461.55136365311, 27038.54763967367, 25603.520942154046, 25231.27498999536, 0.059140625, 1.016296875, 0.106328125, 192.0, 0.0, 0.0, 0.0, 0.0, 0.0, 0.0, 0.0, 0.0, 0.0, 1.7074738674896708E9, 0.0, 2024-02-09 11:17:47.489
94.0, -24048.979467031895, -25573.34608713938, 6904.36445526653, -7342.190425657085, 40618.17116953983, 11263.044031029229, 26341.150860923633, -608.6380015180113, 17118.932857386215, -608.1015596510839, 37567.538031046155, 23840.795319175162, 36612.89502535999, 27012.5749126166, 25610.226465490636, 25300.364232106716, 0.0605703125, 1.0161484375, 0.1041640625, 192.0, 0.5, 120.0, 15.5, 96.0, 1.5, 24.0, 0.0, 0.0, 0.0, 1.7074738674976876E9, 0.0, 2024-02-09 11:17:47.497
96.0, -23973.631736473053, -25520.663025458223, 6965.317662396153, -7359.848303776777, 40820.34269813808, 11325.159528870527, 26453.110748900268, -531.0103930247299, 17009.69988223313, -615.5893940436118, 37257.295818006496, 23820.745804398754, 36114.38406877328, 26882.532463375625, 25450.27738216846, 25095.48814242937, 0.0605703125, 1.0161484375, 0.1041640625, 192.0, 0.0, 0.0, 0.0, 0.0, 0.0, 0.0, 0.0, 0.0, 0.0, 1.707473867504706E9, 0.0, 2024-02-09 11:17:47.504
98.0, -24010.42270784649, -25551.59783978437, 6926.51503402174, -7356.4955421084815, 40876.26676276526, 11301.153755325528, 26463.101978671788, -531.5915383805678, 17280.066583164524, -571.3105882776485, 37753.41513793649, 23889.11979068754, 36777.26975408432, 27116.242303400315, 25714.340891163458, 25359.17167176863, 0.0605703125, 1.0161484375, 0.1041640625, 192.0, 0.0, 0.0, 0.0, 0.0, 0.0, 0.0, 0.0, 0.0, 0.0, 1.707473867512726E9, 0.0, 2024-02-09 11:17:47.512
100.0, -24024.213734175413, -25556.29170611998, 6918.066074617634, -7352.829856017811, 40588.21983196972, 11266.75442060881, 26324.1635351376, -614.4047515874805, 16956.12275077376, -643.1490949570054, 37252.64665515979, 23777.7633998112, 36203.50047391659, 26879.738495318714, 25445.494108855022, 25134.11195684814, 0.0605703125, 1.0161484375, 0.1041640625, 192.0, 0.0, 0.0, 0.0, 0.0, 0.0, 0.0, 0.0, 0.0, 0.0, 1.707473867521718E9, 0.0, 2024-02-09 11:17:47.521
102.0, -23955.951506608904, -25505.66500492871, 6960.959072227368, -7376.969740029543, 41000.40835147004, 11330.769816728809, 26533.44291847264, -484.63052327996775, 17206.17171599528, -572.003492355763, 37551.24360933824, 23875.619337036533, 36457.21512522878, 27032.15504075945, 25596.54719788399, 25220.948484057008, 0.0605703125, 1.0161484375, 0.1041640625, 192.0, 0.0, 0.0, 0.0, 0.0, 0.0, 0.0, 0.0, 0.0, 0.0, 1.7074738675300188E9, 0.0, 2024-02-09 11:17:47.530
104.0, -24039.5246791273, -25570.418008615736, 6911.852289659058, -7343.531530324403, 40622.797980642084, 11259.780676338754, 26343.98953246946, -597.9985711572851, 17128.90173541328, -608.906222451475, 37574.24355438275, 23832.43576674888, 36623.82502839864, 27006.227017191293, 25606.426668933236, 25300.475990828993, 0.05628515625, 1.02107421875, 0.10208203125000001, 192.0, 0.5, 80.0, 16.0, 8.0, 1.5, 16.0, 0.0, 0.0, 0.0, 1.7074738675368261E9, 0.0, 2024-02-09 11:17:47.536
106.0, -23964.199300312914, -25519.120755090804, 6969.564493842661, -7361.345870655284, 40811.24553814477, 11317.448177033446, 26449.37800757623, -530.0269162686964, 17014.17023112419, -617.3551818555811, 37255.28416100552, 23819.04707182015, 36119.48026650909, 26877.860948784466, 25441.42609136416, 25088.04501152575, 0.05628515625, 1.02107421875, 0.10208203125000001, 192.0, 0.0, 0.0, 0.0, 0.0, 0.0, 0.0, 0.0, 0.0, 0.0, 1.70747386754472E9, 0.0, 2024-02-09 11:17:47.544
108.0, -24004.052460676725, -25555.129415408304, 6928.794911956181, -7363.446934634082, 40874.65743716448, 11290.447269731436, 26460.218603637055, -542.0521547856516, 17285.028670433603, -574.7080534348552, 37752.14108850254, 23890.840875010595, 36780.84603319717, 27097.735058991322, 25703.723812547185, 25347.347598951772, 0.05628515625, 1.02107421875, 0.10208203125000001, 192.0, 0.0, 0.0, 0.0, 0.0, 0.0, 0.0, 0.0, 0.0, 0.0, 1.7074738675537467E9, 0.0, 2024-02-09 11:17:47.553
110.0, -24017.08352769417, -25560.20326139966, 6928.951374167368, -7350.527626338915, 40597.60756464095, 11264.027507785262, 26330.489078818453, -613.1754056424387, 16971.70191665911, -641.4503623784021, 37267.287047778016, 23782.926652780374, 36221.247759014106, 26873.03297198212, 25450.433844379648, 25131.519154491325, 0.05628515625, 1.02107421875, 0.10208203125000001, 192.0, 0.0, 0.0, 0.0, 0.0, 0.0, 0.0, 0.0, 0.0, 0.0, 1.707473867560746E9, 0.0, 2024-02-09 11:17:47.560
112.0, -23948.06134081618, -25519.970121380105, 6969.273921164742, -7369.280739936918, 41011.293651019776, 11342.236261634382, 26537.086252818855, -477.6344272654566, 17218.040492301046, -567.3543295090592, 37565.235801367264, 23880.827293494618, 36466.08876777754, 27038.167660017927, 25602.805686331474, 25221.64138813512, 0.05628515625, 1.02107421875, 0.10208203125000001, 192.0, 0.0, 0.0, 0.0, 0.0, 0.0, 0.0, 0.0, 0.0, 0.0, 1.7074738675687845E9, 0.0, 2024-02-09 11:17:47.568
114.0, -24038.071815737705, -25590.266357692046, 6905.951429122857, -7344.224434402518, 40642.020480873645, 11261.054725772707, 26351.343256395252, -607.4086555729695, 17137.82008145095, -599.0938066355952, 37587.76635977821, 23842.069368609118, 36634.57621748164, 27026.34358720107, 25613.02043354755, 25301.459467585024, 0.05628515625, 1.02107421875, 0.10208203125000001, 192.0, 0.0, 0.0, 0.0, 0.0, 0.0, 0.0, 0.0, 0.0, 0.0, 1.7074738675777988E9, 0.0, 2024-02-09 11:17:47.577
116.0, -23960.533614222244, -25534.163479109226, 6963.954205984379, -7359.714193310046, 40818.01811671473, 11315.81649968821, 26448.506289542474, -552.713936890833, 17010.57160026689, -605.7322747388214, 37258.681626162725, 23828.457156235836, 36112.39476351676, 26887.762771578167, 25444.063597209883, 25091.889511572066, 0.046, 1.02, 0.1, 192.0, 0.5, 56.0, 15.5, 112.0, 1.5, 16.0, 0.0, 0.0, 0.0, 1.7074738675858002E9, 0.0, 2024-02-09 11:17:47.585
118.0, -24001.012623430805, -25564.71831377963, 6922.737589208793, -7363.513989867448, 40882.41349249047, 11290.00023484233, 26459.838623981315, -552.7362886352884, 17288.13556291289, -552.7362886352884, 37757.57256240518, 23904.609549595065, 36779.63903899658, 27108.307434118684, 25699.11935318939, 25347.6828751186, 0.046, 1.02, 0.1, 192.0, 0.0, 0.0, 0.0, 0.0, 0.0, 0.0, 0.0, 0.0, 0.0, 1.707473867592831E9, 0.0, 2024-02-09 11:17:47.592
120.0, -24004.946530454938, -25572.273203405526, 6919.407179284952, -7352.516931595437, 40587.057541258044, 11265.413315941492, 26333.126584664176, -622.1608069134721, 16963.543529932922, -629.9615657283742, 37261.38618724182, 23798.70698436582, 36224.868741615865, 26874.910518516364, 25448.779815289952, 25138.82817492821, 0.046, 1.02, 0.1, 192.0, 0.0, 0.0, 0.0, 0.0, 0.0, 0.0, 0.0, 0.0, 0.0, 1.7074738676008596E9, 0.0, 2024-02-09 11:17:47.600
122.0, -23948.955410594393, -25530.833069185384, 6961.562569327662, -7375.583931873314, 41006.21980502842, 11336.491863309368, 26550.027912858477, -488.2738576261828, 17208.31748346299, -566.2143905418385, 37545.05217612412, 23894.86418901255, 36449.23555245824, 27027.57293314611, 25591.383944914814, 25212.03013801934, 0.046, 1.02, 0.1, 192.0, 0.0, 0.0, 0.0, 0.0, 0.0, 0.0, 0.0, 0.0, 0.0, 1.7074738676100848E9, 0.0, 2024-02-09 11:17:47.610
124.0, -24038.4741471379, -25597.57537812893, 6899.245905786265, -7354.573292085325, 40633.57152146954, 11251.08584774564, 26343.3189801358, -601.552498525679, 17141.932802430725, -590.1531088534724, 37578.75860676272, 23857.62618275001, 36630.66466220196, 27022.20851447684, 25607.968939300652, 25299.82779023979, 0.046, 1.02, 0.1, 192.0, 0.0, 0.0, 0.0, 0.0, 0.0, 0.0, 0.0, 0.0, 0.0, 1.7074738676168349E9, 0.0, 2024-02-09 11:17:47.616
126.0, -23961.003000855806, -25540.511374534533, 6956.153447169477, -7371.940597527099, 40812.1843114119, 11305.400586772035, 26445.220583107544, -537.4476954278583, 17009.409309555213, -607.1851381284164, 37245.71761437865, 23837.464909251325, 36100.28011802198, 26881.28076568613, 25426.27160862346, 25078.38905792106, 0.058, 1.02, 0.10200000000000001, 192.0, 0.5, 104.0, 15.5, 112.0, 1.5, 24.0, 0.0, 0.0, 0.0, 1.7074738676249087E9, 0.0, 2024-02-09 11:17:47.624
128.0, -24004.27597812128, -25579.87279652033, 6919.876565918514, -7371.158286471163, 40885.31921926966, 11285.70869990691, 26470.00866770848, -543.683832130889, 17284.045193677568, -565.7226521638217, 37754.93505655945, 23909.236360697316, 36765.11040510063, 27110.65436728649, 25698.717021789198, 25348.39813094117, 0.058, 1.02, 0.10200000000000001, 192.0, 0.0, 0.0, 0.0, 0.0, 0.0, 0.0, 0.0, 0.0, 0.0, 1.7074738676338973E9, 0.0, 2024-02-09 11:17:47.633
130.0, -24006.801725244728, -25574.888357506796, 6926.962068910846, -7347.465437348537, 40581.00021851066, 11269.101353776618, 26331.9642939525, -612.5048533087794, 16964.147027033214, -631.325022140148, 37276.51831823806, 23814.375557228992, 36225.38283173834, 26872.40712313737, 25445.94114374413, 25144.63962848659, 0.058, 1.02, 0.10200000000000001, 192.0, 0.0, 0.0, 0.0, 0.0, 0.0, 0.0, 0.0, 0.0, 0.0, 1.707473867640928E9, 0.0, 2024-02-09 11:17:47.640
132.0, -23946.74258789332, -25531.123641863305, 6971.4867438658175, -7369.101925981275, 40984.13628150657, 11339.397590088558, 26537.421528985684, -484.5187645576912, 17211.044396286536, -561.229951528305, 37555.043405895645, 23913.036157254715, 36441.725366321254, 27034.121994271518, 25589.126418724827, 25225.932923070544, 0.058, 1.02, 0.10200000000000001, 192.0, 0.0, 0.0, 0.0, 0.0, 0.0, 0.0, 0.0, 0.0, 0.0, 1.707473867648945E9, 0.0, 2024-02-09 11:17:47.648
134.0, -24041.737501828375, -25606.761945100065, 6899.178850552899, -7356.070858963831, 40621.121599807935, 11254.66212685849, 26337.328712621777, -620.0373911902179, 17143.899755942795, -598.5797165131231, 37590.64973481295, 23863.750560730765, 36632.519856991756, 27018.498124897258, 25610.427631190734, 25313.462354357525, 0.058, 1.02, 0.10200000000000001, 192.0, 0.0, 0.0, 0.0, 0.0, 0.0, 0.0, 0.0, 0.0, 0.0, 1.7074738676569195E9, 0.0, 2024-02-09 11:17:47.656
136.0, -23961.87471888956, -25541.204278612648, 6956.645185547493, -7368.654891092168, 40790.90545069044, 11317.448177033446, 26442.38191156172, -546.2542827432493, 17006.257713587012, -615.2541178767822, 37248.73509988011, 23839.677731952397, 36093.440484218656, 26872.518881859647, 25426.15984990118, 25088.380287692584, 0.06, 1.016, 0.106, 192.0, 0.5, 112.0, 15.5, 96.0, 1.5, 40.0, 0.0, 0.0, 0.0, 1.7074738676659217E9, 0.0, 2024-02-09 11:17:47.665
138.0, -24000.967919941893, -25575.514206351545, 6924.168100853933, -7366.710289324557, 40879.932448855936, 11309.580362985178, 26471.86386249827, -523.7907795656657, 17288.023804190612, -555.4855532032911, 37757.840783338645, 23920.568695136153, 36761.064739354224, 27113.582445810134, 25697.04064095505, 25357.227070001016, 0.06, 1.016, 0.106, 192.0, 0.0, 0.0, 0.0, 0.0, 0.0, 0.0, 0.0, 0.0, 0.0, 1.7074738676732247E9, 0.0, 2024-02-09 11:17:47.673
140.0, -24017.239989905356, -25583.672593077732, 6921.4188362859295, -7354.059201962853, 40576.932201019794, 11267.939063064941, 26333.50656431992, -620.193853401405, 16965.666945656176, -620.2162051458604, 37274.08197809243, 23809.502876937735, 36213.603462410385, 26871.825977781533, 25441.113166941785, 25147.03126514331, 0.06, 1.016, 0.106, 192.0, 0.0, 0.0, 0.0, 0.0, 0.0, 0.0, 0.0, 0.0, 0.0, 1.7074738676809716E9, 0.0, 2024-02-09 11:17:47.680
142.0, -23955.07978857515, -25531.81654594142, 6957.494551836795, -7380.657777864669, 40989.2771827313, 11336.089531909172, 26542.048340087935, -494.4205873513922, 17204.271817716577, -569.455393487858, 37544.113402856994, 23907.917607774452, 36419.708898032775, 27025.181296489394, 25583.58318609991, 25215.025271776354, 0.06, 1.016, 0.106, 192.0, 0.0, 0.0, 0.0, 0.0, 0.0, 0.0, 0.0, 0.0, 0.0, 1.7074738676889305E9, 0.0, 2024-02-09 11:17:47.688
144.0, -24045.04556000776, -25601.10695375287, 6889.768766137215, -7361.301167166373, 40628.29650977808, 11253.857464058097, 26350.762111039414, -615.4999870657906, 17142.983334420125, -603.8994316934862, 37588.83924351207, 23859.011990906238, 36622.43922024241, 27022.07440401011, 25601.10695375287, 25304.588711808767, 0.06, 1.016, 0.106, 192.0, 0.0, 0.0, 0.0, 0.0, 0.0, 0.0, 0.0, 0.0, 0.0, 1.7074738676970265E9, 0.0, 2024-02-09 11:17:47.697
146.0, -23968.31202129269, -25538.34325532237, 6950.721973266837, -7377.5061818964705, 40791.88892744648, 11309.356845540626, 26446.628743008227, -559.8217916276207, 17001.340329806844, -612.3483910975923, 37239.48147767562, 23839.878897652496, 36086.04205680395, 26875.782236550123, 25418.6496637642, 25083.217034723406, 0.062, 1.014, 0.112, 192.0, 0.5, 120.0, 15.5, 88.0, 1.5, 64.0, 0.0, 0.0, 0.0, 1.7074738677050135E9, 0.0, 2024-02-09 11:17:47.705
148.0, -23999.671518763487, -25563.48896783459, 6920.9494496523685, -7366.911455024655, 40893.45525425139, 11308.19455482895, 26482.615051581273, -532.262090714227, 17287.442658834774, -555.6643671589336, 37749.97296929037, 23916.053642756182, 36747.51958221431, 27107.256902129284, 25686.311803616503, 25350.566250153333, 0.062, 1.014, 0.112, 192.0, 0.0, 0.0, 0.0, 0.0, 0.0, 0.0, 0.0, 0.0, 0.0, 1.707473867713029E9, 0.0, 2024-02-09 11:17:47.713
150.0, -24030.002835989337, -25580.96803199864, 6915.741493194282, -7354.863864763244, 40579.34618942096, 11273.28112998976, 26330.869058474193, -614.7400277543102, 16966.78453287894, -626.1617691709721, 37274.73017868164, 23812.00627231673, 36210.8989013313, 26880.83373079702, 25442.23075416455, 25160.062332160753, 0.062, 1.014, 0.112, 192.0, 0.0, 0.0, 0.0, 0.0, 0.0, 0.0, 0.0, 0.0, 0.0, 1.707473867721986E9, 0.0, 2024-02-09 11:17:47.721
152.0, -23960.354800266603, -25534.834031442886, 6963.976557728834, -7370.823010304333, 40992.09350253266, 11343.53266281279, 26538.02502608598, -488.02798843717443, 17196.761631579593, -570.9529603663636, 37527.72957417126, 23898.753392547776, 36405.26967111465, 27020.39802317596, 25571.692058049688, 25219.47326892296, 0.062, 1.014, 0.112, 192.0, 0.0, 0.0, 0.0, 0.0, 0.0, 0.0, 0.0, 0.0, 0.0, 1.7074738677290711E9, 0.0, 2024-02-09 11:17:47.729
154.0, -24048.510080398333, -25599.184703729716, 6907.314885534631, -7344.269137891429, 40642.780440185124, 11272.275301489271, 26350.11391045021, -600.4796147918242, 17147.20781412218, -597.4621292903578, 37587.29697314465, 23860.934240929397, 36629.703537190384, 27027.841154079575, 25615.769698115553, 25319.63143582719, 0.062, 1.014, 0.112, 192.0, 0.0, 0.0, 0.0, 0.0, 0.0, 0.0, 0.0, 0.0, 0.0, 1.7074738677373037E9, 0.0, 2024-02-09 11:17:47.737
156.0, -23975.755152196307, -25540.19845011216, 6967.888113008513, -7357.814295031345, 40808.63038404351, 11331.596831273655, 26461.693818771106, -535.3466314490595, 16998.45695477211, -606.2240131168381, 37231.904236305265, 23833.843926649562, 36091.04884756194, 26880.02906799663, 25435.21230640558, 25099.802029109243, 0.058, 1.022, 0.112, 192.0, 0.5, 104.0, 15.5, 120.0, 1.5, 64.0, 0.0, 0.0, 0.0, 1.7074738677450764E9, 0.0, 2024-02-09 11:17:47.745
158.0, -24002.689004264954, -25561.030275944508, 6930.918327679436, -7362.664623578146, 40897.99265837582, 11307.009912372818, 26479.932842246635, -531.5468348916572, 17291.644786792374, -551.4175357124252, 37749.34712044563, 23916.67949160093, 36758.069605597215, 27119.684472046432, 25697.2641583996, 25355.908317078152, 0.058, 1.022, 0.112, 192.0, 0.0, 0.0, 0.0, 0.0, 0.0, 0.0, 0.0, 0.0, 0.0, 1.7074738677530787E9, 0.0, 2024-02-09 11:17:47.753
160.0, -24028.88524876657, -25578.285822664002, 6927.565566011139, -7349.410039116149, 40573.35592190694, 11277.639720158544, 26323.001244425923, -623.9489464698967, 16974.473532971566, -620.5067778237793, 37279.736969439626, 23812.162734527916, 36235.709337676686, 26871.42364638134, 25440.37555937476, 25144.39375929758, 0.058, 1.022, 0.112, 192.0, 0.0, 0.0, 0.0, 0.0, 0.0, 0.0, 0.0, 0.0, 0.0, 1.707473867761068E9, 0.0, 2024-02-09 11:17:47.761
162.0, -23980.449018531923, -25544.713502492134, 6967.865761264058, -7378.132030741219, 40993.32284847771, 11338.615279032621, 26539.38848249775, -494.91232572940896, 17196.091079245936, -567.5554952091569, 37532.33403352905, 23902.754354805274, 36418.83717999902, 27008.462191636827, 25571.937927238694, 25201.904797781088, 0.058, 1.022, 0.112, 192.0, 0.0, 0.0, 0.0, 0.0, 0.0, 0.0, 0.0, 0.0, 0.0, 1.7074738677691052E9, 0.0, 2024-02-09 11:17:47.769
164.0, -24078.103790057157, -25612.483991680623, 6898.284780774687, -7355.959100241555, 40642.445164018296, 11260.451228672413, 26348.370474382697, -616.3940568440029, 17145.240860610113, -611.7672457417543, 37591.96848773581, 23855.525118771213, 36645.17094435346, 27018.58753187508, 25610.047651534995, 25308.477915343992, 0.058, 1.022, 0.112, 192.0, 0.0, 0.0, 0.0, 0.0, 0.0, 0.0, 0.0, 0.0, 0.0, 1.7074738677781444E9, 0.0, 2024-02-09 11:17:47.778
166.0, -23992.45190530442, -25548.71446474963, 6958.56743557065, -7365.570350357337, 40787.59739251106, 11313.693083964954, 26436.65986498116, -570.0588905881514, 17000.245094328537, -615.8576149770755, 37232.21716072764, 23834.492127238766, 36092.79228362945, 26875.357553405473, 25413.88874219522, 25074.231633452375, 0.06, 1.03, 0.10200000000000001, 192.0, 0.5, 112.0, 16.0, 24.0, 1.5, 24.0, 0.0, 0.0, 0.0, 1.7074738677852683E9, 0.0, 2024-02-09 11:17:47.785
168.0, -24024.32549289769, -25576.542386596488, 6923.698714220371, -7376.343891184794, 40898.506748498294, 11290.402566242525, 26473.741409032515, -550.0764310451068, 17298.171496173323, -561.3640619950369, 37747.558980889204, 23907.44822114089, 36762.539954488275, 27113.157762665483, 25683.65194602632, 25328.929761520598, 0.06, 1.03, 0.10200000000000001, 192.0, 0.0, 0.0, 0.0, 0.0, 0.0, 0.0, 0.0, 0.0, 0.0, 1.7074738677931395E9, 0.0, 2024-02-09 11:17:47.793
170.0, -24044.822042563206, -25592.814456559954, 6923.050513631167, -7356.137914197197, 40576.95455276425, 11252.695173346421, 26313.50175303242, -645.6301385915446, 16981.424925497166, -634.2754524082485, 37279.53580373953, 23807.51357168121, 36256.07177687547, 26870.909556258866, 25442.923658242664, 25134.40252952606, 0.06, 1.03, 0.10200000000000001, 192.0, 0.0, 0.0, 0.0, 0.0, 0.0, 0.0, 0.0, 0.0, 0.0, 1.7074738678013728E9, 0.0, 2024-02-09 11:17:47.801
172.0, -23975.755152196307, -25540.421967556715, 6972.492572366306, -7373.393460916694, 40989.79127285377, 11330.546299284257, 26521.10475553331, -511.81024453762114, 17204.137707249847, -571.5117539777463, 37524.622681691966, 23898.619282081043, 36424.738040535216, 27008.39513640346, 25569.970973726628, 25192.785286043323, 0.06, 1.03, 0.10200000000000001, 192.0, 0.0, 0.0, 0.0, 0.0, 0.0, 0.0, 0.0, 0.0, 0.0, 1.707473867809128E9, 0.0, 2024-02-09 11:17:47.809
174.0, -24069.09603704167, -25602.246892720093, 6907.426644256908, -7353.589815329292, 40625.457838232265, 11251.08584774564, 26290.85943589919, -660.7175660988768, 17159.009535194582, -593.1035391215729, 37601.91501401842, 23854.56399375963, 36654.35751132459, 27017.559351630134, 25609.958244557172, 25302.778220507887, 0.06, 1.03, 0.10200000000000001, 192.0, 0.0, 0.0, 0.0, 0.0, 0.0, 0.0, 0.0, 0.0, 0.0, 1.7074738678171532E9, 0.0, 2024-02-09 11:17:47.817
176.0, -23984.762905211795, -25536.041025643473, 6980.740366070315, -7353.45570486256, 40776.44387202786, 11335.284869108782, 26393.811570860336, -550.3893554674811, 17009.722233977584, -597.4397775459025, 37241.51548642105, 23839.20834531884, 36100.43658023317, 26881.593690108504, 25411.675919494144, 25073.650488096537, 0.056, 1.026, 0.108, 192.0, 0.5, 96.0, 16.0, 8.0, 1.5, 48.0, 0.0, 0.0, 0.0, 1.707473867824184E9, 0.0, 2024-02-09 11:17:47.824
178.0, -24011.629702047077, -25563.757188768053, 6966.859932763569, -7347.756010026456, 40913.86239693909, 11333.675543508, 26508.654833871704, -509.8879945144647, 17301.546609586076, -542.6556518859448, 37759.00307405032, 23928.21299173987, 36763.6798934555, 27119.550361579702, 25700.058126456515, 25346.92291580712, 0.056, 1.026, 0.108, 192.0, 0.0, 0.0, 0.0, 0.0, 0.0, 0.0, 0.0, 0.0, 0.0, 1.7074738678332727E9, 0.0, 2024-02-09 11:17:47.833
180.0, -24038.51885062681, -25581.035087232005, 6951.772505256236, -7337.496559321471, 40588.80097732556, 11296.705758178921, 26354.852480274738, -606.7381032393102, 16983.12365807577, -620.6855917794218, 37297.19368185922, 23825.79729864565, 36250.036805872536, 26868.808492280066, 25470.773931833977, 25162.185747884007, 0.056, 1.026, 0.108, 192.0, 0.0, 0.0, 0.0, 0.0, 0.0, 0.0, 0.0, 0.0, 0.0, 1.7074738678412635E9, 0.0, 2024-02-09 11:17:47.841
182.0, -23979.689059220444, -25535.661045987734, 6977.521714868751, -7374.622806861736, 40994.35102872265, 11343.309145368237, 26541.891877876747, -486.61982853649005, 17197.141611235336, -567.9801783538078, 37524.66738518088, 23900.318014659646, 36403.88386295842, 27009.49037188177, 25587.315927423948, 25211.024309518853, 0.056, 1.026, 0.108, 192.0, 0.0, 0.0, 0.0, 0.0, 0.0, 0.0, 0.0, 0.0, 0.0, 1.7074738678482814E9, 0.0, 2024-02-09 11:17:47.848
184.0, -24062.56932766072, -25602.045727019995, 6914.243926315776, -7354.97562348552, 40642.713384951756, 11268.855484587608, 26352.259677917922, -607.9003939509862, 17150.806444979484, -601.0607601476622, 37608.75464782175, 23854.318124570626, 36659.23019161585, 27016.464116151827, 25621.759965629575, 25313.32824389079, 0.056, 1.026, 0.108, 192.0, 0.0, 0.0, 0.0, 0.0, 0.0, 0.0, 0.0, 0.0, 0.0, 1.7074738678562405E9, 0.0, 2024-02-09 11:17:47.856
186.0, -23992.89894019353, -25545.227592614603, 6966.122325196544, -7374.0416615058975, 40783.21645059782, 11311.726130452887, 26434.290580068897, -559.5759224386123, 16992.26552155799, -613.1754056424387, 37235.815791584944, 23826.19963004585, 36092.52406269599, 26854.659838039857, 25420.79543123191, 25078.83609281017, 0.056, 1.016, 0.11800000000000001, 192.0, 0.5, 96.0, 15.5, 96.0, 1.5, 88.0, 0.0, 0.0, 0.0, 1.7074738678655164E9, 0.0, 2024-02-09 11:17:47.865
188.0, -24024.973693486892, -25567.333467880904, 6936.7968364711805, -7377.439126663105, 40900.741922943824, 11292.973016854885, 26474.836644510826, -553.1386200354839, 17292.225932148212, -553.9656345803303, 37755.02446353727, 23912.633825854522, 36750.380605504586, 27097.06450665766, 25686.64707978333, 25333.511869133934, 0.056, 1.016, 0.11800000000000001, 192.0, 0.0, 0.0, 0.0, 0.0, 0.0, 0.0, 0.0, 0.0, 0.0, 1.7074738678732395E9, 0.0, 2024-02-09 11:17:47.873
190.0, -24053.33805720068, -25590.735744325608, 6919.764807196237, -7364.229245690018, 40565.01872122511, 11244.045048242218, 26315.20048561102, -664.8749905675639, 16971.25488177, -628.7992750166983, 37282.41917877426, 23801.344490211548, 36235.99991035461, 26868.07088471304, 25442.78954777593, 25135.74363419338, 0.056, 1.016, 0.11800000000000001, 192.0, 0.0, 0.0, 0.0, 0.0, 0.0, 0.0, 0.0, 0.0, 0.0, 1.70747386788027E9, 0.0, 2024-02-09 11:17:47.880
192.0, -23982.773599955275, -25538.030330899994, 6961.361403627563, -7391.230152992029, 40996.34033397917, 11320.309200323725, 26541.601305198827, -524.684849343878, 17184.378765151356, -566.7284806643106, 37497.912347067875, 23881.788418506196, 36380.36982779144, 26987.33979312656, 25563.041932945485, 25180.581233570723, 0.056, 1.016, 0.11800000000000001, 192.0, 0.0, 0.0, 0.0, 0.0, 0.0, 0.0, 0.0, 0.0, 0.0, 1.7074738678893068E9, 0.0, 2024-02-09 11:17:47.889
194.0, -24081.881234870107, -25609.35474745688, 6887.868867858514, -7378.824934819333, 40647.76487919866, 11239.820568540164, 26349.912744750112, -644.9148827689747, 17151.320535101957, -605.5087572942683, 37587.94517373385, 23839.476566252302, 36640.56648499567, 27007.7245840698, 25614.20507600368, 25296.877359971688, 0.056, 1.016, 0.11800000000000001, 192.0, 0.0, 0.0, 0.0, 0.0, 0.0, 0.0, 0.0, 0.0, 0.0, 1.7074738678973408E9, 0.0, 2024-02-09 11:17:47.897
196.0, -24007.13700141156, -25552.62602002931, 6953.717107023848, -7388.74910935749, 40778.410825539926, 11292.727147665877, 26446.449929052586, -570.4388702438915, 16983.011899353492, -625.6700307929553, 37207.04909647097, 23804.00434780173, 36067.020722272486, 26831.525782528613, 25403.897512423697, 25056.39494137704, 0.052000000000000005, 1.014, 0.12, 192.0, 0.5, 80.0, 15.5, 88.0, 1.5, 96.0, 0.0, 0.0, 0.0, 1.7074738679053328E9, 0.0, 2024-02-09 11:17:47.905
198.0, -24034.406129647035, -25574.128398195317, 6936.863891704547, -7376.433298162616, 40909.36969630357, 11300.796127414242, 26510.040642027932, -533.7596575927327, 17285.498057067165, -557.1172305485285, 37726.74950680131, 23891.86905525554, 36731.80630586223, 27080.479512271824, 25688.32346061748, 25332.506040633445, 0.052000000000000005, 1.014, 0.12, 192.0, 0.0, 0.0, 0.0, 0.0, 0.0, 0.0, 0.0, 0.0, 0.0, 1.7074738679123216E9, 0.0, 2024-02-09 11:17:47.912
200.0, -24063.23987999438, -25595.5413693835, 6921.374132797019, -7353.388649629194, 40573.51238411813, 11273.459943945401, 26350.49389010595, -602.3795130705254, 16980.866131885785, -627.9499087273966, 37268.248172789594, 23790.570949384088, 36234.658805687286, 26869.166120191352, 25454.546565359422, 25154.854375702667, 0.052000000000000005, 1.014, 0.12, 192.0, 0.0, 0.0, 0.0, 0.0, 0.0, 0.0, 0.0, 0.0, 0.0, 1.7074738679214017E9, 0.0, 2024-02-09 11:17:47.921
202.0, -23997.726916995874, -25546.76986298202, 6961.719031538848, -7388.100908768286, 41001.25771775934, 11335.374276086603, 26570.770331713004, -483.11060465700683, 17185.228131440657, -581.5923907270898, 37476.253506690686, 23866.455121809857, 36365.10358632846, 27004.036546234674, 25565.97001146913, 25199.379050657637, 0.052000000000000005, 1.014, 0.12, 192.0, 0.0, 0.0, 0.0, 0.0, 0.0, 0.0, 0.0, 0.0, 0.0, 1.7074738679293406E9, 0.0, 2024-02-09 11:17:47.929
204.0, -24080.71894415843, -25606.78429684452, 6902.3975017544635, -7363.402231145172, 40665.69097825181, 11267.983766553853, 26382.54629165486, -593.908201921964, 17158.406038094286, -605.0170189162516, 37579.94324921886, 23837.621371462512, 36648.83663044413, 27019.280435953195, 25622.20700051868, 25320.503153860947, 0.052000000000000005, 1.014, 0.12, 192.0, 0.0, 0.0, 0.0, 0.0, 0.0, 0.0, 0.0, 0.0, 0.0, 1.7074738679365225E9, 0.0, 2024-02-09 11:17:47.936
206.0, -24007.159353156014, -25549.630886272298, 6958.1651041704545, -7381.305978453873, 40782.322380819605, 11307.702816450932, 26450.62970526573, -548.712974633333, 16988.242207556035, -623.3901528585139, 37196.744942277066, 23811.536885683166, 36069.18884148465, 26855.643314795892, 25414.671053251157, 25077.115008487108, 0.048, 1.014, 0.11800000000000001, 192.0, 0.5, 64.0, 15.5, 88.0, 1.5, 88.0, 0.0, 0.0, 0.0, 1.707473867945377E9, 0.0, 2024-02-09 11:17:47.945
208.0, -24031.23218193438, -25573.68136330621, 6930.739513723793, -7386.670397123146, 40915.985812662344, 11294.291769777748, 26501.904607046203, -528.6634598569226, 17289.09668792447, -563.9568643518525, 37718.814637519674, 23897.814619280653, 36716.42830567698, 27098.338556091614, 25677.57227153448, 25328.39331965367, 0.048, 1.014, 0.11800000000000001, 192.0, 0.0, 0.0, 0.0, 0.0, 0.0, 0.0, 0.0, 0.0, 0.0, 1.707473867953448E9, 0.0, 2024-02-09 11:17:47.953
210.0, -24069.6324789086, -25602.895093309296, 6906.5102227342395, -7379.942522042099, 40562.31416014602, 11243.329792419649, 26326.465764816498, -631.6602983069776, 16976.21696903908, -639.8410367776199, 37260.96150409717, 23786.27941444867, 36231.88718937483, 26867.55679459057, 25439.727358785556, 25139.610485984147, 0.048, 1.014, 0.11800000000000001, 192.0, 0.0, 0.0, 0.0, 0.0, 0.0, 0.0, 0.0, 0.0, 0.0, 1.7074738679603992E9, 0.0, 2024-02-09 11:17:47.960
212.0, -23986.819265701684, -25541.606610012845, 6969.832714776125, -7388.883219824222, 40987.712560619424, 11332.490901051868, 26569.40687530123, -484.3846540909594, 17181.29422441652, -587.135623352006, 37462.86481176195, 23866.991563676784, 36349.323254743016, 26971.581813285567, 25538.700883233654, 25170.187672399006, 0.048, 1.014, 0.11800000000000001, 192.0, 0.0, 0.0, 0.0, 0.0, 0.0, 0.0, 0.0, 0.0, 0.0, 1.7074738679683638E9, 0.0, 2024-02-09 11:17:47.968
214.0, -24067.933746329993, -25595.317851938948, 6907.717216934827, -7358.127219453719, 40655.07389963554, 11266.620310142078, 26385.496721922962, -599.5408415247014, 17173.560520834984, -592.2094693433606, 37591.186176679876, 23848.081987867594, 36647.56258101018, 27030.25514248075, 25624.755099386588, 25318.603255582246, 0.048, 1.014, 0.11800000000000001, 192.0, 0.0, 0.0, 0.0, 0.0, 0.0, 0.0, 0.0, 0.0, 0.0, 1.70747386797764E9, 0.0, 2024-02-09 11:17:47.977
216.0, -24002.04080367575, -25543.19358386917, 6964.691813551404, -7369.45955389256, 40767.19024982336, 11314.162470598516, 26448.66275175366, -547.7965531106655, 17000.84859142883, -607.9227456954414, 37202.31052664644, 23820.566990443112, 36055.17429771117, 26865.947468989787, 25407.965529914563, 25084.11110450162, 0.045, 1.016, 0.121, 192.0, 0.5, 40.0, 15.5, 104.0, 1.5, 112.0, 0.0, 0.0, 0.0, 1.7074738679856105E9, 0.0, 2024-02-09 11:17:47.985
218.0, -24025.6218940761, -25559.845633488374, 6937.042705660189, -7364.273949178929, 40911.89544342702, 11309.826232174186, 26511.582912395348, -515.4312271393809, 17292.449449592765, -559.0841840605956, 37722.01093697679, 23907.805849052176, 36708.560491628705, 27110.296739375204, 25675.94059418924, 25342.54197389388, 0.045, 1.016, 0.121, 192.0, 0.0, 0.0, 0.0, 0.0, 0.0, 0.0, 0.0, 0.0, 0.0, 1.7074738679924057E9, 0.0, 2024-02-09 11:17:47.992
220.0, -24063.485749183386, -25583.62788958882, 6922.089388619589, -7350.617033316736, 40563.81172702453, 11269.347222965625, 26339.40742485612, -616.3270016106369, 16980.441448741134, -633.0014029742961, 37272.673818191746, 23796.62827213148, 36234.01060509808, 26880.721972074745, 25448.46689086758, 25164.711495007457, 0.045, 1.016, 0.121, 192.0, 0.0, 0.0, 0.0, 0.0, 0.0, 0.0, 0.0, 0.0, 0.0, 1.7074738680004115E9, 0.0, 2024-02-09 11:17:48.000
222.0, -23986.863969190596, -25527.636769728277, 6977.611121846571, -7374.309882439361, 40988.763092608824, 11341.163377900528, 26565.562375254915, -497.750997275233, 17184.892855273825, -573.9480941233747, 37471.492585121705, 23878.502712071266, 36343.914132584825, 27004.081249723586, 25560.96322071114, 25193.545245354802, 0.045, 1.016, 0.121, 192.0, 0.0, 0.0, 0.0, 0.0, 0.0, 0.0, 0.0, 0.0, 0.0, 1.707473868009474E9, 0.0, 2024-02-09 11:17:48.009
224.0, -24073.65579291055, -25595.11668623885, 6912.992228626279, -7356.6073008307585, 40666.11566139646, 11264.474542674368, 26387.70954462404, -609.4650160628577, 17184.088192473435, -592.2988763211819, 37601.2221099403, 23847.903173911953, 36655.43039505844, 27031.395081447972, 25632.041768079016, 25321.687796317077, 0.045, 1.016, 0.121, 192.0, 0.0, 0.0, 0.0, 0.0, 0.0, 0.0, 0.0, 0.0, 0.0, 1.707473868016583E9, 0.0, 2024-02-09 11:17:48.016
226.0, -24001.57141704219, -25541.00311291255, 6962.858970506069, -7371.448859149082, 40769.537182991175, 11303.746557682343, 26452.015513421957, -566.7508324087659, 16997.98756813855, -621.0879231796174, 37203.182244680196, 23809.480525193278, 36072.385140941755, 26861.007733465165, 25416.213323618573, 25085.38515393557, 0.0475, 1.018, 0.1185, 192.0, 0.5, 72.0, 15.5, 112.0, 1.5, 80.0, 0.0, 0.0, 0.0, 1.7074738680244973E9, 0.0, 2024-02-09 11:17:48.024
228.0, -24023.3196643972, -25559.44330208818, 6939.680211505915, -7371.515914382448, 40917.259862096296, 11307.121671095094, 26514.71215661909, -517.1299597179842, 17295.42223160532, -556.9607683373414, 37722.45797186589, 23898.462819869856, 36723.9161400695, 27101.17722763744, 25683.07080067048, 25332.930723778096, 0.0475, 1.018, 0.1185, 192.0, 0.0, 0.0, 0.0, 0.0, 0.0, 0.0, 0.0, 0.0, 0.0, 1.707473868032491E9, 0.0, 2024-02-09 11:17:48.032
230.0, -24062.18934800498, -25582.331488410415, 6924.615135743039, -7358.127219453719, 40572.05952072854, 11266.933234564453, 26348.661047060617, -608.7721119847431, 16988.1080970893, -633.4037343744916, 37290.354048055895, 23794.70602210832, 36260.877401933365, 26875.581070850025, 25453.540736858933, 25166.11965490814, 0.0475, 1.018, 0.1185, 192.0, 0.0, 0.0, 0.0, 0.0, 0.0, 0.0, 0.0, 0.0, 0.0, 1.7074738680407624E9, 0.0, 2024-02-09 11:17:48.040
232.0, -23983.84648368913, -25526.72034820561, 6971.509095610273, -7385.217533733551, 40986.93024956349, 11335.664848764522, 26568.535157267474, -487.9609332038085, 17183.35058490641, -585.9286291514194, 37477.34874216899, 23870.67960151191, 36353.10069955596, 26991.787790273167, 25551.307267106447, 25188.27023366335, 0.0475, 1.018, 0.1185, 192.0, 0.0, 0.0, 0.0, 0.0, 0.0, 0.0, 0.0, 0.0, 0.0, 1.70747386804853E9, 0.0, 2024-02-09 11:17:48.048
234.0, -24074.393400477577, -25592.903863537773, 6905.347932022564, -7365.324481168328, 40671.48008006574, 11269.347222965625, 26388.849483591257, -594.5340507667125, 17180.266044171578, -594.6234577445338, 37610.319269933614, 23838.917772640918, 36668.14853765351, 27035.753671616756, 25624.241009264115, 25320.30198816085, 0.0475, 1.018, 0.1185, 192.0, 0.0, 0.0, 0.0, 0.0, 0.0, 0.0, 0.0, 0.0, 0.0, 1.7074738680565193E9, 0.0, 2024-02-09 11:17:48.056
236.0, -24003.94070195445, -25538.544421022467, 6968.648072319994, -7369.325443425828, 40783.28350583118, 11318.074025878195, 26458.60927803627, -554.457372958347, 16993.02548086947, -620.5738330571453, 37201.84114001288, 23795.778905842177, 36065.70196934962, 26875.670477827847, 25417.30855909688, 25083.507607401327, 0.04875, 1.0190000000000001, 0.11524999999999999, 192.0, 0.5, 72.0, 15.5, 112.0, 1.5, 64.0, 0.0, 0.0, 0.0, 1.707473868065598E9, 0.0, 2024-02-09 11:17:48.065
238.0, -24025.085452209172, -25557.05166543146, 6945.715182508849, -7367.492600380493, 40938.24815013983, 11317.738749711365, 26525.306883490906, -507.0046194797301, 17304.94407474328, -557.1842857818945, 37729.05173648021, 23896.607625080065, 36721.926834812984, 27120.779707524744, 25696.95123397723, 25337.803404069353, 0.04875, 1.0190000000000001, 0.11524999999999999, 192.0, 0.0, 0.0, 0.0, 0.0, 0.0, 0.0, 0.0, 0.0, 0.0, 1.7074738680725863E9, 0.0, 2024-02-09 11:17:48.072
240.0, -24057.89781306956, -25577.749380797075, 6931.208900357355, -7348.583024571303, 40587.772797080615, 11278.354975981114, 26337.909857977615, -609.3532573405812, 16997.071146615883, -629.0004407167961, 37292.61157424588, 23789.43101041687, 36259.78216645505, 26900.79383859561, 25468.538757388444, 25167.505463064368, 0.04875, 1.0190000000000001, 0.11524999999999999, 192.0, 0.0, 0.0, 0.0, 0.0, 0.0, 0.0, 0.0, 0.0, 0.0, 1.707473868080592E9, 0.0, 2024-02-09 11:17:48.080
242.0, -23984.47233253388, -25528.307322061937, 6987.870572551557, -7373.639330105702, 41015.56283421074, 11338.592927288168, 26572.334953824873, -490.8666599829984, 17189.027927998057, -580.3183412931372, 37474.75593981218, 23869.606717778053, 36362.95781886075, 27001.466095622316, 25568.339296381393, 25194.014631988364, 0.04875, 1.0190000000000001, 0.11524999999999999, 192.0, 0.0, 0.0, 0.0, 0.0, 0.0, 0.0, 0.0, 0.0, 0.0, 1.707473868088591E9, 0.0, 2024-02-09 11:17:48.088
244.0, -24068.13491203009, -25592.143904226294, 6930.538348023695, -7347.376030370717, 40689.38382737444, 11268.341394465137, 26391.732858625994, -612.3483910975923, 17194.660567600797, -597.7750537127321, 37621.91982530592, 23851.948839658362, 36691.12613095357, 27051.712817157844, 25646.615105463876, 25322.313645161827, 0.04875, 1.0190000000000001, 0.11524999999999999, 192.0, 0.0, 0.0, 0.0, 0.0, 0.0, 0.0, 0.0, 0.0, 0.0, 1.7074738680967555E9, 0.0, 2024-02-09 11:17:48.096
246.0, -24009.394527601544, -25547.976857182606, 6967.910464752968, -7373.594626616791, 40767.994912623755, 11302.316046037204, 26433.95530390207, -580.3183412931372, 17003.664911230197, -633.1131616965725, 37204.25512841405, 23797.41058318741, 36078.6659811337, 26861.94650673229, 25424.036434177928, 25070.498892128337, 0.053375000000000006, 1.0195, 0.111625, 192.0, 0.5, 104.0, 15.5, 112.0, 1.5, 48.0, 0.0, 0.0, 0.0, 1.7074738681046135E9, 0.0, 2024-02-09 11:17:48.104
248.0, -24015.854181749128, -25550.569659539422, 6957.0922204366, -7368.610187603258, 40943.83608625366, 11320.353903812636, 26526.178601524665, -513.3748666494926, 17314.063586481047, -566.3708527530257, 37728.73881205783, 23891.220854666335, 36733.12505878509, 27101.624262526544, 25705.80252478153, 25335.09884299026, 0.053375000000000006, 1.0195, 0.111625, 192.0, 0.0, 0.0, 0.0, 0.0, 0.0, 0.0, 0.0, 0.0, 0.0, 1.7074738681146417E9, 0.0, 2024-02-09 11:17:48.114
250.0, -24049.068874009714, -25573.52490109502, 6934.874586448024, -7354.17096068513, 40573.89236377387, 11265.837999086143, 26344.525974336386, -638.1870076879272, 17010.07986188887, -632.5096645962792, 37303.988612173634, 23793.364917441002, 36280.301067865024, 26899.09510601701, 25485.280213985472, 25170.92527996603, 0.053375000000000006, 1.0195, 0.111625, 192.0, 0.0, 0.0, 0.0, 0.0, 0.0, 0.0, 0.0, 0.0, 0.0, 1.707473868121618E9, 0.0, 2024-02-09 11:17:48.121
252.0, -23974.637564973542, -25515.61153121132, 6988.4517179073955, -7375.673338851135, 40997.03323805729, 11337.967078443418, 26559.72856995208, -501.48373859926926, 17191.82189605497, -578.0161116142407, 37475.87352703494, 23871.43956082339, 36357.32517925801, 27003.835380534576, 25565.858252746853, 25179.150721925584, 0.053375000000000006, 1.0195, 0.111625, 192.0, 0.0, 0.0, 0.0, 0.0, 0.0, 0.0, 0.0, 0.0, 0.0, 1.70747386812863E9, 0.0, 2024-02-09 11:17:48.128
254.0, -24065.497406184364, -25585.10310472287, 6921.329429308108, -7354.774457785423, 40684.22057440526, 11272.342356722636, 26385.51907366742, -613.0189434312515, 17194.54880887852, -585.4145390289473, 37636.35905222405, 23852.999371647762, 36700.469160135886, 27062.77693066322, 25650.437253765733, 25324.705281818544, 0.053375000000000006, 1.0195, 0.111625, 192.0, 0.0, 0.0, 0.0, 0.0, 0.0, 0.0, 0.0, 0.0, 0.0, 1.7074738681366289E9, 0.0, 2024-02-09 11:17:48.136
0.0, -23998.553931540722, -25531.61538024132, 6974.414822389463, -7369.616016103747, 40766.318531789606, 11315.011836887817, 26439.654998738173, -575.0656813461401, 16998.65812047221, -622.8984144804972, 37214.35811690785, 23801.94798731184, 36092.1664347847, 26886.533425633126, 25417.912056197176, 25067.034371737765, 0.0536875, 1.02175, 0.11081250000000001, 192.0, 0.5, 88.0, 16.0, 0.0, 1.5, 56.0, 0.0, 0.0, 0.0, 1.7074738681446924E9, 0.0, 2024-02-09 11:17:48.144
2.0, -24016.390623616055, -25549.47442406111, 6957.963938470357, -7371.2253417045295, 40940.885655985556, 11323.170223614004, 26521.44003170014, -513.7101428163222, 17311.80606029106, -558.2795212602045, 37743.49096339833, 23895.892369257497, 36739.00356757684, 27129.094556462118, 25692.480885086166, 25328.125098720207, 0.0536875, 1.02175, 0.11081250000000001, 192.0, 0.0, 0.0, 0.0, 0.0, 0.0, 0.0, 0.0, 0.0, 0.0, 1.7074738681526551E9, 0.0, 2024-02-09 11:17:48.152
4.0, -24052.51104265583, -25575.06717146244, 6941.736571995803, -7351.26523390594, 40569.19849743826, 11265.6591851305, 26332.098404419234, -630.6544698064888, 17008.045853143438, -632.3979058740027, 37322.451153093716, 23792.47084766279, 36300.06000996352, 26902.693736874313, 25474.28315571346, 25171.595832299692, 0.0536875, 1.02175, 0.11081250000000001, 192.0, 0.0, 0.0, 0.0, 0.0, 0.0, 0.0, 0.0, 0.0, 0.0, 1.707473868160777E9, 0.0, 2024-02-09 11:17:48.160
