%OpenBCI Raw EXG Data
%Number of channels = 16
%Sample Rate = 125 Hz
%Board = OpenBCI_GUI$BoardCytonSerialDaisy
Sample Index, EXG Channel 0, EXG Channel 1, EXG Channel 2, EXG Channel 3, EXG Channel 4, EXG Channel 5, EXG Channel 6, EXG Channel 7, EXG Channel 8, EXG Channel 9, EXG Channel 10, EXG Channel 11, EXG Channel 12, EXG Channel 13, EXG Channel 14, EXG Channel 15, Accel Channel 0, Accel Channel 1, Accel Channel 2, Other, Other, Other, Other, Other, Other, Other, Analog Channel 0, Analog Channel 1, Analog Channel 2, Timestamp, Other, Timestamp (Formatted)
0.0, -17993.22134175555, -7357.121390953231, 14144.452112251773, -3321.6256882698167, 45444.60570151874, 16313.733615128234, 32841.64164562722, 7521.339657466371, 0.0, 0.0, 0.0, 0.0, 0.0, 0.0, 0.0, 0.0, 0.0, 0.0, 0.0, 192.0, 0.0, 0.0, 0.0, 0.0, 0.0, 0.0, 0.0, 0.0, 0.0, 1.7074741970418594E9, 0.0, 2024-02-09 11:23:17.041
46.0, -17987.611053897268, -7345.140855925186, 14134.46088248025, -3338.031868700012, 45667.65375943825, 16324.70832165579, 32945.3760916443, 7589.378367588326, 27902.934301249305, 5418.7334083000915, 39021.161379952595, 27505.006194711474, 39220.47188526057, 33191.7370190307, 27135.531858865244, 24568.25519421759, 0.048, 0.501, 0.117, 192.0, 1.5, 0.0, 15.5, 40.0, 3.5, 40.0, 0.0, 0.0, 0.0, 1.7074741970419247E9, 0.0, 2024-02-09 11:23:17.041
0.0, -8862.779600951624, -3893.5621253922136, 7188.812755204768, -1600.9660483558237, 22925.625494197073, 8230.828729966728, 16578.065345056697, 3950.8719981756212, 13772.899064171204, 2644.881921396485, 19278.893682824815, 13688.767098041428, 19354.2190616392, 16466.46308499135, 13449.111693991625, 12175.956329817334, 0.108, 0.996, 0.252, 192.0, 1.5, 48.0, 15.5, 16.0, 3.5, 112.0, 0.0, 0.0, 0.0, 1.7074741971383123E9, 0.0, 2024-02-09 11:23:17.138
2.0, -17822.945752495023, -7912.539888923156, 14311.710216010835, -3179.9826836565358, 45510.27512672843, 16382.755802006222, 32992.739438145094, 7781.335148970503, 28099.428486755907, 5399.555611557438, 38997.42382734106, 27553.93416332414, 39307.68839212518, 33279.33350555104, 27156.117815508584, 24597.62538643186, 0.108, 0.996, 0.252, 192.0, 0.0, 0.0, 0.0, 0.0, 0.0, 0.0, 0.0, 0.0, 0.0, 1.707474197145343E9, 0.0, 2024-02-09 11:23:17.145
4.0, -17754.79528365079, -7828.519681515656, 14375.815019108657, -3194.466614063575, 45612.24378493355, 16436.39998869896, 33067.97540998166, 7851.653737026899, 27886.773990008118, 5354.58390171336, 38612.325622120574, 27504.223883655537, 38755.53324884573, 33082.74991306662, 26988.94911872734, 24370.86693893277, 0.108, 0.996, 0.252, 192.0, 0.0, 0.0, 0.0, 0.0, 0.0, 0.0, 0.0, 0.0, 0.0, 1.707474197152331E9, 0.0, 2024-02-09 11:23:17.152
6.0, -17768.675716957536, -7852.793675994119, 14348.456483895361, -3207.25181189201, 45770.29296997702, 16431.080273518597, 33115.27170124909, 7886.209533954804, 28202.894711839523, 5450.338774959895, 39084.61798246121, 27594.815503932896, 39360.438509039705, 33335.369328900495, 27227.665749510023, 24632.851735693424, 0.108, 0.996, 0.252, 192.0, 0.0, 0.0, 0.0, 0.0, 0.0, 0.0, 0.0, 0.0, 0.0, 1.707474197159404E9, 0.0, 2024-02-09 11:23:17.159
8.0, -17818.363644881683, -7928.431979230879, 14322.327294627106, -3196.746491998016, 45434.68152698059, 16371.043487911642, 32941.10690845334, 7760.592730115978, 27898.70982154725, 5338.177721283165, 38688.74623641327, 27479.704019988065, 38939.55516094627, 33103.26881447659, 27019.883933053487, 24433.563582129907, 0.096, 0.992, 0.252, 192.0, 1.5, 0.0, 15.5, 0.0, 3.5, 112.0, 0.0, 0.0, 0.0, 1.7074741971684113E9, 0.0, 2024-02-09 11:23:17.168
10.0, -17715.679730854004, -7803.888059125908, 14394.970464106855, -3213.5103003394966, 45828.027525905076, 16454.571956941123, 33141.19972481725, 7908.56127841011, 28064.11273051652, 5421.683838568192, 38845.1190406226, 27556.68342789214, 39012.153626937106, 33206.265652926646, 27105.580521295135, 24473.439094238176, 0.096, 0.992, 0.252, 192.0, 0.0, 0.0, 0.0, 0.0, 0.0, 0.0, 0.0, 0.0, 0.0, 1.7074741971764047E9, 0.0, 2024-02-09 11:23:17.176
12.0, -17815.726139035956, -7937.1938630573595, 14325.300076639662, -3188.4539948050974, 45550.26239755898, 16370.730563489267, 32981.76473161754, 7799.30595151257, 28112.83953342909, 5406.439948849672, 39004.531682077846, 27544.54643065291, 39322.552302187956, 33264.87192688846, 27175.18385352896, 24598.742973654626, 0.096, 0.992, 0.252, 192.0, 0.0, 0.0, 0.0, 0.0, 0.0, 0.0, 0.0, 0.0, 0.0, 1.7074741971834035E9, 0.0, 2024-02-09 11:23:17.183
14.0, -17750.682562671016, -7851.787847493631, 14383.481667456826, -3202.356779856298, 45631.91332005421, 16422.787776325677, 33034.11251713187, 7854.0230219391615, 27893.658327300353, 5353.421611001684, 38617.77944776767, 27489.650546270677, 38771.76061532028, 33063.68387504624, 26990.44668560585, 24360.518081249964, 0.096, 0.992, 0.252, 192.0, 0.0, 0.0, 0.0, 0.0, 0.0, 0.0, 0.0, 0.0, 0.0, 1.7074741971914215E9, 0.0, 2024-02-09 11:23:17.191
16.0, -17771.0450018698, -7866.785868023142, 14364.147408502986, -3211.6774572941613, 45795.86336563389, 16434.54479390917, 33104.45345693272, 7909.589458655055, 28214.942302100935, 5456.2396354960965, 39093.08929360977, 27580.286870036947, 39378.02933192603, 33321.198322915836, 27230.951455944953, 24620.64768322083, 0.096, 0.992, 0.252, 192.0, 0.0, 0.0, 0.0, 0.0, 0.0, 0.0, 0.0, 0.0, 0.0, 1.707474197200638E9, 0.0, 2024-02-09 11:23:17.200
18.0, -17828.354874653207, -7930.71185716532, 14338.97934424631, -3196.4782710645522, 45462.80002150536, 16372.42929606787, 32929.23813214757, 7745.885282264386, 27909.61747284144, 5342.335145751852, 38701.687896452895, 27467.164691348637, 38966.86899267066, 33102.84413133194, 27036.915962328432, 24437.899820554238, 0.076, 0.998, 0.25, 192.0, 1.0, 48.0, 15.5, 24.0, 3.5, 104.0, 0.0, 0.0, 0.0, 1.7074741972075074E9, 0.0, 2024-02-09 11:23:17.207
20.0, -17736.17628051952, -7807.821966150042, 14408.113289846575, -3220.4393411206415, 45859.141154186866, 16461.50099772227, 33141.445594006254, 7907.063711531605, 28074.17101552141, 5424.0754752249095, 38845.78959295626, 27549.26264873298, 39035.46649640399, 33201.012992979646, 27116.21995165586, 24471.248623281554, 0.076, 0.998, 0.25, 192.0, 0.0, 0.0, 0.0, 0.0, 0.0, 0.0, 0.0, 0.0, 0.0, 1.7074741972154942E9, 0.0, 2024-02-09 11:23:17.215
22.0, -17835.44037764554, -7937.573842713099, 14335.604230833558, -3195.4053873306975, 45574.37992982625, 16385.169790407395, 32976.310905970444, 7800.580000946522, 28115.1864665969, 5401.366102858317, 39005.939841978536, 27531.917695035663, 39346.736889688604, 33274.17025258187, 27181.77761814328, 24601.58164520045, 0.076, 0.998, 0.25, 192.0, 0.0, 0.0, 0.0, 0.0, 0.0, 0.0, 0.0, 0.0, 0.0, 1.7074741972244904E9, 0.0, 2024-02-09 11:23:17.224
24.0, -17763.60187096618, -7849.575024792555, 14395.28338852923, -3204.7037130241056, 45650.48761969658, 16423.90536354844, 33042.82969746944, 7831.291297828115, 27900.09562970348, 5336.881320104757, 38613.7114302768, 27475.34542981928, 38786.624525383064, 33070.8587850164, 26988.233862904774, 24352.58321196833, 0.076, 0.998, 0.25, 192.0, 0.0, 0.0, 0.0, 0.0, 0.0, 0.0, 0.0, 0.0, 0.0, 1.7074741972327173E9, 0.0, 2024-02-09 11:23:17.232
26.0, -17773.07901061523, -7863.790734266131, 14376.46321969786, -3206.6706665361726, 45820.18206360126, 16438.702218377857, 33122.424259474785, 7936.165682812415, 28223.63713069405, 5441.867463811334, 39098.16313960113, 27571.592041443833, 39395.30723038998, 33325.4675061068, 27239.087490926682, 24624.35807280041, 0.076, 0.998, 0.25, 192.0, 0.0, 0.0, 0.0, 0.0, 0.0, 0.0, 0.0, 0.0, 0.0, 1.7074741972395122E9, 0.0, 2024-02-09 11:23:17.239
28.0, -17827.661970575093, -7934.019915344706, 14343.583803604104, -3195.941829197625, 45465.72810002901, 16350.770455690677, 32911.289681349954, 7739.6267938169, 27915.652443844374, 5323.649087387215, 38714.62955649252, 27456.279391798904, 38976.346132319704, 33093.009363771605, 27030.43395643639, 24431.037835006457, 0.064, 1.024, 0.26, 192.0, 1.0, 0.0, 16.0, 0.0, 4.0, 16.0, 0.0, 0.0, 0.0, 1.707474197247586E9, 0.0, 2024-02-09 11:23:17.247
30.0, -17727.302637970763, -7810.705341184776, 14414.461185271883, -3210.0010764600133, 45866.24900892365, 16451.912099350942, 33127.58751244396, 7928.968421097806, 28083.402285981454, 5410.776187274002, 38862.061662919725, 27541.26072421798, 39032.5160661359, 33189.34538237398, 27116.756393522788, 24458.26225975302, 0.064, 1.024, 0.26, 192.0, 0.0, 0.0, 0.0, 0.0, 0.0, 0.0, 0.0, 0.0, 0.0, 1.7074741972565346E9, 0.0, 2024-02-09 11:23:17.256
32.0, -17835.462729389994, -7953.488284765278, 14331.178585431408, -3199.6075152882954, 45585.46639507609, 16352.536243502647, 32955.30026618246, 7775.054308778562, 28126.339987080097, 5391.017245175511, 39027.77749631137, 27526.575628110844, 39356.14697410428, 33255.84182212852, 27188.371382757592, 24585.935424081734, 0.064, 1.024, 0.26, 192.0, 0.0, 0.0, 0.0, 0.0, 0.0, 0.0, 0.0, 0.0, 0.0, 1.7074741972635248E9, 0.0, 2024-02-09 11:23:17.263
34.0, -17775.783571694323, -7875.883028016452, 14385.42626922444, -3208.4811578370523, 45650.733488885584, 16401.24069467076, 32989.23021426561, 7806.056178338073, 27895.37941162341, 5337.417761971684, 38628.93296825087, 27473.177310607116, 38786.3563044496, 33052.82092724096, 26994.49235135226, 24342.614333941263, 0.064, 1.024, 0.26, 192.0, 0.0, 0.0, 0.0, 0.0, 0.0, 0.0, 0.0, 0.0, 0.0, 1.7074741972716696E9, 0.0, 2024-02-09 11:23:17.271
36.0, -17790.13339163463, -7885.136650220949, 14371.74700161779, -3209.3752276152645, 45823.15484561382, 16415.836383800077, 33059.77231976656, 7862.851960999008, 28220.485534725853, 5445.287280712996, 39106.07565713831, 27577.89523338023, 39384.198413395694, 33323.18762817235, 27236.539392058778, 24594.272624763566, 0.064, 1.024, 0.26, 192.0, 0.0, 0.0, 0.0, 0.0, 0.0, 0.0, 0.0, 0.0, 0.0, 1.7074741972796392E9, 0.0, 2024-02-09 11:23:17.279
38.0, -17861.949546569533, -7971.727308240808, 14328.116396441032, -3203.027332189957, 45470.06433845334, 16354.346734803526, 32873.73875066504, 7694.364511294903, 27910.355080408466, 5327.918270578179, 38722.67618449643, 27460.034484867396, 38975.67557998605, 33109.25908199061, 27042.280380997705, 24412.262369664, 0.048, 1.028, 0.266, 192.0, 0.5, 64.0, 16.0, 16.0, 4.0, 40.0, 0.0, 0.0, 0.0, 1.7074741972887359E9, 0.0, 2024-02-09 11:23:17.288
40.0, -17791.42979281304, -7862.404926109902, 14394.545780962204, -3227.9048237687143, 45860.23638966517, 16455.913061608444, 33084.69451483423, 7859.812123753086, 28057.094282757556, 5408.608068061837, 38848.80707845773, 27527.02266299995, 39030.79498181283, 33202.01882148014, 27115.99643421131, 24429.182640216666, 0.048, 1.028, 0.266, 192.0, 0.0, 0.0, 0.0, 0.0, 0.0, 0.0, 0.0, 0.0, 0.0, 1.7074741972955894E9, 0.0, 2024-02-09 11:23:17.295
42.0, -17937.386684106194, -8022.801044321185, 14312.44782357786, -3212.526823583463, 45583.700607264116, 16386.823819497087, 32947.879487023296, 7743.404238629847, 28095.338117520587, 5389.2067538746305, 39010.544301336326, 27512.494029104, 39363.03131139652, 33274.840804915526, 27190.651260692033, 24567.33877269492, 0.048, 1.028, 0.266, 192.0, 0.0, 0.0, 0.0, 0.0, 0.0, 0.0, 0.0, 0.0, 0.0, 1.7074741973036208E9, 0.0, 2024-02-09 11:23:17.303
44.0, -17941.745274274977, -8000.315189399146, 14359.341783445096, -3231.7269720705717, 45648.61007316233, 16418.093909990064, 33006.172836562735, 7759.273977193115, 27836.3708062614, 5304.203069711098, 38593.90778468941, 27444.544725959866, 38779.29315320172, 33066.52254659207, 26996.05697346413, 24318.96618830755, 0.048, 1.028, 0.266, 192.0, 0.0, 0.0, 0.0, 0.0, 0.0, 0.0, 0.0, 0.0, 0.0, 1.7074741973126285E9, 0.0, 2024-02-09 11:23:17.312
46.0, -18022.837403158832, -8063.749440163308, 14330.753902286757, -3247.4402484226525, 45822.64075549135, 16416.551639622645, 33092.89760504933, 7820.294239556103, 28132.643179016493, 5373.337015311363, 39049.68220587757, 27523.468735631555, 39383.81843373996, 33310.558892555106, 27232.560781545733, 24564.835377315925, 0.048, 1.028, 0.266, 192.0, 0.0, 0.0, 0.0, 0.0, 0.0, 0.0, 0.0, 0.0, 0.0, 1.7074741973196304E9, 0.0, 2024-02-09 11:23:17.319
48.0, -18157.26079431305, -8200.497412740877, 14268.884273634467, -3262.7064898856274, 45449.388974832174, 16315.521754684658, 32891.62014622929, 7630.483225641636, 27797.255253464613, 5237.214891578543, 38641.04761374564, 27390.98994624495, 38980.14592887711, 33079.46420663169, 27027.57293314611, 24372.11863662227, 0.054, 0.994, 0.28, 192.0, 0.5, 88.0, 15.5, 8.0, 4.0, 96.0, 0.0, 0.0, 0.0, 1.7074741973276532E9, 0.0, 2024-02-09 11:23:17.327
50.0, -18106.835258821877, -8125.641420560053, 14334.419588377428, -3291.8531646553474, 45838.26462486561, 16394.24459865625, 33113.59532041494, 7790.521715941634, 27912.05381298707, 5268.037947182411, 38733.13680090151, 27434.017054321415, 39018.63563282915, 33144.79835567455, 27087.475608286335, 24371.850415688805, 0.054, 0.994, 0.28, 192.0, 0.0, 0.0, 0.0, 0.0, 0.0, 0.0, 0.0, 0.0, 0.0, 1.7074741973356318E9, 0.0, 2024-02-09 11:23:17.335
52.0, -18238.7552545971, -8286.931608549548, 14238.396494197428, -3292.9484001336577, 45556.252665073, 16297.595655631503, 32955.03204524899, 7660.591025422934, 27964.133377567934, 5229.324725785819, 38895.2316516914, 27404.646862107144, 39361.73491021811, 33199.71659180124, 27160.36464695509, 24507.480801043606, 0.054, 0.994, 0.28, 192.0, 0.0, 0.0, 0.0, 0.0, 0.0, 0.0, 0.0, 0.0, 0.0, 1.707474197345019E9, 0.0, 2024-02-09 11:23:17.345
54.0, -18174.40458231027, -8212.410892535556, 14300.981378672288, -3295.6082577238394, 45618.52462512549, 16340.622763707968, 33011.17962732072, 7698.030197385574, 27719.404127526777, 5151.384192870163, 38479.1315769114, 27334.88706766213, 38774.39812116601, 32985.22925200811, 26961.05414164712, 24256.13543464368, 0.054, 0.994, 0.28, 192.0, 0.0, 0.0, 0.0, 0.0, 0.0, 0.0, 0.0, 0.0, 0.0, 1.707474197351685E9, 0.0, 2024-02-09 11:23:17.351
56.0, -18168.21314909615, -8215.875412926127, 14287.212704087819, -3298.3351705473865, 45810.6602204633, 16362.438066296349, 33112.70125063673, 7786.565457173045, 28051.953381532836, 5246.0885341273, 38963.0468443688, 27438.129775301193, 39377.98462843712, 33252.3996534824, 27210.030223134785, 24526.591542552895, 0.054, 0.994, 0.28, 192.0, 0.0, 0.0, 0.0, 0.0, 0.0, 0.0, 0.0, 0.0, 0.0, 1.7074741973596823E9, 0.0, 2024-02-09 11:23:17.359
58.0, -18189.11203016186, -8264.244587927413, 14262.53637820916, -3271.2001527786438, 45453.63580627868, 16305.910504568876, 32931.31684438191, 7637.479321656147, 27769.427331617753, 5144.186931155555, 38598.33343009155, 27341.927867165552, 38989.39955108161, 33047.277694616045, 27021.850886565553, 24370.956345910592, 0.07, 0.988, 0.28400000000000003, 192.0, 1.0, 24.0, 15.0, 112.0, 4.0, 112.0, 0.0, 0.0, 0.0, 1.7074741973677192E9, 0.0, 2024-02-09 11:23:17.367
60.0, -18051.693505250634, -8112.722112264885, 14348.41178040645, -3281.0125685945236, 45849.39579360435, 16397.53030509118, 33144.32896904099, 7809.185422561815, 27932.080976019024, 5231.515196742439, 38728.48763805481, 27425.635150150676, 39019.48499911845, 33134.56125671402, 27095.566939779157, 24399.477171835562, 0.07, 0.988, 0.28400000000000003, 192.0, 0.0, 0.0, 0.0, 0.0, 0.0, 0.0, 0.0, 0.0, 0.0, 1.7074741973747492E9, 0.0, 2024-02-09 11:23:17.374
62.0, -18119.709863628133, -8217.060055382259, 14280.440125517862, -3251.3965071912417, 45573.485860048044, 16323.166051288374, 32981.76473161754, 7696.376168295881, 28013.798953747628, 5231.6046037202605, 38927.194646262484, 27434.95582758854, 39365.64646549779, 33212.77001056314, 27176.457902962913, 24544.964676495158, 0.07, 0.988, 0.28400000000000003, 192.0, 0.0, 0.0, 0.0, 0.0, 0.0, 0.0, 0.0, 0.0, 0.0, 1.707474197383769E9, 0.0, 2024-02-09 11:23:17.383
64.0, -18024.245563059518, -8101.345074337134, 14345.55075711617, -3249.6754228681834, 45631.95802354313, 16378.754839748723, 33050.20577313969, 7758.044631248073, 27794.327174940965, 5188.510440410429, 38530.9429205588, 27393.113361968204, 38785.68575211594, 33013.41480176625, 26983.38353435797, 24312.77475509343, 0.07, 0.988, 0.28400000000000003, 192.0, 0.0, 0.0, 0.0, 0.0, 0.0, 0.0, 0.0, 0.0, 0.0, 1.7074741973917613E9, 0.0, 2024-02-09 11:23:17.391
66.0, -18001.93852209312, -8075.908789146994, 14335.514823855738, -3258.906693328225, 45818.19275834475, 16374.262139113205, 33131.99080610166, 7810.25830629567, 28135.213629628855, 5302.102005732299, 39020.35671715221, 27501.072287687337, 39383.77373025104, 33268.269392045666, 27223.262455852328, 24570.15509249629, 0.07, 0.988, 0.28400000000000003, 192.0, 0.0, 0.0, 0.0, 0.0, 0.0, 0.0, 0.0, 0.0, 0.0, 1.7074741973997667E9, 0.0, 2024-02-09 11:23:17.399
68.0, -18036.47196727657, -8124.277964148279, 14299.93084668289, -3248.937815301158, 45448.58431203179, 16302.602446389492, 32943.94557999916, 7656.254786998605, 27856.84500418246, 5202.480280694996, 38663.64522738996, 27403.015184761905, 39004.08464718874, 33054.69847377521, 27030.165735502927, 24394.716250266585, 0.08600000000000001, 0.978, 0.274, 192.0, 1.0, 88.0, 15.0, 72.0, 4.0, 72.0, 0.0, 0.0, 0.0, 1.7074741974069397E9, 0.0, 2024-02-09 11:23:17.406
70.0, -17908.68704422558, -7970.3638518290345, 14379.860684855066, -3260.6948328846497, 45838.0187556766, 16387.986110208763, 33161.56216401603, 7821.188309334316, 28012.2119798913, 5282.208953167075, 38782.91413580348, 27480.53103453291, 39025.13999046564, 33136.93054162628, 27097.802114224687, 24404.30514863791, 0.08600000000000001, 0.978, 0.274, 192.0, 0.0, 0.0, 0.0, 0.0, 0.0, 0.0, 0.0, 0.0, 0.0, 1.7074741974157624E9, 0.0, 2024-02-09 11:23:17.415
72.0, -17989.198027753595, -8079.596826982121, 14306.59166653057, -3242.075829753379, 45557.7055284626, 16304.502344668192, 33007.87156914134, 7705.518031778101, 28091.13598956299, 5284.824107268347, 38981.21881261096, 27484.10731364576, 39386.299477374494, 33222.44831591229, 27186.80676064572, 24554.978258011135, 0.08600000000000001, 0.978, 0.274, 192.0, 0.0, 0.0, 0.0, 0.0, 0.0, 0.0, 0.0, 0.0, 0.0, 1.7074741974237983E9, 0.0, 2024-02-09 11:23:17.423
74.0, -17906.69773896906, -7975.10242165356, 14360.079391012121, -3243.752210587527, 45593.93770622465, 16342.656772453402, 33037.554685777985, 7726.796892499554, 27851.59234423546, 5238.84656892378, 38568.11387158798, 27438.800327634854, 38796.57105166567, 33003.22240629463, 26979.516682567202, 24311.388946937197, 0.08600000000000001, 0.978, 0.274, 192.0, 0.0, 0.0, 0.0, 0.0, 0.0, 0.0, 0.0, 0.0, 0.0, 1.7074741974308472E9, 0.0, 2024-02-09 11:23:17.430
76.0, -17904.21669533452, -7967.592235516577, 14339.560489602149, -3259.8901700842584, 45773.355158967395, 16354.994935392731, 33112.18716051426, 7792.39926247588, 28178.307792938685, 5349.979442355567, 39040.56269413981, 27539.271418961456, 39385.56186980747, 33264.29078153262, 27213.785316203277, 24567.405827928287, 0.08600000000000001, 0.978, 0.274, 192.0, 0.0, 0.0, 0.0, 0.0, 0.0, 0.0, 0.0, 0.0, 0.0, 1.7074741974398484E9, 0.0, 2024-02-09 11:23:17.439
78.0, -17955.82687328182, -8038.559024162177, 14296.667491992413, -3247.4402484226525, 45399.09754980774, 16294.198190474295, 32939.81050727493, 7636.361734433382, 27887.243376641676, 5242.646365481182, 38671.200117015855, 27433.972350832508, 39000.620126798174, 33058.14064242133, 27017.604055119045, 24408.574331828873, 0.084, 0.982, 0.264, 192.0, 1.0, 80.0, 15.0, 88.0, 4.0, 32.0, 0.0, 0.0, 0.0, 1.7074741974478436E9, 0.0, 2024-02-09 11:23:17.447
80.0, -17842.369418426682, -7901.341664951046, 14365.667327125946, -3267.4450597101522, 45765.26382747458, 16388.656662542424, 33102.21828248719, 7796.936666600307, 28028.908732999414, 5321.838596086335, 38768.85488854109, 27499.619424297744, 39003.32468787726, 33140.059785850026, 27064.40860800846, 24409.02136671798, 0.084, 0.982, 0.264, 192.0, 0.0, 0.0, 0.0, 0.0, 0.0, 0.0, 0.0, 0.0, 0.0, 1.7074741974558408E9, 0.0, 2024-02-09 11:23:17.455
82.0, -17936.69378002808, -8021.169366975948, 14300.266122849718, -3247.619062378295, 45519.95343207758, 16327.435234479337, 33036.48180204413, 7731.0437239460625, 28106.46928625933, 5321.033933285944, 38970.557030505784, 27500.893473731696, 39365.73587247561, 33229.176190993334, 27161.146958011028, 24567.115255250366, 0.084, 0.982, 0.264, 192.0, 0.0, 0.0, 0.0, 0.0, 0.0, 0.0, 0.0, 0.0, 0.0, 1.7074741974628313E9, 0.0, 2024-02-09 11:23:17.462
84.0, -17863.53652042586, -7927.8061303861305, 14356.927795043923, -3252.4470391806412, 45553.77162143846, 16360.068781384085, 33061.471052345165, 7724.9416977097635, 27856.308562315535, 5271.368357106252, 38558.14499356091, 27447.852784139253, 38769.92777227495, 33019.874455913836, 26969.68191500687, 24327.057519800368, 0.084, 0.982, 0.264, 192.0, 0.0, 0.0, 0.0, 0.0, 0.0, 0.0, 0.0, 0.0, 0.0, 1.7074741974718337E9, 0.0, 2024-02-09 11:23:17.471
86.0, -17853.05355227632, -7910.774101111187, 14350.937527529899, -3245.6968123551387, 45750.48932438962, 16403.274703416195, 33137.73520442667, 7852.2572341271925, 28189.72953435535, 5389.296160852452, 39039.02042377239, 27556.750483125506, 39359.387977050304, 33282.73097070825, 27203.883493409576, 24580.235729245633, 0.084, 0.982, 0.264, 192.0, 0.0, 0.0, 0.0, 0.0, 0.0, 0.0, 0.0, 0.0, 0.0, 1.7074741974801545E9, 0.0, 2024-02-09 11:23:17.480
88.0, -17905.64720697966, -7978.9916251887835, 14326.149442928963, -3215.8348817628485, 45394.29192474984, 16357.319516816082, 32966.69965585466, 7732.474235591202, 27909.796286797082, 5293.340121905819, 38694.64709694947, 27465.756531447954, 38987.23143186944, 33098.28437546306, 27023.326101699604, 24448.628657892783, 0.07600000000000001, 0.981, 0.253, 192.0, 1.0, 16.0, 15.0, 80.0, 3.5, 72.0, 0.0, 0.0, 0.0, 1.707474197486904E9, 0.0, 2024-02-09 11:23:17.486
90.0, -17795.073127159256, -7841.841321211019, 14403.866458400067, -3230.452922636619, 45785.76037714009, 16444.804244614155, 33156.689483724775, 7874.9219030048735, 28054.70264610084, 5374.476954278583, 38797.12984527706, 27535.06929100386, 38984.1021876457, 33173.49799555516, 27084.12284661804, 24456.541175429964, 0.07600000000000001, 0.981, 0.253, 192.0, 0.0, 0.0, 0.0, 0.0, 0.0, 0.0, 0.0, 0.0, 0.0, 1.7074741974958715E9, 0.0, 2024-02-09 11:23:17.495
92.0, -17890.269206794408, -7965.804095960152, 14332.542041843182, -3209.4422828486304, 45529.89995836019, 16360.627574995468, 32998.841464381396, 7739.760904283632, 28128.46340280335, 5372.554704255427, 39000.70953377599, 27535.002235770495, 39346.669834455235, 33258.56873495206, 27181.867025121097, 24611.952854627714, 0.07600000000000001, 0.981, 0.253, 192.0, 0.0, 0.0, 0.0, 0.0, 0.0, 0.0, 0.0, 0.0, 0.0, 1.7074741975038977E9, 0.0, 2024-02-09 11:23:17.503
94.0, -17824.510374606893, -7888.534115378156, 14394.210504795374, -3212.2138991610886, 45569.52960127945, 16398.737299291766, 33028.9939676516, 7760.413916160335, 27888.539777820086, 5319.201090240609, 38590.57737476556, 27484.174368879125, 38755.48854535682, 33050.138717906324, 26978.354391855526, 24363.53556675143, 0.07600000000000001, 0.981, 0.253, 192.0, 0.0, 0.0, 0.0, 0.0, 0.0, 0.0, 0.0, 0.0, 0.0, 1.707474197510946E9, 0.0, 2024-02-09 11:23:17.510
96.0, -17819.682397804547, -7884.689615331843, 14387.728498903334, -3216.393675374231, 45775.09859503491, 16413.511802376725, 33123.899474608836, 7834.152321118394, 28223.63713069405, 5426.176539203709, 39070.42462473209, 27588.020573618483, 39345.55224723247, 33312.68230827836, 27224.380043075093, 24617.809011675003, 0.07600000000000001, 0.981, 0.253, 192.0, 0.0, 0.0, 0.0, 0.0, 0.0, 0.0, 0.0, 0.0, 0.0, 1.7074741975189629E9, 0.0, 2024-02-09 11:23:17.518
98.0, -17889.419840505107, -7973.426040819412, 14339.046399479676, -3209.486986337541, 45407.61356444521, 16345.003705621208, 32916.94467269715, 7681.109926832906, 27938.38416795542, 5319.804587340902, 38720.0386786507, 27483.369706078734, 38981.64349575561, 33113.17063727029, 27037.07242453962, 24464.565451689417, 0.068, 0.9855, 0.2405, 192.0, 0.5, 112.0, 15.0, 120.0, 3.5, 16.0, 0.0, 0.0, 0.0, 1.7074741975279655E9, 0.0, 2024-02-09 11:23:17.527
100.0, -17789.798115467802, -7848.055106169594, 14409.163821835975, -3227.9048237687143, 45802.2112610592, 16430.72264560731, 33130.51559096761, 7832.565347262067, 28064.69387587236, 5379.997835159044, 38807.4116477265, 27540.00902652848, 38973.12748111814, 33177.20838513474, 27086.760352463767, 24460.475082454097, 0.068, 0.9855, 0.2405, 192.0, 0.0, 0.0, 0.0, 0.0, 0.0, 0.0, 0.0, 0.0, 0.0, 1.7074741975359504E9, 0.0, 2024-02-09 11:23:17.535
102.0, -17901.467430766515, -7982.970235701828, 14330.038646464187, -3214.404370117709, 45558.37608079625, 16356.827778438066, 32987.017391564536, 7719.3090581070255, 28142.05326343218, 5373.962864156111, 39017.62980432866, 27537.282113704936, 39352.2354188246, 33270.705732191294, 27184.593937944646, 24606.96841561418, 0.068, 0.9855, 0.2405, 192.0, 0.0, 0.0, 0.0, 0.0, 0.0, 0.0, 0.0, 0.0, 0.0, 1.7074741975429654E9, 0.0, 2024-02-09 11:23:17.542
104.0, -17870.018526317897, -7934.265784533714, 14382.431135467426, -3227.5024923685187, 45598.63157256026, 16395.29513064565, 33024.61302573836, 7748.72395381021, 27881.2307573832, 5307.868755801768, 38588.856290442505, 27467.47761577101, 38765.72564431735, 33055.7043022757, 26979.784903500666, 24357.0982643483, 0.068, 0.9855, 0.2405, 192.0, 0.0, 0.0, 0.0, 0.0, 0.0, 0.0, 0.0, 0.0, 0.0, 1.7074741975513318E9, 0.0, 2024-02-09 11:23:17.551
106.0, -17922.54512578787, -7985.652445036465, 14362.113399757553, -3248.9601670456136, 45810.07907510747, 16397.39619462445, 33113.14828552584, 7812.985219119218, 28200.503075182805, 5388.647960263248, 39044.7648220974, 27548.83796558833, 39359.09740437238, 33296.0079069147, 27219.283845339283, 24593.691479407727, 0.068, 0.9855, 0.2405, 192.0, 0.0, 0.0, 0.0, 0.0, 0.0, 0.0, 0.0, 0.0, 0.0, 1.7074741975599828E9, 0.0, 2024-02-09 11:23:17.559
108.0, -18053.682810507158, -8130.916432251505, 14313.565410800626, -3242.3440506868424, 45452.74173650047, 16337.202946806306, 32951.299303924956, 7701.114738120406, 27890.10439993196, 5257.42086856614, 38682.599506688064, 27424.808135605832, 39007.34800187922, 33091.26592770409, 27040.29107574118, 24440.60438163333, 0.061, 0.99375, 0.23125, 192.0, 0.5, 88.0, 15.5, 40.0, 3.0, 120.0, 0.0, 0.0, 0.0, 1.7074741975680256E9, 0.0, 2024-02-09 11:23:17.568
110.0, -18010.163964052674, -8076.422879269467, 14369.26595798325, -3277.302179014943, 45823.40071480283, 16408.393252896458, 33125.19587578725, 7840.857844454986, 27979.757246942194, 5284.734700290525, 38733.002690434776, 27453.06074059734, 38980.19063236602, 33131.14143981236, 27076.031515125218, 24427.327445426876, 0.061, 0.99375, 0.23125, 192.0, 0.0, 0.0, 0.0, 0.0, 0.0, 0.0, 0.0, 0.0, 0.0, 1.707474197575028E9, 0.0, 2024-02-09 11:23:17.575
112.0, -18142.843919139377, -8240.171759149047, 14286.743317454258, -3263.8240771083924, 45569.216676857075, 16340.801577663611, 32972.198184990666, 7746.824055531509, 28043.41501515091, 5242.735772459004, 38927.2393497514, 27430.66429265312, 39356.21402933765, 33211.71947857374, 27169.148882526028, 24578.447589689207, 0.061, 0.99375, 0.23125, 192.0, 0.0, 0.0, 0.0, 0.0, 0.0, 0.0, 0.0, 0.0, 0.0, 1.7074741975840623E9, 0.0, 2024-02-09 11:23:17.584
114.0, -18077.554473585424, -8163.4829239228875, 14346.60128910557, -3259.8007631064374, 45595.68114229216, 16384.00749969572, 32997.12038005834, 7756.100029480462, 27776.669296821274, 5185.023568275401, 38495.38129513041, 27366.246565132926, 38753.9462749894, 33004.60821445086, 26968.877252206476, 24338.747482150495, 0.061, 0.99375, 0.23125, 192.0, 0.0, 0.0, 0.0, 0.0, 0.0, 0.0, 0.0, 0.0, 0.0, 1.707474197592106E9, 0.0, 2024-02-09 11:23:17.592
116.0, -18077.375659629783, -8166.656871635541, 14342.108588470053, -3268.786164377471, 45810.52610999657, 16404.10171796104, 33095.512759150595, 7828.273812326648, 28119.8356294436, 5287.327502647341, 38976.3014288308, 27470.53980476139, 39339.45022099617, 33256.512374462174, 27211.170162102004, 24589.48935145013, 0.061, 0.99375, 0.23125, 192.0, 0.0, 0.0, 0.0, 0.0, 0.0, 0.0, 0.0, 0.0, 0.0, 1.7074741975990453E9, 0.0, 2024-02-09 11:23:17.599
118.0, -18143.87209938432, -8253.605157566686, 14296.935712925877, -3256.783277604971, 45437.9225299266, 16333.179632804351, 32900.337326566856, 7666.536589448046, 27836.41550975031, 5177.580437371783, 38637.76190731071, 27364.70429476551, 38988.19255688102, 33068.71301754868, 27025.11424125603, 24434.569410630396, 0.0545, 1.004875, 0.22662500000000002, 192.0, 0.5, 64.0, 15.5, 96.0, 3.0, 120.0, 0.0, 0.0, 0.0, 1.707474197607249E9, 0.0, 2024-02-09 11:23:17.607
120.0, -18034.840289931333, -8123.2721356477905, 14382.542894189704, -3264.874609097792, 45826.2170346042, 16439.238660244784, 33124.86059962041, 7858.828646997053, 27963.1499008119, 5251.810580707858, 38722.56442577415, 27431.200734520047, 38971.49580377291, 33131.99080610166, 27078.55726224867, 24428.959122772114, 0.0545, 1.004875, 0.22662500000000002, 192.0, 0.0, 0.0, 0.0, 0.0, 0.0, 0.0, 0.0, 0.0, 0.0, 1.7074741976160874E9, 0.0, 2024-02-09 11:23:17.616
122.0, -18134.596125435368, -8255.326241889745, 14299.707329238336, -3257.364422960809, 45581.08545316284, 16350.815159179589, 32992.00183057807, 7743.001907229652, 28053.87563155599, 5236.924318900624, 38947.065347083255, 27428.697339141054, 39370.429738811225, 33221.353080433975, 27191.701792681433, 24595.59137768643, 0.0545, 1.004875, 0.22662500000000002, 192.0, 0.0, 0.0, 0.0, 0.0, 0.0, 0.0, 0.0, 0.0, 0.0, 1.7074741976231055E9, 0.0, 2024-02-09 11:23:17.623
124.0, -18062.981136200564, -8173.720022883418, 14351.921004285932, -3267.221542265599, 45589.288543377945, 16374.709174002312, 32988.202034020665, 7729.009715200629, 27805.391288446343, 5161.68834706406, 38518.00126051918, 27359.6080970297, 38771.2018217089, 32988.425551465225, 26973.28054586417, 24333.91950534815, 0.0545, 1.004875, 0.22662500000000002, 192.0, 0.0, 0.0, 0.0, 0.0, 0.0, 0.0, 0.0, 0.0, 0.0, 1.707474197631111E9, 0.0, 2024-02-09 11:23:17.631
126.0, -18028.090063105832, -8142.740505068363, 14353.105646742064, -3269.07673705539, 45816.94106065525, 16401.978302237785, 33102.53120690957, 7821.5012337566895, 28157.05128396169, 5265.020461680944, 38998.89904247511, 27465.465958770033, 39361.757261962564, 33242.050795799594, 27210.209037090426, 24573.44079893122, 0.0545, 1.004875, 0.22662500000000002, 192.0, 0.0, 0.0, 0.0, 0.0, 0.0, 0.0, 0.0, 0.0, 0.0, 1.7074741976401074E9, 0.0, 2024-02-09 11:23:17.640
128.0, -18069.507845581513, -8207.3370465442, 14319.041588192176, -3245.4062396772197, 45453.99343418997, 16334.27486828266, 32917.23524537507, 7658.109981788395, 27896.318184890533, 5171.321948924297, 38682.28658226569, 27380.37286762868, 39037.25463596042, 33054.407901097286, 27052.383369491505, 24437.74335834305, 0.052250000000000005, 1.0054375, 0.23031250000000003, 192.0, 0.5, 72.0, 15.5, 56.0, 3.5, 40.0, 0.0, 0.0, 0.0, 1.7074741976481254E9, 0.0, 2024-02-09 11:23:17.648
130.0, -17937.96782946203, -8049.667841156464, 14399.150240319997, -3260.4042602067307, 45838.577549287984, 16425.78291008269, 33115.584625671465, 7811.487652240712, 28028.998139977237, 5243.9874701485005, 38765.368016406064, 27449.39505450667, 39008.35383037971, 33115.91990183829, 27103.524160805246, 24430.635503606263, 0.052250000000000005, 1.0054375, 0.23031250000000003, 192.0, 0.0, 0.0, 0.0, 0.0, 0.0, 0.0, 0.0, 0.0, 0.0, 1.7074741976551344E9, 0.0, 2024-02-09 11:23:17.655
132.0, -18021.161022324686, -8159.169037243014, 14326.283553395697, -3246.009736777513, 45603.906584251716, 16337.85114739551, 32977.74141761559, 7676.818391897487, 28131.52559179373, 5252.682298741615, 39005.582214067246, 27462.515528501932, 39410.32760266395, 33221.15191473388, 27214.00883364783, 24588.081191549445, 0.052250000000000005, 1.0054375, 0.23031250000000003, 192.0, 0.0, 0.0, 0.0, 0.0, 0.0, 0.0, 0.0, 0.0, 0.0, 1.7074741976631253E9, 0.0, 2024-02-09 11:23:17.663
134.0, -17937.721960273026, -8061.961300606883, 14383.772240134746, -3241.6734983531833, 45617.09411348034, 16398.44672661385, 32998.50618821457, 7741.303174651048, 27886.37165860792, 5194.232486990987, 38584.05066538461, 27405.339766185258, 38819.146313565536, 33004.20588305067, 27009.31155792613, 24340.200345540088, 0.052250000000000005, 1.0054375, 0.23031250000000003, 192.0, 0.0, 0.0, 0.0, 0.0, 0.0, 0.0, 0.0, 0.0, 0.0, 1.7074741976724107E9, 0.0, 2024-02-09 11:23:17.672
136.0, -17922.902753699156, -8039.788370107219, 14374.116286530054, -3256.5821119048733, 45846.71358426972, 16408.952046507842, 33112.67889889227, 7817.388512776914, 28229.605046463617, 5317.502357662005, 39063.5179356954, 27520.87593327474, 39399.26348915857, 33254.03133082764, 27244.898944485063, 24586.896549093315, 0.052250000000000005, 1.0054375, 0.23031250000000003, 192.0, 0.0, 0.0, 0.0, 0.0, 0.0, 0.0, 0.0, 0.0, 0.0, 1.7074741976791723E9, 0.0, 2024-02-09 11:23:17.679
138.0, -17980.793771838402, -8119.919373979495, 14331.536213342693, -3241.2264634640774, 45476.05460596736, 16327.010551334686, 32907.37812607028, 7637.456969911692, 27958.612496687474, 5210.8845366101905, 38734.23203637982, 27420.315434970315, 39071.67632242159, 33058.051235443505, 27069.72832318882, 24437.005750776025, 0.048125, 1.00271875, 0.23915625000000001, 192.0, 0.5, 48.0, 15.5, 32.0, 3.5, 96.0, 0.0, 0.0, 0.0, 1.7074741976871803E9, 0.0, 2024-02-09 11:23:17.687
140.0, -17863.313002981307, -7973.537799541688, 14405.028749111743, -3259.063155539412, 45860.16933443181, 16410.6731308309, 33111.96364306971, 7775.344881456481, 28072.80755910964, 5282.253656655987, 38801.13080753456, 27479.882833943706, 39038.12635399418, 33116.99278557215, 27106.049907928696, 24409.624863818273, 0.048125, 1.00271875, 0.23915625000000001, 192.0, 0.0, 0.0, 0.0, 0.0, 0.0, 0.0, 0.0, 0.0, 0.0, 1.707474197695205E9, 0.0, 2024-02-09 11:23:17.695
142.0, -17946.819120266333, -8080.26737931578, 14327.758768529746, -3238.4101436627084, 45623.84434030585, 16364.315612830595, 32973.69575186918, 7715.0845784049725, 28176.43024640444, 5298.749244064003, 39039.66862436159, 27492.444514327588, 39444.72693738067, 33234.786478851616, 27211.460734779925, 24579.09579027841, 0.048125, 1.00271875, 0.23915625000000001, 192.0, 0.0, 0.0, 0.0, 0.0, 0.0, 0.0, 0.0, 0.0, 0.0, 1.7074741977032287E9, 0.0, 2024-02-09 11:23:17.703
144.0, -17873.8183228753, -7992.894410239985, 14389.270769270752, -3235.5714721168843, 45641.41281144772, 16401.53126734868, 33015.71703144515, 7726.0592849325285, 27914.423097899333, 5244.255691081964, 38611.52095932019, 27434.352330488247, 38844.42613654448, 33018.93568264672, 27005.02002299071, 24336.042921071403, 0.048125, 1.00271875, 0.23915625000000001, 192.0, 0.0, 0.0, 0.0, 0.0, 0.0, 0.0, 0.0, 0.0, 0.0, 1.707474197711366E9, 0.0, 2024-02-09 11:23:17.711
146.0, -17848.471444662984, -7964.686508737387, 14394.7469466623, -3239.3265651853762, 45872.46279388223, 16414.741148321766, 33112.07540179198, 7797.450756722779, 28261.29982010124, 5358.406050015217, 39096.24088957797, 27549.128538266246, 39433.61812038638, 33283.73679920874, 27250.799805021266, 24578.134665266833, 0.048125, 1.00271875, 0.23915625000000001, 192.0, 0.0, 0.0, 0.0, 0.0, 0.0, 0.0, 0.0, 0.0, 0.0, 1.707474197719233E9, 0.0, 2024-02-09 11:23:17.719
148.0, -17912.710358227534, -8047.611480666576, 14358.715934600346, -3216.8854137522476, 45498.85338531177, 16345.8083684216, 32930.8251060039, 7650.644499140322, 27995.001136660714, 5254.068106897844, 38774.97926652185, 27455.877060398707, 39117.229177621506, 33090.99770677063, 27094.40464906748, 24446.30407646943, 0.0500625, 0.999359375, 0.249578125, 192.0, 0.5, 80.0, 15.5, 16.0, 4.0, 16.0, 0.0, 0.0, 0.0, 1.7074741977282484E9, 0.0, 2024-02-09 11:23:17.728
150.0, -17808.52887732135, -7912.986923812262, 14431.33675233564, -3241.740553586549, 45876.28494218409, 16429.649761873457, 33139.25512304963, 7798.233067778715, 28100.50137048976, 5318.977572796056, 38832.132677094065, 27511.2423314145, 39076.07961607929, 33135.790602659064, 27140.113966478584, 24431.663683851206, 0.0500625, 0.999359375, 0.249578125, 192.0, 0.0, 0.0, 0.0, 0.0, 0.0, 0.0, 0.0, 0.0, 0.0, 1.707474197735226E9, 0.0, 2024-02-09 11:23:17.735
152.0, -17893.420802762605, -8020.677628597931, 14352.680963597413, -3223.9262132556696, 45632.36035494332, 16349.18348183435, 32988.22438576513, 7685.3791100238695, 28201.419496705475, 5319.357552451796, 39068.412967731114, 27515.15388669418, 39487.48582452367, 33232.48424917272, 27241.501479327857, 24591.076325306454, 0.0500625, 0.999359375, 0.249578125, 192.0, 0.0, 0.0, 0.0, 0.0, 0.0, 0.0, 0.0, 0.0, 0.0, 1.707474197743647E9, 0.0, 2024-02-09 11:23:17.743
154.0, -17828.064301975286, -7941.083066592582, 14403.70999618888, -3218.964125986591, 45637.76947710151, 16391.29416838815, 33022.35549954838, 7717.43151157278, 27943.994455813703, 5262.584121535316, 38637.69485207735, 27455.988819120983, 38874.69039853697, 33017.505171001576, 27025.58362788959, 24340.71443566256, 0.0500625, 0.999359375, 0.249578125, 192.0, 0.0, 0.0, 0.0, 0.0, 0.0, 0.0, 0.0, 0.0, 0.0, 1.707474197751259E9, 0.0, 2024-02-09 11:23:17.751
156.0, -17810.361720366684, -7919.1783570263815, 14404.313493289173, -3220.037009720446, 45874.83207879449, 16420.418491413413, 33137.26581779311, 7816.695608698798, 28278.801236009745, 5369.045480375944, 39115.686907254094, 27561.623163416763, 39445.48689669215, 33276.62894447195, 27263.741465060888, 24587.96943282717, 0.0500625, 0.999359375, 0.249578125, 192.0, 0.0, 0.0, 0.0, 0.0, 0.0, 0.0, 0.0, 0.0, 0.0, 1.7074741977592642E9, 0.0, 2024-02-09 11:23:17.759
158.0, -17881.529674712383, -8011.222840693336, 14350.445789151883, -3211.1857189161447, 45490.40442590767, 16341.405074763905, 32929.059318191925, 7633.9030425432975, 28014.760078759205, 5266.51802855945, 38794.447635942415, 27463.677819213608, 39129.45558183856, 33092.27175620458, 27097.958576435874, 24448.718064870605, 0.04803125, 0.9976796875, 0.2567890625, 192.0, 0.5, 56.0, 15.5, 16.0, 4.0, 32.0, 0.0, 0.0, 0.0, 1.707474197767322E9, 0.0, 2024-02-09 11:23:17.767
160.0, -17768.22868206843, -7867.635234312444, 14424.921801676966, -3226.206091190111, 45868.864163024926, 16440.557413167648, 33133.93540786927, 7796.109652055461, 28113.577140996116, 5324.654915887704, 38833.42907827247, 27518.68546231812, 39056.87946759218, 33135.03064334758, 27121.405556369493, 24417.9620645001, 0.04803125, 0.9976796875, 0.2567890625, 192.0, 0.0, 0.0, 0.0, 0.0, 0.0, 0.0, 0.0, 0.0, 0.0, 1.70747419777541E9, 0.0, 2024-02-09 11:23:17.775
162.0, -17861.144883769142, -7980.489192067289, 14349.21644320684, -3210.9174979826807, 45636.42837243419, 16371.915205945399, 32997.25449052507, 7700.622999742389, 28226.051119095224, 5339.429418972662, 39084.21565106102, 27534.376386925745, 39483.57426924399, 33252.69022616032, 27237.276999625803, 24592.976223585156, 0.04803125, 0.9976796875, 0.2567890625, 192.0, 0.0, 0.0, 0.0, 0.0, 0.0, 0.0, 0.0, 0.0, 0.0, 1.707474197784366E9, 0.0, 2024-02-09 11:23:17.784
164.0, -17816.553153580804, -7920.4077029714235, 14393.763469906267, -3226.809588290404, 45632.51681715451, 16395.183371923373, 33008.16214181926, 7694.409214783814, 27947.458976204274, 5266.629787281727, 38634.923235764894, 27459.408636022647, 38866.174383899495, 33021.66259547026, 27015.592398118068, 24327.14692677819, 0.04803125, 0.9976796875, 0.2567890625, 192.0, 0.0, 0.0, 0.0, 0.0, 0.0, 0.0, 0.0, 0.0, 0.0, 1.7074741977903533E9, 0.0, 2024-02-09 11:23:17.790
166.0, -17810.831107000246, -7908.2036504988255, 14388.51080995927, -3241.517036141996, 45868.41712813582, 16420.351436180048, 33127.45340197723, 7792.354558986969, 28276.431951097486, 5367.458506519617, 39100.21950009102, 27555.364674969278, 39436.4567919322, 33276.0030956272, 27257.795901035777, 24568.657525617782, 0.04803125, 0.9976796875, 0.2567890625, 192.0, 0.0, 0.0, 0.0, 0.0, 0.0, 0.0, 0.0, 0.0, 0.0, 1.7074741977993684E9, 0.0, 2024-02-09 11:23:17.799
168.0, -17892.54908472885, -8009.971143003839, 14325.300076639662, -3231.704620326116, 45472.18775417659, 16336.174766561362, 32920.00686168753, 7610.07608295394, 28007.920444955882, 5259.521932544939, 38775.96274327788, 27450.982028362996, 39126.19222714809, 33094.08224750546, 27083.653459984478, 24430.032006505968, 0.057015625, 0.99783984375, 0.26239453125, 192.0, 1.0, 8.0, 15.5, 24.0, 4.0, 48.0, 0.0, 0.0, 0.0, 1.707474197807568E9, 0.0, 2024-02-09 11:23:17.807
170.0, -17795.654272515094, -7883.527324620167, 14397.987949608321, -3253.3411089588535, 45844.99249994666, 16421.960761780832, 33136.28234103708, 7771.880361065908, 28097.126257077012, 5319.335200707341, 38807.76927563778, 27499.619424297744, 39051.62680764518, 33136.483506737175, 27102.920663704954, 24392.458724076598, 0.057015625, 0.99783984375, 0.26239453125, 192.0, 0.0, 0.0, 0.0, 0.0, 0.0, 0.0, 0.0, 0.0, 0.0, 1.7074741978153794E9, 0.0, 2024-02-09 11:23:17.815
172.0, -17894.91836964111, -8004.360855145557, 14333.12318719902, -3232.7551523155157, 45616.60237510233, 16355.106694115007, 33004.3399935174, 7701.137089864861, 28205.509865940796, 5321.48096817505, 39061.95331358353, 27511.26468315896, 39477.405187774326, 33244.86711560096, 27228.269246610314, 24576.43593268823, 0.057015625, 0.99783984375, 0.26239453125, 192.0, 0.0, 0.0, 0.0, 0.0, 0.0, 0.0, 0.0, 0.0, 0.0, 1.7074741978233907E9, 0.0, 2024-02-09 11:23:17.823
174.0, -17851.846558075733, -7950.247281819258, 14383.951054090388, -3237.8289983068703, 45600.39736037223, 16374.262139113205, 32999.06498182595, 7680.953464621719, 27929.95756029577, 5240.187673591098, 38615.208997155314, 27436.587504933777, 38859.58061928518, 33018.421592524246, 27004.52828461269, 24321.469583686543, 0.057015625, 0.99783984375, 0.26239453125, 192.0, 0.0, 0.0, 0.0, 0.0, 0.0, 0.0, 0.0, 0.0, 0.0, 1.7074741978313887E9, 0.0, 2024-02-09 11:23:17.831
176.0, -17848.1138167517, -7936.031572345683, 14386.454449469382, -3237.9854605180576, 45849.418145348805, 16411.433090142382, 33121.93252109677, 7790.879343852919, 28264.876099214092, 5338.6694596611815, 39086.00379061744, 27539.897267806205, 39429.41599242878, 33267.30826703409, 27242.127328172606, 24564.991839527112, 0.057015625, 0.99783984375, 0.26239453125, 192.0, 0.0, 0.0, 0.0, 0.0, 0.0, 0.0, 0.0, 0.0, 0.0, 1.7074741978404202E9, 0.0, 2024-02-09 11:23:17.840
178.0, -17952.138835446698, -8060.866065128574, 14327.334085385095, -3228.776541802471, 45459.49196332598, 16328.351656002005, 32913.390745328754, 7625.0964552279065, 27978.505549252695, 5219.288792525386, 38765.70329257289, 27428.831449607784, 39119.9337387006, 33075.038561229536, 27076.25503256977, 24435.97757053108, 0.0675078125, 0.996919921875, 0.265197265625, 192.0, 1.0, 56.0, 15.5, 16.0, 4.0, 48.0, 0.0, 0.0, 0.0, 1.7074741978464112E9, 0.0, 2024-02-09 11:23:17.846
180.0, -17891.655014950637, -7964.507694781744, 14398.36792926406, -3254.458696181619, 45839.60572953293, 16416.238715200274, 33134.49420148065, 7783.771489116131, 28050.79109082116, 5266.786249492914, 38784.0540747707, 27476.798293208874, 39031.75610682441, 33104.63227088836, 27100.864303215065, 24401.265311391988, 0.0675078125, 0.996919921875, 0.265197265625, 192.0, 0.0, 0.0, 0.0, 0.0, 0.0, 0.0, 0.0, 0.0, 0.0, 1.707474197855441E9, 0.0, 2024-02-09 11:23:17.855
182.0, -18047.871356948777, -8157.827932575695, 14312.425471833405, -3251.4188589356972, 45612.62376458928, 16330.251554280705, 32992.42651372272, 7667.676528415267, 28144.735472766817, 5252.883464441713, 39025.83289454376, 27466.225918081513, 39456.841582875444, 33211.74183031819, 27222.43544130748, 24581.688592635226, 0.0675078125, 0.996919921875, 0.265197265625, 192.0, 0.0, 0.0, 0.0, 0.0, 0.0, 0.0, 0.0, 0.0, 0.0, 1.7074741978634713E9, 0.0, 2024-02-09 11:23:17.863
184.0, -18036.784891698946, -8152.66467960652, 14364.929719558922, -3251.485914169063, 45605.292392407944, 16366.57313902058, 33020.96969139215, 7681.020519855085, 27848.530155245087, 5145.148056167132, 38560.62603719545, 27368.54879481182, 38824.376621768075, 32972.15348150176, 26993.397115873948, 24317.558028406864, 0.0675078125, 0.996919921875, 0.265197265625, 192.0, 0.0, 0.0, 0.0, 0.0, 0.0, 0.0, 0.0, 0.0, 0.0, 1.707474197871746E9, 0.0, 2024-02-09 11:23:17.871
186.0, -18031.800452685413, -8154.274005207301, 14362.202806735375, -3259.1749142616886, 45852.770907017104, 16402.96177899382, 33141.04326260606, 7802.882230625419, 28168.62948758954, 5229.883519397202, 39022.94951950902, 27466.5835459928, 39386.522994819046, 33233.53478116212, 27243.736653773387, 24567.00349652809, 0.0675078125, 0.996919921875, 0.265197265625, 192.0, 0.0, 0.0, 0.0, 0.0, 0.0, 0.0, 0.0, 0.0, 0.0, 1.7074741978797092E9, 0.0, 2024-02-09 11:23:17.879
188.0, -18107.05877626643, -8255.460352356477, 14314.951218956856, -3242.2546437090214, 45463.35881511674, 16323.210754777285, 32919.15749539823, 7633.321897187459, 27906.66704257334, 5125.255003601909, 38717.91526292745, 27370.247527390424, 39092.23992732047, 33057.894773232314, 27080.41245703846, 24444.001846790536, 0.0675078125, 0.996919921875, 0.265197265625, 192.0, 0.0, 0.0, 0.0, 0.0, 0.0, 0.0, 0.0, 0.0, 0.0, 1.7074741978874857E9, 0.0, 2024-02-09 11:23:17.887
190.0, -17993.89189408921, -8118.041827445249, 14394.121097817553, -3270.619007422806, 45837.527017298584, 16401.598322582046, 33117.57393092799, 7770.449849420768, 27996.2081308613, 5186.8117078318255, 38749.61003656507, 27429.971388575006, 39007.50446409041, 33093.478750405164, 27100.953710192887, 24394.626843288763, 0.074, 0.996, 0.264, 192.0, 1.0, 40.0, 15.5, 16.0, 4.0, 32.0, 0.0, 0.0, 0.0, 1.707474197894481E9, 0.0, 2024-02-09 11:23:17.894
192.0, -18075.92279624019, -8234.15913989057, 14316.962875957834, -3257.45382993863, 45614.79188380145, 16340.488653241237, 32991.085409055406, 7712.603534770434, 28121.020271899735, 5189.873896822202, 39010.477246102964, 27433.547667687853, 39445.732765881156, 33211.16068496236, 27221.85429595164, 24577.754685611093, 0.074, 0.996, 0.264, 192.0, 0.0, 0.0, 0.0, 0.0, 0.0, 0.0, 0.0, 0.0, 0.0, 1.7074741979025636E9, 0.0, 2024-02-09 11:23:17.902
194.0, -18003.167868038163, -8152.865845306617, 14372.283443484717, -3262.974710819091, 45587.947438710624, 16365.232034353261, 32987.82205436493, 7702.433491043269, 27854.922754159303, 5125.433817557552, 38559.01671159467, 27360.144538896628, 38831.19390382694, 32981.96589731764, 26996.48165660878, 24316.775717350927, 0.074, 0.996, 0.264, 192.0, 0.0, 0.0, 0.0, 0.0, 0.0, 0.0, 0.0, 0.0, 0.0, 1.7074741979115336E9, 0.0, 2024-02-09 11:23:17.911
196.0, -17978.804466581878, -8124.188557170458, 14373.289271985206, -3272.876533612792, 45845.88656972487, 16394.065784700608, 33120.79258212955, 7798.21071603426, 28192.85877857909, 5234.331516543808, 39025.8105427993, 27461.28618255689, 39397.67651530224, 33232.685414872816, 27234.34892110216, 24554.128891721833, 0.074, 0.996, 0.264, 192.0, 0.0, 0.0, 0.0, 0.0, 0.0, 0.0, 0.0, 0.0, 0.0, 1.707474197919556E9, 0.0, 2024-02-09 11:23:17.919
198.0, -18031.867507918778, -8193.389558004088, 14328.183451674397, -3250.2789199684767, 45459.1790389036, 16320.41678672037, 32906.93109118117, 7626.616373850868, 27939.345292967, 5141.169445654088, 38722.43031530742, 27371.007486701907, 39109.02608740641, 33056.1513371648, 27078.11022735956, 24427.573314615885, 0.074, 0.996, 0.264, 192.0, 0.0, 0.0, 0.0, 0.0, 0.0, 0.0, 0.0, 0.0, 0.0, 1.707474197926566E9, 0.0, 2024-02-09 11:23:17.926
200.0, -17900.68511971058, -8035.228614238336, 14408.47091775786, -3266.3721759762975, 45829.078057894476, 16416.082252989087, 33119.02679431758, 7796.3778729889245, 28036.821250536592, 5217.031266335401, 38754.63917906752, 27435.358158988736, 39013.87471126017, 33089.94717478123, 27105.424059083947, 24391.87757872076, 0.074, 0.994, 0.262, 192.0, 1.0, 40.0, 15.5, 8.0, 4.0, 24.0, 0.0, 0.0, 0.0, 1.707474197934728E9, 0.0, 2024-02-09 11:23:17.934
202.0, -17972.769495578945, -8127.2060426719245, 14330.619791820025, -3248.8260565788814, 45616.200043702134, 16344.243746309729, 32998.01444983655, 7691.279970560071, 28166.975458499845, 5234.443275266084, 39032.89604579163, 27453.887755142183, 39467.50336498063, 33217.55328387657, 27226.39170007607, 24578.58170015594, 0.074, 0.994, 0.262, 192.0, 0.0, 0.0, 0.0, 0.0, 0.0, 0.0, 0.0, 0.0, 0.0, 1.7074741979435525E9, 0.0, 2024-02-09 11:23:17.943
204.0, -17902.696776711557, -8039.430742195934, 14384.934530846422, -3241.6734983531833, 45593.468319591084, 16367.444857054337, 33007.93862437471, 7698.499584019135, 27891.71372553274, 5169.578512856783, 38589.68330498735, 27391.99577474544, 38848.15887786852, 32985.206900263656, 27006.38347940248, 24324.598827910286, 0.074, 0.994, 0.262, 192.0, 0.0, 0.0, 0.0, 0.0, 0.0, 0.0, 0.0, 0.0, 0.0, 1.7074741979506073E9, 0.0, 2024-02-09 11:23:17.950
206.0, -17870.622023418193, -7993.117927684538, 14388.980196592833, -3246.680289111172, 45850.73689827167, 16403.699386560846, 33128.995672344645, 7816.315629043059, 28235.237686066353, 5297.542249863416, 39066.28955200786, 27509.230674413524, 39407.66774507377, 33234.27238872914, 27245.703607285453, 24564.9471360382, 0.074, 0.994, 0.262, 192.0, 0.0, 0.0, 0.0, 0.0, 0.0, 0.0, 0.0, 0.0, 0.0, 1.7074741979587135E9, 0.0, 2024-02-09 11:23:17.958
208.0, -17928.289524112883, -8068.130382076548, 14353.440922908894, -3220.327582398365, 45468.834992508295, 16323.076644310553, 32934.04375720546, 7634.640650110323, 27981.075999865057, 5203.307295239842, 38773.19112696542, 27421.075394281794, 39131.10961092825, 33067.751892537104, 27089.710782731865, 24448.963934059615, 0.074, 0.994, 0.262, 192.0, 0.0, 0.0, 0.0, 0.0, 0.0, 0.0, 0.0, 0.0, 0.0, 1.7074741979676433E9, 0.0, 2024-02-09 11:23:17.967
210.0, -17796.458935315484, -7911.109377278016, 14440.322153606672, -3225.5355388564517, 45838.82341847699, 16430.07444501811, 33132.39313750185, 7812.605239463478, 28072.494634687264, 5269.401403594185, 38799.47677844486, 27485.627232268722, 39029.05154574532, 33104.565215655, 27116.734041778334, 24408.0602417064, 0.082, 0.996, 0.264, 192.0, 1.0, 72.0, 15.5, 16.0, 4.0, 32.0, 0.0, 0.0, 0.0, 1.7074741979756038E9, 0.0, 2024-02-09 11:23:17.975
212.0, -17875.58411068727, -8012.452186638378, 14361.286385212707, -3208.0341229479463, 45636.78600034547, 16365.835531453555, 33006.172836562735, 7733.457712347235, 28219.233837036354, 5292.33429340533, 39088.1272063407, 27516.62910182823, 39483.77543494409, 33246.00705456818, 27256.901831257564, 24611.461116249695, 0.082, 0.996, 0.264, 192.0, 0.0, 0.0, 0.0, 0.0, 0.0, 0.0, 0.0, 0.0, 0.0, 1.707474197982657E9, 0.0, 2024-02-09 11:23:17.982
214.0, -17812.261618645385, -7937.126807823994, 14410.929609647943, -3206.4695008360745, 45602.61018307331, 16389.86365674301, 32999.82494113743, 7718.951430195741, 27940.306417978576, 5226.8436821512805, 38639.21477070031, 27446.981066105494, 38862.93338095348, 33014.57709247793, 27026.477697667804, 24347.68817993262, 0.082, 0.996, 0.264, 192.0, 0.0, 0.0, 0.0, 0.0, 0.0, 0.0, 0.0, 0.0, 0.0, 1.7074741979906893E9, 0.0, 2024-02-09 11:23:17.990
216.0, -17776.252958327885, -7894.233810214259, 14423.33482782064, -3209.107006681801, 45872.351035159954, 16433.606020642044, 33136.617617203905, 7826.508024514678, 28283.182177922987, 5350.180608055664, 39113.20586361955, 27563.41130297319, 39423.358669681395, 33282.84272943053, 27269.821139552732, 24595.859598619892, 0.082, 0.996, 0.264, 192.0, 0.0, 0.0, 0.0, 0.0, 0.0, 0.0, 0.0, 0.0, 0.0, 1.707474197999828E9, 0.0, 2024-02-09 11:23:17.999
218.0, -17844.24696496093, -7985.585389803099, 14373.60219640758, -3195.226573375055, 45483.67655082662, 16354.816121437088, 32931.8756379933, 7661.887426601342, 28028.104070199024, 5260.840685467802, 38827.796438669735, 27475.703057730563, 39155.60712285127, 33109.572006412986, 27117.8516290011, 24473.148521560255, 0.082, 0.996, 0.264, 192.0, 0.0, 0.0, 0.0, 0.0, 0.0, 0.0, 0.0, 0.0, 0.0, 1.707474198006722E9, 0.0, 2024-02-09 11:23:18.006
220.0, -17735.192803763486, -7846.445780568813, 14450.693363033935, -3219.880547509259, 45851.42980234978, 16448.313468493638, 33133.488372980166, 7825.345733803003, 28101.663661201437, 5313.344933193318, 38826.5670927247, 27518.05961347337, 39040.942673795544, 33132.147268312845, 27130.860344274086, 24425.427547148174, 0.084, 1.0, 0.27, 192.0, 1.0, 80.0, 15.5, 32.0, 4.0, 56.0, 0.0, 0.0, 0.0, 1.7074741980146692E9, 0.0, 2024-02-09 11:23:18.014
222.0, -17830.23242118745, -7964.977081415306, 14353.530329886715, -3226.586070845851, 45629.67814560868, 16354.61495573699, 32984.82692060792, 7691.324674048981, 28238.165764589998, 5327.739456622536, 39103.21463384803, 27531.20243921309, 39497.78997871756, 33269.029351357145, 27255.314857401238, 24612.310482538996, 0.084, 1.0, 0.27, 192.0, 0.0, 0.0, 0.0, 0.0, 0.0, 0.0, 0.0, 0.0, 0.0, 1.707474198023657E9, 0.0, 2024-02-09 11:23:18.023
224.0, -17777.504656017383, -7900.872278317485, 14387.66144366997, -3227.5695476018846, 45580.50430780701, 16385.52741831868, 32975.14861525877, 7706.0991771339395, 27945.067339547557, 5243.22751083702, 38631.1681426964, 27439.828507879796, 38867.426081588994, 33015.895845400795, 26997.666299064913, 24318.072118529337, 0.084, 1.0, 0.27, 192.0, 0.0, 0.0, 0.0, 0.0, 0.0, 0.0, 0.0, 0.0, 0.0, 1.7074741980317662E9, 0.0, 2024-02-09 11:23:18.031
226.0, -17745.675771913026, -7863.991899966229, 14395.7974786517, -3235.0126785055018, 45843.22671213469, 16417.803337312143, 33092.294107949034, 7806.369102760447, 28281.952831977946, 5369.716032709603, 39101.3817908027, 27555.521137180465, 39414.23915794363, 33289.88352893395, 27230.929104200495, 24562.95783078168, 0.084, 1.0, 0.27, 192.0, 0.0, 0.0, 0.0, 0.0, 0.0, 0.0, 0.0, 0.0, 0.0, 1.7074741980387273E9, 0.0, 2024-02-09 11:23:18.038
228.0, -17819.81650827128, -7961.154933113448, 14339.068751224131, -3214.806701517904, 45448.94193994307, 16341.427426508359, 32879.72901817907, 7626.0352284950295, 28032.462660367808, 5265.869827970246, 38812.351383251116, 27459.118063344726, 39138.955073232064, 33113.23769250366, 27073.148140090485, 24441.23023047808, 0.084, 1.0, 0.27, 192.0, 0.0, 0.0, 0.0, 0.0, 0.0, 0.0, 0.0, 0.0, 0.0, 1.707474198046749E9, 0.0, 2024-02-09 11:23:18.046
230.0, -17706.336701671684, -7819.176652333338, 14431.269697102272, -3220.819320776382, 45826.32879332647, 16463.803227401164, 33109.147323268335, 7832.587699006522, 28104.100001347066, 5324.6996193766145, 38812.50784546231, 27513.902189004682, 39010.56665308078, 33137.71285268222, 27092.460047299868, 24406.517971338984, 0.082, 0.994, 0.272, 192.0, 1.0, 72.0, 15.5, 8.0, 4.0, 64.0, 0.0, 0.0, 0.0, 1.7074741980557892E9, 0.0, 2024-02-09 11:23:18.055
232.0, -17799.923455706055, -7935.2045578008365, 14353.373867675527, -3210.5375183269407, 45631.35452644283, 16379.313633360105, 33000.31667951545, 7717.207994128227, 28251.040369396254, 5340.591709684338, 39103.34874431476, 27531.649474102196, 39476.421711018294, 33274.9525636378, 27242.931990972997, 24607.415450503286, 0.082, 0.994, 0.272, 192.0, 0.0, 0.0, 0.0, 0.0, 0.0, 0.0, 0.0, 0.0, 0.0, 1.7074741980627503E9, 0.0, 2024-02-09 11:23:18.062
234.0, -17748.84971962568, -7874.586626838044, 14401.094842087608, -3207.7435502700273, 45594.27298239148, 16402.78296503818, 33002.97653710563, 7716.828014472487, 27962.300534522597, 5263.500543057984, 38647.864895804516, 27461.040313367885, 38853.90327619354, 33032.614950253366, 27015.48063939579, 24335.86410711576, 0.082, 0.994, 0.272, 192.0, 0.0, 0.0, 0.0, 0.0, 0.0, 0.0, 0.0, 0.0, 0.0, 1.7074741980707552E9, 0.0, 2024-02-09 11:23:18.070
236.0, -17726.117995514633, -7842.802446222598, 14415.914048661478, -3218.0477044639238, 45867.4783548687, 16436.44469218787, 33146.72060569771, 7823.110559357472, 28291.340564649174, 5369.850143176334, 39111.66359325214, 27570.340343754335, 39398.7493990361, 33284.273241075665, 27258.511156858345, 24575.921842565756, 0.082, 0.994, 0.272, 192.0, 0.0, 0.0, 0.0, 0.0, 0.0, 0.0, 0.0, 0.0, 0.0, 1.7074741980790956E9, 0.0, 2024-02-09 11:23:18.079
238.0, -17804.81848774177, -7943.027668360194, 14368.863626583056, -3194.4219105746643, 45471.27133265392, 16361.298127329128, 32934.24492290556, 7663.876731857865, 28045.806651807627, 5275.078746685833, 38840.00049114233, 27480.39692406618, 39141.212599422055, 33117.10454429442, 27108.12862016304, 24469.1252075583, 0.082, 0.994, 0.272, 192.0, 0.0, 0.0, 0.0, 0.0, 0.0, 0.0, 0.0, 0.0, 0.0, 1.7074741980877793E9, 0.0, 2024-02-09 11:23:18.087
240.0, -17696.65839632254, -7808.447814994791, 14455.364877625094, -3209.1517101707113, 45837.07998240948, 16456.985945342298, 33148.017006876114, 7822.015323879162, 28109.19619908288, 5324.274936231964, 38829.204598570424, 27525.480392632533, 39006.02924895636, 33137.534038726575, 27119.88563774653, 24418.386747644752, 0.076, 0.996, 0.276, 192.0, 1.0, 48.0, 15.5, 16.0, 4.0, 80.0, 0.0, 0.0, 0.0, 1.7074741980952156E9, 0.0, 2024-02-09 11:23:18.095
242.0, -17794.782554481335, -7933.505825222233, 14373.825713852135, -3208.838785748337, 45638.305918968435, 16376.81023798111, 33015.98525237862, 7724.114683164917, 28252.180308363477, 5337.350706738318, 39121.05132592336, 27541.975980040548, 39477.248725563135, 33276.89716540541, 27257.97471499142, 24615.842058162936, 0.076, 0.996, 0.276, 192.0, 0.0, 0.0, 0.0, 0.0, 0.0, 0.0, 0.0, 0.0, 0.0, 1.7074741981028433E9, 0.0, 2024-02-09 11:23:18.102
244.0, -17750.257879526365, -7878.3193681620805, 14415.310551561184, -3206.3130386248877, 45590.49553757853, 16403.989959238763, 33023.718955960154, 7715.486909805169, 27958.54544145411, 5258.583159277816, 38655.55389589714, 27458.268697055424, 38848.60591275763, 33032.614950253366, 27022.566142388125, 24346.280020031933, 0.076, 0.996, 0.276, 192.0, 0.0, 0.0, 0.0, 0.0, 0.0, 0.0, 0.0, 0.0, 0.0, 1.7074741981119063E9, 0.0, 2024-02-09 11:23:18.111
246.0, -17724.240448980385, -7842.243652611215, 14419.959714407887, -3213.5997073173176, 45862.78448853308, 16444.73718938079, 33144.61954171891, 7830.441931538812, 28293.68749781698, 5375.125154867787, 39113.31762234183, 27569.42392223167, 39386.522994819046, 33291.53755802364, 27251.380950377104, 24579.52047342306, 0.076, 0.996, 0.276, 192.0, 0.0, 0.0, 0.0, 0.0, 0.0, 0.0, 0.0, 0.0, 0.0, 1.7074741981178675E9, 0.0, 2024-02-09 11:23:18.117
248.0, -17811.702825034004, -7955.946976655362, 14357.285422955207, -3208.4364543481415, 45468.25384715245, 16342.142682330928, 32923.91841696721, 7630.684391341733, 28048.332398931077, 5268.105002415777, 38841.60981674312, 27472.283240828903, 39142.33018664482, 33124.07828856448, 27098.6961840029, 24461.92794584369, 0.076, 0.996, 0.276, 192.0, 0.0, 0.0, 0.0, 0.0, 0.0, 0.0, 0.0, 0.0, 0.0, 1.7074741981268525E9, 0.0, 2024-02-09 11:23:18.126
250.0, -17717.311408199243, -7830.754855961187, 14436.81292972719, -3230.363515658798, 45824.76417121461, 16439.9315643229, 33123.16186704181, 7806.436157993813, 28113.018347384736, 5309.634543613737, 38825.002470612824, 27508.560122079867, 39002.69883903251, 33125.79937288754, 27098.74088749181, 24398.851322990817, 0.068, 1.0, 0.278, 192.0, 1.0, 16.0, 15.5, 32.0, 4.0, 88.0, 0.0, 0.0, 0.0, 1.707474198134884E9, 0.0, 2024-02-09 11:23:18.134
252.0, -17823.14691819512, -7965.804095960152, 14351.27280369673, -3234.0739052383788, 45627.532378140975, 16360.672278484379, 32990.88424335531, 7703.707540477221, 28249.609857751115, 5323.045590286922, 39111.30596534085, 27519.601883840787, 39475.28177205107, 33262.34617976501, 27236.762909503334, 24599.122953310365, 0.068, 1.0, 0.278, 192.0, 0.0, 0.0, 0.0, 0.0, 0.0, 0.0, 0.0, 0.0, 0.0, 1.7074741981429064E9, 0.0, 2024-02-09 11:23:18.142
254.0, -17806.517220320373, -7939.876072391996, 14376.619681909047, -3247.306137955921, 45569.149621623714, 16375.089153658051, 32980.378923461314, 7685.8484966574315, 27937.735967366218, 5221.188690804087, 38622.897997247936, 27418.013205291416, 38841.095726620646, 33000.7413626601, 26991.318403639605, 24311.746574848483, 0.068, 1.0, 0.278, 192.0, 0.0, 0.0, 0.0, 0.0, 0.0, 0.0, 0.0, 0.0, 0.0, 1.7074741981508799E9, 0.0, 2024-02-09 11:23:18.150
0.0, -17795.184885881532, -7915.691484891354, 14386.052118069187, -3252.6705566251944, 45851.6756715388, 16428.7780438397, 33117.328061738976, 7811.845280151997, 28255.153090376032, 5326.040724043933, 39066.49071770796, 27521.7476513085, 39370.25092485559, 33255.21597328377, 27221.608426762632, 24546.1940224402, 0.068, 1.0, 0.278, 192.0, 0.0, 0.0, 0.0, 0.0, 0.0, 0.0, 0.0, 0.0, 0.0, 1.7074741981591036E9, 0.0, 2024-02-09 11:23:18.159
2.0, -17906.407166291137, -8041.688268385919, 14336.654762822958, -3228.3518586578202, 45465.57163781782, 16359.130008116963, 32933.954350227636, 7672.102173817418, 27997.951566928812, 5220.227565792509, 38792.12305451906, 27423.511734427422, 39127.75684925996, 33091.55650038201, 27083.40759079547, 24447.39931194774, 0.068, 1.0, 0.278, 192.0, 0.0, 0.0, 0.0, 0.0, 0.0, 0.0, 0.0, 0.0, 0.0, 1.707474198166908E9, 0.0, 2024-02-09 11:23:18.166
4.0, -17837.206165457508, -7954.270595821214, 14422.306647575695, -3251.620024635795, 45835.425953319784, 16445.631259159, 33146.541791742064, 7825.21162333627, 28043.817346551103, 5258.627862766727, 38772.83349905413, 27464.840109925284, 38983.833966712235, 33106.353355211424, 27097.980928180332, 24395.386802600242, 0.06, 0.994, 0.272, 192.0, 0.5, 112.0, 15.5, 8.0, 4.0, 64.0, 0.0, 0.0, 0.0, 1.7074741981748967E9, 0.0, 2024-02-09 11:23:18.174
6.0, -17981.978414294532, -8131.072894462693, 14342.488568125793, -3250.100106012834, 45647.33602372838, 16363.555653519114, 33033.91135143177, 7727.378037855392, 28173.52451962525, 5247.049659138877, 39058.44408970405, 27463.186080835592, 39456.215734030695, 33238.899199831394, 27246.552973574755, 24589.24348226112, 0.06, 0.994, 0.272, 192.0, 0.0, 0.0, 0.0, 0.0, 0.0, 0.0, 0.0, 0.0, 0.0, 1.7074741981839068E9, 0.0, 2024-02-09 11:23:18.183
8.0, -17982.22428348354, -8128.6142025726085, 14371.814056851157, -3254.771620603993, 45574.31287459289, 16380.967662449797, 32994.706391657164, 7703.685188732767, 27854.162794847824, 5138.688402019549, 38570.594915222515, 27363.85492847621, 38816.44175248644, 32981.16123451725, 27009.132743970484, 24310.24900796998, 0.06, 0.994, 0.272, 192.0, 0.0, 0.0, 0.0, 0.0, 0.0, 0.0, 0.0, 0.0, 0.0, 1.7074741981909006E9, 0.0, 2024-02-09 11:23:18.190
10.0, -17976.18931248061, -8123.383894370067, 14372.909292329467, -3265.3216439868984, 45858.47060185321, 16421.267857702715, 33144.50778299663, 7826.284507070126, 28171.892842280013, 5233.728019443514, 39011.326612392266, 27461.28618255689, 39340.366642518835, 33232.37249045044, 27228.24689486586, 24545.9928567401, 0.06, 0.994, 0.272, 192.0, 0.0, 0.0, 0.0, 0.0, 0.0, 0.0, 0.0, 0.0, 0.0, 1.7074741981989796E9, 0.0, 2024-02-09 11:23:18.198
12.0, -18073.285290394462, -8249.805361009283, 14305.474079307805, -3258.616120650306, 45451.55709404434, 16325.356522244994, 32913.346041839846, 7619.486167369625, 27933.779708597627, 5123.019829156378, 38749.922960987446, 27362.379713342158, 39105.98625016049, 33071.97637223916, 27083.25112858428, 24443.487756668063, 0.06, 0.994, 0.272, 192.0, 0.0, 0.0, 0.0, 0.0, 0.0, 0.0, 0.0, 0.0, 0.0, 1.7074741982069664E9, 0.0, 2024-02-09 11:23:18.206
14.0, -17971.07076300034, -8123.182728669969, 14384.46514421286, -3284.1418128182668, 45808.35799078441, 16417.848040801055, 33115.428163460274, 7776.909503568352, 27980.49485450922, 5155.340451638753, 38708.34871630058, 27388.732420054963, 38944.22667553743, 33067.23780241463, 27063.17926206342, 24357.321781792856, 0.068, 0.998, 0.266, 192.0, 1.0, 16.0, 15.5, 24.0, 4.0, 40.0, 0.0, 0.0, 0.0, 1.7074741982149668E9, 0.0, 2024-02-09 11:23:18.214
16.0, -18054.643935518736, -8230.359343333166, 14320.717969026324, -3266.126306787289, 45630.1698839867, 16351.083380113052, 33002.86477838335, 7714.9057644493305, 28139.415757586452, 5176.172277471099, 39020.736696807944, 27419.510772169924, 39440.2565884896, 33218.33559493251, 27222.18957211847, 24577.262947233077, 0.068, 0.998, 0.266, 192.0, 0.0, 0.0, 0.0, 0.0, 0.0, 0.0, 0.0, 0.0, 0.0, 1.7074741982231328E9, 0.0, 2024-02-09 11:23:18.223
18.0, -18004.620731427756, -8175.709328139941, 14366.471989926338, -3262.259454996521, 45565.662749488685, 16361.834569196055, 33000.651955682275, 7678.695938431733, 27842.539887731065, 5095.9518666210015, 38551.305359757585, 27342.240791587927, 38814.25128152982, 32964.41977792022, 26988.90441523843, 24305.95747303456, 0.068, 0.998, 0.266, 192.0, 0.0, 0.0, 0.0, 0.0, 0.0, 0.0, 0.0, 0.0, 0.0, 1.7074741982329953E9, 0.0, 2024-02-09 11:23:18.232
20.0, -17960.632498339713, -8118.354751867623, 14375.949129575389, -3274.262341769021, 45847.78646800357, 16403.94525574985, 33132.907227624324, 7796.757852644665, 28176.229080704343, 5216.628934935205, 39004.37521986666, 27458.089883099783, 39344.25584605406, 33216.05571699807, 27227.598694276658, 24535.19696416819, 0.068, 0.998, 0.266, 192.0, 0.0, 0.0, 0.0, 0.0, 0.0, 0.0, 0.0, 0.0, 0.0, 1.7074741982399716E9, 0.0, 2024-02-09 11:23:18.239
22.0, -18013.60613269879, -8191.176735303014, 14322.751977771757, -3244.5792251323733, 45448.830181220794, 16326.89879261241, 32925.97477745709, 7639.89331005732, 27959.327752510042, 5139.358954353208, 38753.11926044455, 27382.31746939629, 39124.22527363602, 33074.23389842915, 27088.906119931475, 24443.51010841252, 0.068, 0.998, 0.266, 192.0, 0.0, 0.0, 0.0, 0.0, 0.0, 0.0, 0.0, 0.0, 0.0, 1.7074741982460103E9, 0.0, 2024-02-09 11:23:18.246
24.0, -17882.311985768316, -8030.1771199914365, 14394.523429217748, -3268.2720742549986, 45795.952772611716, 16412.304808176137, 33122.98305308617, 7790.588771175, 28019.677462539374, 5214.058484322844, 38727.70532699887, 27447.29399052787, 38957.10128034369, 33089.25427070311, 27087.07327688614, 24371.15751161069, 0.07200000000000001, 0.994, 0.272, 192.0, 1.0, 32.0, 15.5, 8.0, 4.0, 64.0, 0.0, 0.0, 0.0, 1.7074741982549837E9, 0.0, 2024-02-09 11:23:18.254
26.0, -17949.814254023346, -8114.666714032497, 14308.066881664621, -3257.9232165721914, 45615.730657068576, 16342.992048620232, 33005.99402260709, 7696.107947362417, 28181.414685417974, 5251.2070836075645, 39049.905723322125, 27481.648621755678, 39447.90088509332, 33239.81562135406, 27225.698795997956, 24573.32904020894, 0.07200000000000001, 0.994, 0.272, 192.0, 0.0, 0.0, 0.0, 0.0, 0.0, 0.0, 0.0, 0.0, 0.0, 1.707474198263233E9, 0.0, 2024-02-09 11:23:18.263
28.0, -17896.930026642087, -8050.07017255666, 14342.153291958964, -3257.5655886609065, 45538.77360090895, 16353.832644681055, 32963.23513546409, 7670.917531361286, 27888.159798164346, 5184.107146752733, 38579.02152288217, 27406.837333063762, 38817.55933970921, 32989.00669682106, 26972.27471736368, 24294.982766507004, 0.07200000000000001, 0.994, 0.272, 192.0, 0.0, 0.0, 0.0, 0.0, 0.0, 0.0, 0.0, 0.0, 0.0, 1.7074741982700796E9, 0.0, 2024-02-09 11:23:18.270
30.0, -17844.82811031677, -7986.546514814677, 14373.8927690855, -3256.448001438141, 45849.909883726825, 16410.494316875258, 33158.99171340367, 7813.521660986145, 28222.653653938014, 5311.512090147983, 39035.62295861518, 27528.363767667266, 39348.12269784483, 33242.0954992885, 27214.567627259214, 24534.74992927908, 0.07200000000000001, 0.994, 0.272, 192.0, 0.0, 0.0, 0.0, 0.0, 0.0, 0.0, 0.0, 0.0, 0.0, 1.7074741982791255E9, 0.0, 2024-02-09 11:23:18.279
32.0, -17907.36829130272, -8067.437477998434, 14329.882184253, -3228.0165824909905, 45451.51239055543, 16327.144661801418, 32924.43250708968, 7620.55905110348, 28005.864084465993, 5222.976830360512, 38797.666287143984, 27447.651618439155, 39148.92395125913, 33096.07155276198, 27102.18305613793, 24452.11553002781, 0.07200000000000001, 0.994, 0.272, 192.0, 0.0, 0.0, 0.0, 0.0, 0.0, 0.0, 0.0, 0.0, 0.0, 1.7074741982870533E9, 0.0, 2024-02-09 11:23:18.287
34.0, -17787.607644511183, -7915.42326395789, 14414.483537016338, -3243.7969140764376, 45798.523223224074, 16423.34656993706, 33132.281378779575, 7775.099012267472, 28053.339189689064, 5279.325578132341, 38761.56821984866, 27497.317194618845, 38972.14400436211, 33099.06668651899, 27095.65634675698, 24380.00880241499, 0.074, 0.994, 0.274, 192.0, 1.0, 40.0, 15.5, 8.0, 4.0, 72.0, 0.0, 0.0, 0.0, 1.7074741982951272E9, 0.0, 2024-02-09 11:23:18.295
36.0, -17856.562776155803, -8008.294762169691, 14348.389428661994, -3214.717294540083, 45642.53039867048, 16376.162037391907, 33056.19604065371, 7728.786197756076, 28230.476764497373, 5323.1126455202875, 39094.51980525492, 27542.49007016302, 39476.086434851466, 33263.12849082095, 27267.67537208502, 24615.663244207295, 0.074, 0.994, 0.274, 192.0, 0.0, 0.0, 0.0, 0.0, 0.0, 0.0, 0.0, 0.0, 0.0, 1.7074741983021283E9, 0.0, 2024-02-09 11:23:18.302
38.0, -17815.390862869128, -7958.450372034356, 14380.79945812219, -3212.124492183267, 45557.9513976516, 16386.689709030357, 33020.433249525224, 7704.959238166719, 27925.487211404707, 5235.270289810931, 38623.814418770606, 27463.186080835592, 38839.8663806756, 33015.51586574505, 27023.50491565525, 24345.2965432759, 0.074, 0.994, 0.274, 192.0, 0.0, 0.0, 0.0, 0.0, 0.0, 0.0, 0.0, 0.0, 0.0, 1.707474198311201E9, 0.0, 2024-02-09 11:23:18.311
40.0, -17779.8962926741, -7910.774101111187, 14398.189115308418, -3230.4976261255297, 45861.62219782141, 16429.605058384546, 33176.31431535653, 7832.386533306424, 28256.628305510083, 5353.712183679603, 39072.79390964436, 27576.531776968455, 39352.88361941381, 33259.84278438601, 27257.840604524685, 24575.921842565756, 0.074, 0.994, 0.274, 192.0, 0.0, 0.0, 0.0, 0.0, 0.0, 0.0, 0.0, 0.0, 0.0, 1.7074741983191125E9, 0.0, 2024-02-09 11:23:18.319
42.0, -17860.161407013107, -8016.721369829342, 14336.721818056325, -3215.2760881514655, 45462.263579638435, 16352.938574902842, 32958.29539993947, 7672.70567091771, 28030.719224300294, 5256.213874365553, 38827.32705203618, 27483.704982245563, 39153.77427980593, 33112.231864003166, 27125.27240816026, 24479.85404489685, 0.074, 0.994, 0.274, 192.0, 0.0, 0.0, 0.0, 0.0, 0.0, 0.0, 0.0, 0.0, 0.0, 1.7074741983261733E9, 0.0, 2024-02-09 11:23:18.326
44.0, -17745.027571323822, -7871.546789592122, 14411.622513726059, -3236.934928528658, 45804.044104104534, 16448.60404117156, 33154.23079183469, 7818.349637788491, 28070.30416373064, 5296.625828340749, 38772.230001953845, 27523.178162953638, 38966.62312348165, 33104.85578833292, 27110.140277164017, 24406.294453894432, 0.079, 0.992, 0.276, 192.0, 1.0, 80.0, 15.0, 120.0, 4.0, 88.0, 0.0, 0.0, 0.0, 1.7074741983344572E9, 0.0, 2024-02-09 11:23:18.334
46.0, -17826.52203160787, -7975.974139687317, 14340.633373336002, -3224.7085243116053, 45638.574139901895, 16379.671261271389, 33041.17566837974, 7730.350819867947, 28246.54766876074, 5337.48481720505, 39102.16410185863, 27555.40937845819, 39474.387702272856, 33269.43168275734, 27262.690933071488, 24617.876066908368, 0.079, 0.992, 0.276, 192.0, 0.0, 0.0, 0.0, 0.0, 0.0, 0.0, 0.0, 0.0, 0.0, 1.7074741983431685E9, 0.0, 2024-02-09 11:23:18.343
48.0, -17795.676624259548, -7936.232738045781, 14373.848065596589, -3219.366457386787, 45554.39747028321, 16395.29513064565, 33006.038726096005, 7711.396540569847, 27932.840935330503, 5249.7989237068805, 38621.422782113885, 27465.331848303304, 38848.82943020218, 33021.93081640373, 27017.604055119045, 24345.944743865104, 0.079, 0.992, 0.276, 192.0, 0.0, 0.0, 0.0, 0.0, 0.0, 0.0, 0.0, 0.0, 0.0, 1.7074741983502092E9, 0.0, 2024-02-09 11:23:18.350
50.0, -17758.28215578582, -7888.8917432894405, 14387.057946569676, -3226.6307743347616, 45859.18585767578, 16447.508805693247, 33167.01598966312, 7846.60224278, 28257.92470668849, 5366.206808830119, 39064.59081942926, 27573.69310542263, 39357.73394796061, 33273.63381071494, 27245.770662518822, 24573.709019864684, 0.079, 0.992, 0.276, 192.0, 0.0, 0.0, 0.0, 0.0, 0.0, 0.0, 0.0, 0.0, 0.0, 1.707474198358198E9, 0.0, 2024-02-09 11:23:18.358
52.0, -17835.976819512467, -7994.0790526961155, 14336.006562233755, -3211.096311938323, 45454.932207457096, 16356.537205760147, 32948.773556801505, 7674.940845363241, 28042.140965716957, 5281.627807811237, 38833.45143001693, 27492.73508700551, 39160.81507930936, 33132.8178206465, 27123.37250988156, 24488.817094423426, 0.079, 0.992, 0.276, 192.0, 0.0, 0.0, 0.0, 0.0, 0.0, 0.0, 0.0, 0.0, 0.0, 1.7074741983672626E9, 0.0, 2024-02-09 11:23:18.367
54.0, -17727.682617626502, -7858.538074319134, 14420.719673719368, -3237.6725360956834, 45792.935287110246, 16437.69638987737, 33127.83338163297, 7805.430329493324, 28074.03690505468, 5327.471235689072, 38781.14834799151, 27532.25297120249, 38968.254800826886, 33125.68761416526, 27099.88082645903, 24399.901854980213, 0.0805, 0.994, 0.274, 192.0, 1.0, 72.0, 15.5, 16.0, 4.0, 64.0, 0.0, 0.0, 0.0, 1.7074741983752384E9, 0.0, 2024-02-09 11:23:18.375
56.0, -17814.22857215745, -7963.85949419254, 14354.826731065123, -3220.7522655430157, 45638.46238117962, 16378.173694392884, 33020.27678731403, 7738.777427527599, 28247.48644202786, 5358.786029670958, 39110.76952347392, 27564.037151817938, 39474.588867972954, 33280.45109277381, 27252.4314823665, 24607.795430159025, 0.0805, 0.994, 0.274, 192.0, 0.0, 0.0, 0.0, 0.0, 0.0, 0.0, 0.0, 0.0, 0.0, 1.707474198382223E9, 0.0, 2024-02-09 11:23:18.382
58.0, -17788.52406603385, -7927.761426897219, 14385.672138413447, -3218.070056208379, 45549.54714173641, 16383.783982251167, 33003.13299931681, 7701.38295905387, 27941.06637729006, 5271.56952280635, 38637.4713346328, 27480.598089766278, 38848.04711914624, 33028.904560673785, 27017.06761325212, 24344.737749664517, 0.0805, 0.994, 0.274, 192.0, 0.0, 0.0, 0.0, 0.0, 0.0, 0.0, 0.0, 0.0, 0.0, 1.707474198390269E9, 0.0, 2024-02-09 11:23:18.390
60.0, -17755.756408662368, -7880.576894352066, 14398.502039730793, -3224.3285446558652, 45855.855447751936, 16436.735264865787, 33172.31335309903, 7839.516739787668, 28257.83529971067, 5379.796669458946, 39071.31869451031, 27584.42194276118, 39349.35204378987, 33269.85636590199, 27243.803709006752, 24567.29406920601, 0.0805, 0.994, 0.274, 192.0, 0.0, 0.0, 0.0, 0.0, 0.0, 0.0, 0.0, 0.0, 0.0, 1.7074741983995917E9, 0.0, 2024-02-09 11:23:18.399
62.0, -17844.00109577192, -7997.498869597777, 14336.274783167219, -3212.7056375391053, 45448.85253296525, 16336.465339239281, 32938.69292005216, 7640.98854553563, 28042.58800060606, 5285.7852322799245, 38839.061717875215, 27494.858502728763, 39163.787861321915, 33130.13561131187, 27111.995471953807, 24479.809341407938, 0.0805, 0.994, 0.274, 192.0, 0.0, 0.0, 0.0, 0.0, 0.0, 0.0, 0.0, 0.0, 0.0, 1.7074741984062777E9, 0.0, 2024-02-09 11:23:18.406
64.0, -17758.595080208193, -7881.247446685726, 14420.943191163922, -3230.229405192066, 45792.73412141015, 16437.53992766618, 33145.714777197216, 7812.78405341912, 28071.55586142014, 5314.976610538556, 38773.3028856877, 27525.25687518798, 38960.78931817882, 33110.64489014684, 27090.046058898697, 24395.11858166678, 0.08125, 0.994, 0.27, 192.0, 1.0, 72.0, 15.5, 8.0, 4.0, 40.0, 0.0, 0.0, 0.0, 1.7074741984143023E9, 0.0, 2024-02-09 11:23:18.414
66.0, -17872.566625185806, -8021.281125698224, 14359.833521823111, -3211.58805031634, 45647.738355128575, 16389.14840092044, 33043.47789805864, 7761.509151638646, 28238.59044773465, 5335.9648985820895, 39102.27586058091, 27555.051750546903, 39476.064083107005, 33274.5055287487, 27258.131177202606, 24620.737090198647, 0.08125, 0.994, 0.27, 192.0, 0.0, 0.0, 0.0, 0.0, 0.0, 0.0, 0.0, 0.0, 0.0, 1.7074741984233088E9, 0.0, 2024-02-09 11:23:18.423
68.0, -17912.799765205356, -8059.390849994523, 14379.570112177147, -3227.234271435055, 45552.4528685156, 16380.744145005245, 33012.252511054576, 7698.968970652697, 27911.09268797549, 5223.55797571635, 38610.671593030886, 27450.177365562602, 38842.25801733232, 33021.72965070363, 27028.131726757496, 24357.21002307058, 0.08125, 0.994, 0.27, 192.0, 0.0, 0.0, 0.0, 0.0, 0.0, 0.0, 0.0, 0.0, 0.0, 1.7074741984313333E9, 0.0, 2024-02-09 11:23:18.431
70.0, -17933.139852659686, -8072.868951901073, 14382.297025000695, -3252.8940740697476, 45851.854485494434, 16411.29897967565, 33163.77498671711, 7815.443911009302, 28195.04924953571, 5284.555886334883, 39001.76006576539, 27514.5950930828, 39321.54647368747, 33240.53087717663, 27239.467470582425, 24550.843185286903, 0.08125, 0.994, 0.27, 192.0, 0.0, 0.0, 0.0, 0.0, 0.0, 0.0, 0.0, 0.0, 0.0, 1.7074741984383037E9, 0.0, 2024-02-09 11:23:18.438
72.0, -18056.968516942088, -8217.127110615625, 14316.202916646353, -3231.2799371814654, 45452.80879173384, 16343.349676531516, 32948.505335868045, 7664.480228958158, 27961.33940951102, 5178.698024594549, 38766.86558328457, 27415.755679101432, 39142.12902094472, 33104.252291232624, 27115.281178388737, 24471.539195959474, 0.08125, 0.994, 0.27, 192.0, 0.0, 0.0, 0.0, 0.0, 0.0, 0.0, 0.0, 0.0, 0.0, 1.7074741984463525E9, 0.0, 2024-02-09 11:23:18.446
74.0, -17967.78505656541, -8098.260533602302, 14394.858705384579, -3248.6695943676946, 45790.409539986795, 16445.25127950326, 33145.290094052565, 7821.233012823226, 27967.419084002864, 5206.525946441406, 38687.53924221268, 27442.354255003247, 38925.31709972824, 33090.50596839261, 27086.425076296935, 24386.759029240493, 0.084625, 0.995, 0.268, 192.0, 1.0, 96.0, 15.5, 16.0, 4.0, 40.0, 0.0, 0.0, 0.0, 1.7074741984553585E9, 0.0, 2024-02-09 11:23:18.455
76.0, -18072.301813638427, -8213.081444869214, 14325.210669661841, -3240.5112076415076, 45642.284529481476, 16386.309729374618, 33049.46816557267, 7752.367288156425, 28149.38463561352, 5248.949557417579, 39027.82219980028, 27480.933365933106, 39454.20407702972, 33276.807758427596, 27252.342075388682, 24615.372671529374, 0.084625, 0.995, 0.268, 192.0, 0.0, 0.0, 0.0, 0.0, 0.0, 0.0, 0.0, 0.0, 0.0, 1.70747419846279E9, 0.0, 2024-02-09 11:23:18.462
78.0, -18067.09385718034, -8197.412872006043, 14354.17853047592, -3242.075829753379, 45540.137057320724, 16392.367052122005, 33017.996909379595, 7701.002979398129, 27816.27658799608, 5160.21313193001, 38539.01190030717, 27386.810170031808, 38818.96749960989, 33020.5450082475, 27008.596302103557, 24339.61920018425, 0.084625, 0.995, 0.268, 192.0, 0.0, 0.0, 0.0, 0.0, 0.0, 0.0, 0.0, 0.0, 0.0, 1.707474198470343E9, 0.0, 2024-02-09 11:23:18.470
80.0, -18040.405874300704, -8160.554845399242, 14375.211522008363, -3253.0281845364793, 45853.08383143948, 16452.381485984504, 33185.29971662757, 7857.800466752108, 28127.70344349187, 5272.7541652624805, 38962.152774590584, 27486.610709024753, 39303.1286362563, 33260.17806055285, 27234.505383313346, 24561.504967392084, 0.084625, 0.995, 0.268, 192.0, 0.0, 0.0, 0.0, 0.0, 0.0, 0.0, 0.0, 0.0, 0.0, 1.707474198478557E9, 0.0, 2024-02-09 11:23:18.478
82.0, -18130.572811433412, -8266.658576328586, 14313.230134633797, -3230.944661014636, 45449.59014053227, 16366.304918087117, 32956.44020514968, 7670.559903450001, 27917.060603745056, 5186.364672942719, 38736.57896954763, 27402.366984172702, 39133.233026651505, 33136.46115499272, 27115.527047577747, 24490.448771768664, 0.084625, 0.995, 0.268, 192.0, 0.0, 0.0, 0.0, 0.0, 0.0, 0.0, 0.0, 0.0, 0.0, 1.7074741984883776E9, 0.0, 2024-02-09 11:23:18.488
84.0, -18014.589609454826, -8108.341170351645, 14391.863571627568, -3247.4402484226525, 45777.57963866945, 16465.725477424323, 33148.97813188769, 7832.632402495433, 27922.603836369974, 5239.986507891001, 38658.57138139861, 27439.403824735145, 38899.05379999326, 33119.45147746223, 27087.274442586237, 24399.49952358002, 0.0873125, 0.9955, 0.271, 192.0, 1.0, 104.0, 15.5, 16.0, 4.0, 72.0, 0.0, 0.0, 0.0, 1.7074741984953783E9, 0.0, 2024-02-09 11:23:18.495
86.0, -18080.259034664516, -8195.490621982888, 14311.844326477567, -3240.4441524081412, 45628.94053804166, 16386.15326716343, 33037.3982235668, 7741.169064184316, 28100.70253618986, 5287.3051509028855, 39006.632746056646, 27476.66418274214, 39419.38005916835, 33292.76690396868, 27251.537412588288, 24628.984883902656, 0.0873125, 0.9955, 0.271, 192.0, 0.0, 0.0, 0.0, 0.0, 0.0, 0.0, 0.0, 0.0, 0.0, 1.7074741985024297E9, 0.0, 2024-02-09 11:23:18.502
88.0, -18035.063807375886, -8136.839644532162, 14349.574071118126, -3229.000059247024, 45527.06128681437, 16392.81408701111, 32990.95129858867, 7703.90870617732, 27798.21637847619, 5205.609524918738, 38529.17713274684, 27394.745039313442, 38794.939374320435, 33026.71408971716, 27004.505932868236, 24343.86603163076, 0.0873125, 0.9955, 0.271, 192.0, 0.0, 0.0, 0.0, 0.0, 0.0, 0.0, 0.0, 0.0, 0.0, 1.707474198511377E9, 0.0, 2024-02-09 11:23:18.511
90.0, -17975.36229793576, -8066.521056475766, 14372.171684762441, -3240.555911130418, 45844.50076156864, 16452.69441040688, 33157.29298082507, 7861.466152842779, 28130.56446678215, 5326.7559798665025, 38976.81551895327, 27515.06447971636, 39289.896403538754, 33277.59006948353, 27228.716281499423, 24570.602127385395, 0.0873125, 0.9955, 0.271, 192.0, 0.0, 0.0, 0.0, 0.0, 0.0, 0.0, 0.0, 0.0, 0.0, 1.7074741985184271E9, 0.0, 2024-02-09 11:23:18.518
92.0, -18041.32229582337, -8155.682165107985, 14310.637332276981, -3223.59093708884, 45445.65623350814, 16354.860824926, 32953.91445802623, 7674.002072096118, 27941.49106043471, 5235.784379933403, 38771.58180136464, 27432.76535663192, 39141.68198605561, 33138.584570715975, 27114.476515588347, 24496.729611960604, 0.0873125, 0.9955, 0.271, 192.0, 0.0, 0.0, 0.0, 0.0, 0.0, 0.0, 0.0, 0.0, 0.0, 1.707474198526769E9, 0.0, 2024-02-09 11:23:18.526
94.0, -17901.623892977703, -7989.899276482974, 14400.603103709593, -3235.683230839161, 45780.977103826655, 16452.73911389579, 33140.14919282785, 7816.092111598506, 27961.76409265567, 5279.593799065805, 38693.66362019344, 27471.4338745396, 38913.94006180049, 33112.61184365891, 27081.440637283402, 24394.559788055398, 0.08765624999999999, 0.99575, 0.2725, 192.0, 1.0, 96.0, 15.5, 16.0, 4.0, 72.0, 0.0, 0.0, 0.0, 1.707474198534498E9, 0.0, 2024-02-09 11:23:18.534
96.0, -17954.731637803514, -8060.508437217288, 14341.92977451441, -3212.4150648611862, 45651.20287551914, 16395.33983413456, 33045.91423820427, 7745.482950864191, 28170.842310290613, 5339.67528816167, 39065.06020606282, 27533.482317147533, 39452.57239968448, 33301.59584302853, 27260.29929641477, 24621.005311132114, 0.08765624999999999, 0.99575, 0.2725, 192.0, 0.0, 0.0, 0.0, 0.0, 0.0, 0.0, 0.0, 0.0, 0.0, 1.707474198542446E9, 0.0, 2024-02-09 11:23:18.542
98.0, -17909.40230004815, -8010.284067426213, 14375.725612130835, -3209.129358426256, 45540.137057320724, 16397.798526024642, 33004.854083639875, 7709.966028924708, 27863.55052751905, 5265.579255292328, 38592.834900955546, 27453.10544408625, 38830.25513055982, 33054.92199121976, 27022.20851447684, 24356.405360270186, 0.08765624999999999, 0.99575, 0.2725, 192.0, 0.0, 0.0, 0.0, 0.0, 0.0, 0.0, 0.0, 0.0, 0.0, 1.7074741985504682E9, 0.0, 2024-02-09 11:23:18.550
100.0, -17852.87473832068, -7937.015049101717, 14400.42428975395, -3215.7007712961163, 45860.258741409634, 16460.763390155244, 33171.48633855418, 7857.085210929538, 28189.617775633073, 5387.39626257375, 39024.71530732099, 27567.211099530592, 39309.38712470378, 33297.30430809311, 27239.24395313787, 24566.981144783636, 0.08765624999999999, 0.99575, 0.2725, 192.0, 0.0, 0.0, 0.0, 0.0, 0.0, 0.0, 0.0, 0.0, 0.0, 1.7074741985584877E9, 0.0, 2024-02-09 11:23:18.558
102.0, -17930.859974725245, -8042.224710252847, 14336.475948867315, -3194.623076274762, 45467.40448086315, 16387.5167235752, 32964.5315366425, 7707.28381959007, 27993.63768024894, 5301.632619098737, 38825.04717410173, 27490.030525926417, 39165.41953866715, 33173.34153334398, 27138.03525424424, 24514.074565657924, 0.08765624999999999, 0.99575, 0.2725, 192.0, 0.0, 0.0, 0.0, 0.0, 0.0, 0.0, 0.0, 0.0, 0.0, 1.707474198567601E9, 0.0, 2024-02-09 11:23:18.567
104.0, -17810.406423855595, -7896.89366780444, 14418.573906251659, -3207.6764950366614, 45798.16559531279, 16489.150105613484, 33159.70696922624, 7859.253330141703, 28006.378174588466, 5342.4245527296725, 38732.935635201415, 27519.601883840787, 38923.12662877162, 33150.22982957719, 27108.21802714086, 24421.203067446124, 0.086828125, 0.994875, 0.27125, 192.0, 1.0, 88.0, 15.5, 8.0, 4.0, 56.0, 0.0, 0.0, 0.0, 1.7074741985734503E9, 0.0, 2024-02-09 11:23:18.573
106.0, -17882.513151468414, -7991.776823017219, 14353.530329886715, -3199.0263699324573, 45673.42050950772, 16425.58174438259, 33068.48950010413, 7795.595561932989, 28211.880113110557, 5379.550800269938, 39092.66461046512, 27556.906945336694, 39466.18461205776, 33325.55691308462, 27280.97466003593, 24655.20348014873, 0.086828125, 0.994875, 0.27125, 192.0, 0.0, 0.0, 0.0, 0.0, 0.0, 0.0, 0.0, 0.0, 0.0, 1.707474198582486E9, 0.0, 2024-02-09 11:23:18.582
108.0, -17857.680363378568, -7962.227816847303, 14377.737269131812, -3210.6492770492173, 45550.79883942591, 16413.087119232074, 33006.57516796293, 7727.57920355549, 27901.52614134862, 5285.8969910022015, 38609.889281974945, 27467.72348496002, 38848.494154035354, 33058.610029054886, 27031.529191914702, 24371.06810463287, 0.086828125, 0.994875, 0.27125, 192.0, 0.0, 0.0, 0.0, 0.0, 0.0, 0.0, 0.0, 0.0, 0.0, 1.70747419859051E9, 0.0, 2024-02-09 11:23:18.590
110.0, -17804.594970297214, -7893.049167758128, 14394.590484451115, -3223.6356405777506, 45864.70673855624, 16474.800285673176, 33163.193841361266, 7859.588606308533, 28215.836371879148, 5394.325303354896, 39028.82802830077, 27574.49776822302, 39322.99933707707, 33286.59782249902, 27233.790127490774, 24569.23867097362, 0.086828125, 0.994875, 0.27125, 192.0, 0.0, 0.0, 0.0, 0.0, 0.0, 0.0, 0.0, 0.0, 0.0, 1.7074741985985003E9, 0.0, 2024-02-09 11:23:18.598
112.0, -17885.30711952533, -7998.616456820543, 14329.211631919341, -3202.625000789762, 45464.208181406044, 16388.299034631138, 32945.8231265334, 7695.370339795392, 28023.790183519148, 5321.659782130692, 38840.2687120758, 27497.026621940928, 39189.47001570106, 33163.685579739285, 27123.439565114924, 24506.966710921137, 0.086828125, 0.994875, 0.27125, 192.0, 0.0, 0.0, 0.0, 0.0, 0.0, 0.0, 0.0, 0.0, 0.0, 1.7074741986067874E9, 0.0, 2024-02-09 11:23:18.606
114.0, -17777.90698741758, -7862.896664487918, 14401.094842087608, -3226.3402016568425, 45783.704016650205, 16466.798361158177, 33117.08219254997, 7814.996876120195, 28024.103107941522, 5354.785067413458, 38739.95408296038, 27521.814706541863, 38928.15577127407, 33127.185181043766, 27075.807997680666, 24394.53743631094, 0.0834140625, 0.9924375, 0.271625, 192.0, 1.0, 64.0, 15.0, 120.0, 4.0, 64.0, 0.0, 0.0, 0.0, 1.7074741986145244E9, 0.0, 2024-02-09 11:23:18.614
116.0, -17853.768808098892, -7960.350270313057, 14340.320448913628, -3207.900012481214, 45669.196029805666, 16418.362130923528, 33051.85980222938, 7783.212695504749, 28219.97144460338, 5394.9064487107335, 39098.900747168154, 27562.986619828538, 39467.86099289191, 33314.40339260142, 27254.666656812034, 24635.802165961526, 0.0834140625, 0.9924375, 0.271625, 192.0, 0.0, 0.0, 0.0, 0.0, 0.0, 0.0, 0.0, 0.0, 0.0, 1.7074741986235633E9, 0.0, 2024-02-09 11:23:18.623
118.0, -17820.19648792702, -7920.653572160432, 14384.912179101966, -3197.2158786315777, 45554.28571156094, 16421.87135480301, 33019.941511147204, 7741.124360695406, 27906.309414662053, 5309.85806105829, 38625.60255832703, 27476.083037386303, 38848.851781946636, 33057.134813920835, 27023.214342977328, 24371.939822666627, 0.0834140625, 0.9924375, 0.271625, 192.0, 0.0, 0.0, 0.0, 0.0, 0.0, 0.0, 0.0, 0.0, 0.0, 1.7074741986295571E9, 0.0, 2024-02-09 11:23:18.629
120.0, -17765.479417500428, -7848.2115683807815, 14418.640961485025, -3201.999151945013, 45883.258686454144, 16479.20357933087, 33190.97705971921, 7889.718757834287, 28229.38152901906, 5429.350486916362, 39049.838668088756, 27596.670698722686, 39324.34044174438, 33298.73481973825, 27251.179784677006, 24586.58362467094, 0.0834140625, 0.9924375, 0.271625, 192.0, 0.0, 0.0, 0.0, 0.0, 0.0, 0.0, 0.0, 0.0, 0.0, 1.7074741986385431E9, 0.0, 2024-02-09 11:23:18.638
122.0, -17849.34316269674, -7961.177284857904, 14354.245585709285, -3182.3519685687984, 45480.41319613614, 16381.347642105538, 32963.86098430884, 7692.039929871551, 28046.566611119106, 5344.995003342033, 38865.68264552148, 27522.619369342254, 39205.22799554205, 33177.65542002385, 27147.355931682105, 24522.076490172924, 0.0834140625, 0.9924375, 0.271625, 192.0, 0.0, 0.0, 0.0, 0.0, 0.0, 0.0, 0.0, 0.0, 0.0, 1.7074741986488519E9, 0.0, 2024-02-09 11:23:18.648
124.0, -17750.168472548543, -7835.4710740412565, 14430.040351157231, -3208.212936903589, 45799.19377555773, 16460.629279688514, 33143.5243062406, 7819.847204666997, 28043.97380876229, 5369.20194258713, 38761.70233031539, 27546.759253353986, 38949.56874246225, 33141.378538772886, 27102.250111371293, 24404.17103817118, 0.07970703125, 0.9922187499999999, 0.2728125, 192.0, 1.0, 48.0, 15.5, 0.0, 4.0, 72.0, 0.0, 0.0, 0.0, 1.707474198655636E9, 0.0, 2024-02-09 11:23:18.655
126.0, -17838.502566635914, -7944.078200349593, 14348.389428661994, -3213.107968939301, 45671.90059088476, 16395.362185879014, 33027.31758681746, 7731.647221046355, 28235.058872110712, 5406.6411145497705, 39119.240834622484, 27581.65032644872, 39489.29631582455, 33321.64535780494, 27268.4353313965, 24623.195782088733, 0.07970703125, 0.9922187499999999, 0.2728125, 192.0, 0.0, 0.0, 0.0, 0.0, 0.0, 0.0, 0.0, 0.0, 0.0, 1.7074741986627429E9, 0.0, 2024-02-09 11:23:18.662
128.0, -17819.86121176019, -7920.18418552687, 14379.056022054676, -3212.146843927723, 45540.002946853994, 16396.457421357325, 32988.134978787304, 7700.868868931398, 27907.739926307193, 5298.503374874995, 38623.1662181814, 27475.077208885818, 38860.54174429676, 33057.71595927668, 27013.044299250163, 24342.659037430174, 0.07970703125, 0.9922187499999999, 0.2728125, 192.0, 0.0, 0.0, 0.0, 0.0, 0.0, 0.0, 0.0, 0.0, 0.0, 1.707474198670622E9, 0.0, 2024-02-09 11:23:18.670
130.0, -17775.314185060764, -7863.097830188016, 14401.921856632454, -3222.585108588351, 45872.68631132678, 16463.244433789783, 33180.04705668057, 7865.712984289287, 28222.340729515643, 5414.397169875761, 39035.354737681715, 27589.831064919363, 39318.95367133065, 33298.64541276043, 27237.969903703917, 24557.10167373439, 0.07970703125, 0.9922187499999999, 0.2728125, 192.0, 0.0, 0.0, 0.0, 0.0, 0.0, 0.0, 0.0, 0.0, 0.0, 1.7074741986787064E9, 0.0, 2024-02-09 11:23:18.678
132.0, -17869.146808284142, -7984.378395602513, 14330.485681353293, -3205.7542450135047, 45464.498754083965, 16358.32534531657, 32951.52282136951, 7671.275159272571, 28028.59580857704, 5316.273011716964, 38847.35421506813, 27503.307462132867, 39193.53803319193, 33160.75750121564, 27130.390957640524, 24490.247606068566, 0.07970703125, 0.9922187499999999, 0.2728125, 192.0, 0.0, 0.0, 0.0, 0.0, 0.0, 0.0, 0.0, 0.0, 0.0, 1.7074741986856852E9, 0.0, 2024-02-09 11:23:18.685
134.0, -17769.726248946936, -7854.559463806089, 14414.528240505248, -3221.9592597436026, 45774.2045252567, 16443.64195390248, 33120.7702303851, 7807.084358583017, 28022.78435501866, 5349.241834788541, 38734.85788522457, 27525.994482755006, 38931.821457364735, 33110.4660761912, 27081.619451239047, 24376.58898551333, 0.08185351562500001, 0.990109375, 0.27240625, 192.0, 1.0, 80.0, 15.0, 112.0, 4.0, 64.0, 0.0, 0.0, 0.0, 1.7074741986947193E9, 0.0, 2024-02-09 11:23:18.694
136.0, -17866.57635767178, -7970.117982640027, 14346.98126876131, -3212.3480096278204, 45659.2271517786, 16386.197970652338, 33042.87440095835, 7750.825017789009, 28221.9607498599, 5381.383643315273, 39099.057209379345, 27561.109073294294, 39473.58303947247, 33304.43451457435, 27258.15352894706, 24614.098622095422, 0.08185351562500001, 0.990109375, 0.27240625, 192.0, 0.0, 0.0, 0.0, 0.0, 0.0, 0.0, 0.0, 0.0, 0.0, 1.707474198702698E9, 0.0, 2024-02-09 11:23:18.702
138.0, -17888.726936426992, -7988.848744493574, 14359.989984034299, -3217.3771521302647, 45522.09919954529, 16375.916168202899, 32980.46833043913, 7687.927208891775, 27892.71955403323, 5274.676415285638, 38603.49668306073, 27459.162766833637, 38853.99268317135, 33042.315607346965, 27016.06178475163, 24343.75427290848, 0.08185351562500001, 0.990109375, 0.27240625, 192.0, 0.0, 0.0, 0.0, 0.0, 0.0, 0.0, 0.0, 0.0, 0.0, 1.707474198709699E9, 0.0, 2024-02-09 11:23:18.709
140.0, -17907.636512236182, -7991.955636972862, 14379.65951915497, -3243.6404518652503, 45849.08286918198, 16422.899535047953, 33140.70798643923, 7820.540108745112, 28176.58670861563, 5361.624701216781, 38991.0535801713, 27543.004160285494, 39303.39685718976, 33270.32575253555, 27221.63077850709, 24533.632342056317, 0.08185351562500001, 0.990109375, 0.27240625, 192.0, 0.0, 0.0, 0.0, 0.0, 0.0, 0.0, 0.0, 0.0, 0.0, 1.7074741987177763E9, 0.0, 2024-02-09 11:23:18.717
142.0, -18052.85579596231, -8168.3556042141445, 14311.39729158846, -3226.071980723379, 45452.51821905592, 16342.321496286571, 32926.37710885729, 7663.541455691035, 27958.90306936539, 5244.054525381866, 38792.48068243035, 27434.844068866263, 39183.12212027575, 33138.450460249245, 27114.32005337716, 24471.47214072611, 0.08185351562500001, 0.990109375, 0.27240625, 192.0, 0.0, 0.0, 0.0, 0.0, 0.0, 0.0, 0.0, 0.0, 0.0, 1.7074741987268631E9, 0.0, 2024-02-09 11:23:18.726
144.0, -17993.020176055452, -8082.055518872205, 14385.739193646812, -3254.2128269926106, 45761.84401057292, 16434.924773564908, 33104.72167786618, 7806.436157993813, 27927.67768236133, 5255.096287142788, 38656.447965675354, 27441.34842650276, 38905.08877099619, 33092.20470097121, 27065.190919064396, 24361.47920626154, 0.08185351562500001, 0.990109375, 0.27240625, 192.0, 0.0, 0.0, 0.0, 0.0, 0.0, 0.0, 0.0, 0.0, 0.0, 1.7074741987347968E9, 0.0, 2024-02-09 11:23:18.734
146.0, -18093.893598782255, -8198.396348762077, 14320.44974809286, -3241.494684397541, 45658.06486106692, 16383.873389228987, 33046.025996926546, 7748.9474712547635, 28114.56061775215, 5289.897953259701, 39016.847493272726, 27471.255060583957, 39450.11370779439, 33280.31698230708, 27249.302238142758, 24601.894569622826, 0.08600000000000001, 0.99, 0.274, 192.0, 1.0, 88.0, 15.0, 120.0, 4.0, 72.0, 0.0, 0.0, 0.0, 1.707474198741786E9, 0.0, 2024-02-09 11:23:18.741
148.0, -18092.53014237048, -8198.262238295345, 14343.539100115193, -3239.9747657745797, 45518.679382643626, 16387.53907531966, 32988.000868320574, 7711.262430103116, 27780.759666056594, 5188.041053776867, 38524.72913560023, 27371.32041112428, 38833.51848525029, 33023.89776991579, 27005.847037535554, 24332.332531491822, 0.08600000000000001, 0.99, 0.274, 192.0, 0.0, 0.0, 0.0, 0.0, 0.0, 0.0, 0.0, 0.0, 0.0, 1.7074741987508757E9, 0.0, 2024-02-09 11:23:18.750
150.0, -18051.939374439644, -8146.741467325863, 14369.578882405625, -3252.782315347471, 45848.68053778178, 16446.10064579256, 33140.50682073913, 7851.184350393338, 28084.676335415406, 5291.0602439713775, 38922.74664911588, 27480.463979299544, 39280.84394703436, 33258.546383207606, 27215.037013892772, 24531.28540888851, 0.08600000000000001, 0.99, 0.274, 192.0, 0.0, 0.0, 0.0, 0.0, 0.0, 0.0, 0.0, 0.0, 0.0, 1.7074741987588277E9, 0.0, 2024-02-09 11:23:18.758
152.0, -18146.30843952995, -8268.44671588501, 14301.45076530585, -3232.1516552152225, 45453.85932372324, 16349.965792890287, 32943.58795208787, 7663.51910394658, 27899.447429114276, 5204.581344673794, 38752.515763344265, 27397.874283537185, 39178.383550451224, 33148.866373165416, 27121.539666836223, 24485.03964961048, 0.08600000000000001, 0.99, 0.274, 192.0, 0.0, 0.0, 0.0, 0.0, 0.0, 0.0, 0.0, 0.0, 0.0, 1.707474198765866E9, 0.0, 2024-02-09 11:23:18.765
154.0, -18047.46902554858, -8132.436350874466, 14385.962711091366, -3247.59671063384, 45763.363929195875, 16438.702218377857, 33130.85086713444, 7795.059120066062, 27882.124827161413, 5232.453970009562, 38624.84259901555, 27418.728461113988, 38893.75643655735, 33100.273680719576, 27068.230756310317, 24364.384933040732, 0.08600000000000001, 0.99, 0.274, 192.0, 0.0, 0.0, 0.0, 0.0, 0.0, 0.0, 0.0, 0.0, 0.0, 1.7074741987738764E9, 0.0, 2024-02-09 11:23:18.773
156.0, -18120.089843283873, -8220.211651350457, 14325.948277228867, -3228.7988935469266, 45663.60809369184, 16396.18920042386, 33055.74900576461, 7759.497494637668, 28090.66660292943, 5284.175906679143, 39007.37035362367, 27472.327944317814, 39449.24198976064, 33297.125494137465, 27254.86782251213, 24609.1588865708, 0.082, 0.994, 0.27, 192.0, 1.0, 72.0, 15.5, 8.0, 4.0, 56.0, 0.0, 0.0, 0.0, 1.7074741987828233E9, 0.0, 2024-02-09 11:23:18.782
158.0, -18103.080165753385, -8198.597514462175, 14340.096931469076, -3236.3537831728204, 45516.46655994256, 16389.371918364992, 32981.60826940635, 7698.209011341216, 27768.063875205982, 5195.126556769199, 38522.717478599254, 27374.89669023713, 38828.17641832548, 33035.0959938879, 27003.701270067846, 24339.932124606625, 0.082, 0.994, 0.27, 192.0, 0.0, 0.0, 0.0, 0.0, 0.0, 0.0, 0.0, 0.0, 0.0, 1.7074741987901075E9, 0.0, 2024-02-09 11:23:18.790
160.0, -18044.25037434702, -8123.115673436603, 14364.393277691994, -3250.681251368672, 45854.55904657353, 16448.805206871653, 33177.320143857025, 7844.478827056745, 28073.433407954384, 5303.308999932886, 38923.97599506092, 27479.279336843414, 39270.49508935155, 33261.96620010927, 27216.378118560093, 24537.901525247282, 0.082, 0.994, 0.27, 192.0, 0.0, 0.0, 0.0, 0.0, 0.0, 0.0, 0.0, 0.0, 0.0, 1.7074741987978745E9, 0.0, 2024-02-09 11:23:18.797
162.0, -18123.330846229896, -8230.58286077772, 14303.820050218112, -3222.562756843896, 45455.42394583511, 16367.444857054337, 32953.91445802623, 7687.748394936132, 27898.88863550289, 5223.312106527342, 38757.45549886888, 27404.982138273972, 39176.304838216885, 33146.25121906414, 27120.64559705801, 24494.136809603788, 0.082, 0.994, 0.27, 192.0, 0.0, 0.0, 0.0, 0.0, 0.0, 0.0, 0.0, 0.0, 0.0, 1.707474198805894E9, 0.0, 2024-02-09 11:23:18.805
164.0, -17990.337966720817, -8071.058460600193, 14394.299911773196, -3233.6045186048173, 45752.322167434955, 16464.004393101262, 33113.12593378138, 7834.398190307402, 27885.812864996537, 5258.806676722369, 38632.688061319364, 27432.72065314301, 38893.80114004626, 33110.488427935656, 27070.890613900498, 24389.82121823087, 0.082, 0.994, 0.27, 192.0, 0.0, 0.0, 0.0, 0.0, 0.0, 0.0, 0.0, 0.0, 0.0, 1.7074741988148785E9, 0.0, 2024-02-09 11:23:18.814
166.0, -18035.399083542718, -8134.090379964159, 14345.863681538545, -3218.561794586396, 45671.83353565139, 16415.590514611067, 33067.26015415909, 7770.047518020573, 28120.2379608438, 5320.206918741098, 39028.69391783404, 27491.48338931601, 39457.690949164746, 33302.53461629565, 27268.569441863234, 24634.282247338564, 0.074, 0.992, 0.268, 192.0, 1.0, 40.0, 15.5, 0.0, 4.0, 48.0, 0.0, 0.0, 0.0, 1.7074741988219216E9, 0.0, 2024-02-09 11:23:18.821
168.0, -17993.824838855846, -8088.559876508699, 14366.628452137526, -3212.079788694357, 45524.15556003518, 16403.229999927284, 32994.572281190434, 7702.791118954554, 27810.241616993146, 5238.019554378933, 38552.44529872481, 27407.194960975048, 38836.49126726285, 33049.6022760394, 27029.45047968036, 24362.753255695494, 0.074, 0.992, 0.268, 192.0, 0.0, 0.0, 0.0, 0.0, 0.0, 0.0, 0.0, 0.0, 0.0, 1.7074741988299184E9, 0.0, 2024-02-09 11:23:18.829
170.0, -17920.756986231445, -7997.275352153225, 14391.841219883112, -3226.2954981679322, 45859.699947798246, 16463.713820423345, 33170.2793443536, 7853.061896927584, 28128.686920247907, 5367.793782686446, 38955.55900997627, 27525.145116465705, 39272.1714701857, 33290.39761905642, 27229.677406511, 24548.652714330285, 0.074, 0.992, 0.268, 192.0, 0.0, 0.0, 0.0, 0.0, 0.0, 0.0, 0.0, 0.0, 0.0, 1.7074741988389452E9, 0.0, 2024-02-09 11:23:18.838
172.0, -17990.919112076655, -8088.381062553056, 14320.650913792959, -3204.9942857020246, 45457.8826377252, 16374.508008302213, 32944.3255596549, 7682.428679755769, 27968.82724390355, 5296.134089962732, 38806.04819131472, 27455.54178423188, 39189.04533255641, 33189.74771377417, 27140.4045391565, 24506.43026905421, 0.074, 0.992, 0.268, 192.0, 0.0, 0.0, 0.0, 0.0, 0.0, 0.0, 0.0, 0.0, 0.0, 1.7074741988459375E9, 0.0, 2024-02-09 11:23:18.845
174.0, -17859.602613401727, -7930.287174020669, 14402.435946754927, -3217.7347800415496, 45755.78668782553, 16464.294965779183, 33116.59045417195, 7814.326323786537, 27950.67762740584, 5339.25060501702, 38676.69864615186, 27489.82936022632, 38892.392980145574, 33141.445594006254, 27073.706933701866, 24378.377125069754, 0.074, 0.992, 0.268, 192.0, 0.0, 0.0, 0.0, 0.0, 0.0, 0.0, 0.0, 0.0, 0.0, 1.707474198853959E9, 0.0, 2024-02-09 11:23:18.853
176.0, -17915.616085006724, -8010.887564526506, 14339.247565179774, -3211.0516084494125, 45670.64889319526, 16408.974398252296, 33044.50607830359, 7765.420706918324, 28177.01139176028, 5383.730576483081, 39073.86679337821, 27540.612523628777, 39456.23808577515, 33331.92716025438, 27259.49463361438, 24625.721529212184, 0.07200000000000001, 0.988, 0.266, 192.0, 1.0, 32.0, 15.0, 112.0, 4.0, 40.0, 0.0, 0.0, 0.0, 1.7074741988620024E9, 0.0, 2024-02-09 11:23:18.862
178.0, -17880.188570045062, -7977.985796688295, 14373.870417341044, -3196.0312361754463, 45521.607461167274, 16418.16096522343, 32996.29336551349, 7722.572412797501, 27864.712818230728, 5283.103022945288, 38596.88056670196, 27447.830432394796, 38853.99268317135, 33067.68483730374, 27014.38540391748, 24355.10895909178, 0.07200000000000001, 0.988, 0.266, 192.0, 0.0, 0.0, 0.0, 0.0, 0.0, 0.0, 0.0, 0.0, 0.0, 1.7074741988709767E9, 0.0, 2024-02-09 11:23:18.870
180.0, -17814.116813435176, -7897.743034093743, 14409.029711369243, -3208.257640392499, 45881.649360853364, 16480.25411132027, 33196.45323711076, 7886.388347910446, 28188.164912243476, 5399.041521434966, 39005.023420455866, 27567.41226523069, 39294.366752429814, 33297.349011582024, 27240.383892105092, 24560.119159235855, 0.07200000000000001, 0.988, 0.266, 192.0, 0.0, 0.0, 0.0, 0.0, 0.0, 0.0, 0.0, 0.0, 0.0, 1.7074741988780053E9, 0.0, 2024-02-09 11:23:18.878
182.0, -17902.339148800274, -8016.654314595976, 14340.879242525012, -3195.6065530307956, 45480.41319613614, 16373.077496657073, 32959.837670306886, 7682.47338324468, 28021.82323000708, 5316.921212306168, 38856.58548552817, 27487.862406714252, 39218.9072631487, 33186.66317303934, 27153.770882340777, 24522.90350471777, 0.07200000000000001, 0.988, 0.266, 192.0, 0.0, 0.0, 0.0, 0.0, 0.0, 0.0, 0.0, 0.0, 0.0, 1.707474198888039E9, 0.0, 2024-02-09 11:23:18.888
184.0, -17785.394821810107, -7869.51278084669, 14427.358141822595, -3209.1517101707113, 45774.22687700116, 16457.142407553485, 33131.40966074582, 7797.741329400698, 27992.45303779281, 5341.463427718095, 38711.65677447996, 27506.615520312254, 38913.783599589304, 33121.84311411895, 27089.420210053948, 24386.513160051487, 0.07200000000000001, 0.988, 0.266, 192.0, 0.0, 0.0, 0.0, 0.0, 0.0, 0.0, 0.0, 0.0, 0.0, 1.7074741988940506E9, 0.0, 2024-02-09 11:23:18.894
186.0, -17840.53657538135, -7945.888691650473, 14375.971481319844, -3185.2800470924435, 45687.77032944803, 16422.653665858947, 33075.731465307654, 7785.134945527905, 28227.124002829078, 5398.080396423387, 39112.26709035243, 27568.999239087017, 39486.547051256544, 33330.98838698726, 27286.3390787052, 24638.842003207446, 0.078, 0.994, 0.268, 192.0, 1.0, 56.0, 15.5, 8.0, 4.0, 48.0, 0.0, 0.0, 0.0, 1.7074741989040296E9, 0.0, 2024-02-09 11:23:18.904
188.0, -17827.14788045262, -7930.778912398686, 14388.689623914914, -3191.6726460066616, 45522.792103623404, 16409.24261918576, 33001.09899057138, 7707.350874823436, 27901.28027215961, 5302.772558065958, 38628.12830545048, 27471.478578028513, 38876.70205553795, 33079.75477930961, 27044.26968625423, 24380.858168704293, 0.078, 0.994, 0.268, 192.0, 0.0, 0.0, 0.0, 0.0, 0.0, 0.0, 0.0, 0.0, 0.0, 1.707474198910014E9, 0.0, 2024-02-09 11:23:18.910
190.0, -17771.313222803263, -7855.230016139748, 14404.157031077986, -3215.7007712961163, 45864.01383447812, 16470.866378649043, 33168.04416990807, 7853.419524838869, 28201.24068274983, 5411.133815185287, 39013.65119381562, 27575.16832055668, 39295.551394885944, 33302.46756106229, 27236.472336825413, 24556.453473145186, 0.078, 0.994, 0.268, 192.0, 0.0, 0.0, 0.0, 0.0, 0.0, 0.0, 0.0, 0.0, 0.0, 1.7074741989180517E9, 0.0, 2024-02-09 11:23:18.918
192.0, -17867.00104081643, -7976.398822831968, 14329.859832508546, -3205.8660037357813, 45464.85638199525, 16367.355450076515, 32945.80077478895, 7661.462743456691, 28038.40822439292, 5332.656840402704, 38862.59810478665, 27494.120895161737, 39227.110353363794, 33200.76712379064, 27143.734949080343, 24507.637263254794, 0.078, 0.994, 0.268, 192.0, 0.0, 0.0, 0.0, 0.0, 0.0, 0.0, 0.0, 0.0, 0.0, 1.7074741989272456E9, 0.0, 2024-02-09 11:23:18.927
194.0, -17753.007144094365, -7833.213547851271, 14415.064682372176, -3213.1526724282116, 45763.76626059607, 16467.26774779174, 33135.857657892426, 7805.16210855986, 28001.617253019485, 5360.77533492748, 38708.66164072295, 27509.051860457883, 38911.92840479951, 33138.22694280469, 27071.427055767424, 24365.502520263497, 0.078, 0.994, 0.268, 192.0, 0.0, 0.0, 0.0, 0.0, 0.0, 0.0, 0.0, 0.0, 0.0, 1.7074741989341056E9, 0.0, 2024-02-09 11:23:18.934
196.0, -17827.281990919353, -7922.352304739035, 14352.055114752666, -3201.9544484561025, 45688.977323648614, 16427.928677550397, 33064.04150295752, 7770.1369249983945, 28233.606008721115, 5419.9627542451335, 39107.372058316716, 27569.155701298205, 39485.295353567046, 33350.903791296936, 27269.642325597088, 24618.859543664403, 0.08, 1.0, 0.266, 192.0, 1.0, 64.0, 15.5, 32.0, 4.0, 40.0, 0.0, 0.0, 0.0, 1.7074741989421372E9, 0.0, 2024-02-09 11:23:18.942
198.0, -17822.05168271681, -7915.378560468979, 14369.489475427805, -3198.6687420211724, 45517.695905887595, 16421.781947825188, 32975.416836192235, 7709.38488356887, 27900.073277959025, 5322.106817019799, 38618.02531695668, 27470.29393557238, 38873.48340433638, 33091.400038170825, 27018.833401064087, 24355.600697469796, 0.08, 1.0, 0.266, 192.0, 0.0, 0.0, 0.0, 0.0, 0.0, 0.0, 0.0, 0.0, 0.0, 1.7074741989501245E9, 0.0, 2024-02-09 11:23:18.950
200.0, -17773.302528059787, -7848.323327103059, 14402.078318843642, -3214.8514050068147, 45870.048805481056, 16481.237588076307, 33159.75167271515, 7853.441876583323, 28200.368964716075, 5434.066704996432, 38998.09437967472, 27577.60466070231, 39290.70106633915, 33308.0107936872, 27221.496668040356, 24543.37770263883, 0.08, 1.0, 0.266, 192.0, 0.0, 0.0, 0.0, 0.0, 0.0, 0.0, 0.0, 0.0, 0.0, 1.7074741989581213E9, 0.0, 2024-02-09 11:23:18.958
202.0, -17874.466523464504, -7979.416308333434, 14332.184413931896, -3199.6745705216613, 45462.91178022764, 16383.448706084337, 32914.240111618055, 7670.09051681644, 28039.45875638232, 5344.905596364212, 38856.89840995055, 27494.098543417284, 39228.92084466467, 33205.86332152645, 27137.923495521965, 24508.21840861063, 0.08, 1.0, 0.266, 192.0, 0.0, 0.0, 0.0, 0.0, 0.0, 0.0, 0.0, 0.0, 0.0, 1.7074741989661193E9, 0.0, 2024-02-09 11:23:18.966
204.0, -17776.342365305707, -7855.095905673016, 14416.22697308385, -3221.9816114880578, 45757.46306865967, 16462.10449482256, 33101.57008189799, 7800.043559079595, 27994.285880838142, 5357.422573259184, 38692.4342742484, 27502.5922063103, 38904.932308785, 33135.38827125887, 27066.21909930934, 24372.856244189294, 0.08, 1.0, 0.266, 192.0, 0.0, 0.0, 0.0, 0.0, 0.0, 0.0, 0.0, 0.0, 0.0, 1.707474198974147E9, 0.0, 2024-02-09 11:23:18.974
206.0, -17839.508395136403, -7939.965479369817, 14358.134789244508, -3208.749378770516, 45689.31259981544, 16418.943276279366, 33044.52843004804, 7764.124305739917, 28222.92187487148, 5396.046387677955, 39094.989191888475, 27550.559049911386, 39484.870670422395, 33331.88245676547, 27260.768683048333, 24617.451383763717, 0.078, 1.0, 0.266, 192.0, 1.0, 56.0, 15.5, 32.0, 4.0, 40.0, 0.0, 0.0, 0.0, 1.7074741989831438E9, 0.0, 2024-02-09 11:23:18.983
208.0, -17823.124566450664, -7920.966496582806, 14381.8946936005, -3195.427739075153, 45516.73478087602, 16410.807241297633, 32973.89691756927, 7702.902877676831, 27905.46004837275, 5303.018427254967, 38618.38294486797, 27462.53788024639, 38883.11700619662, 33072.40105538381, 27019.436898164382, 24355.377180025243, 0.078, 1.0, 0.266, 192.0, 0.0, 0.0, 0.0, 0.0, 0.0, 0.0, 0.0, 0.0, 0.0, 1.707474198990269E9, 0.0, 2024-02-09 11:23:18.990
210.0, -17777.772876950847, -7856.302899873603, 14393.56230420617, -3223.9485650001247, 45870.98757874818, 16466.01605010224, 33157.740015714175, 7850.804370737597, 28199.474894937863, 5413.234879164085, 38991.590022038225, 27569.42392223167, 39283.3696941578, 33289.43649404484, 27221.76488897382, 24537.76741478055, 0.078, 1.0, 0.266, 192.0, 0.0, 0.0, 0.0, 0.0, 0.0, 0.0, 0.0, 0.0, 0.0, 1.7074741989985335E9, 0.0, 2024-02-09 11:23:18.998
212.0, -17883.362517757716, -7994.704901540864, 14317.45461433585, -3205.3742653577647, 45476.591047834285, 16376.452610069826, 32940.77163228651, 7685.334406534959, 28031.166259189402, 5321.637430386238, 38847.89065693506, 27482.699153745074, 39225.791600440934, 33186.43965559479, 27137.11883272157, 24509.492458044584, 0.078, 1.0, 0.266, 192.0, 0.0, 0.0, 0.0, 0.0, 0.0, 0.0, 0.0, 0.0, 0.0, 1.70747419900617E9, 0.0, 2024-02-09 11:23:19.006
214.0, -17802.225685384954, -7887.03654849965, 14397.362100763572, -3224.462655122597, 45760.88288556134, 16466.574843713624, 33100.09486676394, 7813.476957497234, 27990.061401136092, 5337.82009337188, 38684.40999798894, 27499.97705220903, 38899.254965693355, 33115.18229427127, 27060.20648005086, 24369.63759298773, 0.078, 1.0, 0.266, 192.0, 0.0, 0.0, 0.0, 0.0, 0.0, 0.0, 0.0, 0.0, 0.0, 1.707474199013236E9, 0.0, 2024-02-09 11:23:19.013
216.0, -17928.200117135064, -8035.899166571995, 14337.727646556814, -3218.8076637754043, 45694.56525976244, 16410.09198547506, 33049.11053766138, 7776.261302979148, 28199.81017110469, 5367.525561752983, 39078.717121925016, 27536.008064270984, 39473.60539121692, 33311.40825884441, 27258.108825458152, 24620.62533147637, 0.078, 0.996, 0.268, 192.0, 1.0, 56.0, 15.5, 16.0, 4.0, 48.0, 0.0, 0.0, 0.0, 1.7074741990222301E9, 0.0, 2024-02-09 11:23:19.022
218.0, -17994.13776327822, -8101.255667359313, 14350.423437407428, -3222.942736499636, 45507.30234471588, 16388.58960730906, 32959.837670306886, 7680.6628919438, 27835.275570783087, 5234.800903177369, 38574.57352573556, 27412.33586219977, 38860.45233731894, 33042.449717813695, 27010.362089915525, 24348.11286307727, 0.078, 0.996, 0.268, 192.0, 0.0, 0.0, 0.0, 0.0, 0.0, 0.0, 0.0, 0.0, 0.0, 1.7074741990302675E9, 0.0, 2024-02-09 11:23:19.030
220.0, -17993.26604524446, -8075.662919957987, 14380.553588933182, -3238.298384940432, 45866.0254914791, 16460.897500621977, 33157.404739547346, 7838.577966520545, 28103.42944901341, 5324.632564143249, 38930.99444281989, 27498.457133586067, 39257.888705478756, 33260.42392974185, 27204.39758353205, 24517.248513370578, 0.078, 0.996, 0.268, 192.0, 0.0, 0.0, 0.0, 0.0, 0.0, 0.0, 0.0, 0.0, 0.0, 1.7074741990382345E9, 0.0, 2024-02-09 11:23:19.038
222.0, -18120.358064217337, -8226.179567120023, 14306.479907808294, -3217.8241870193706, 45469.79611751987, 16384.23101714027, 32931.36154787082, 7688.262485058604, 27932.43860393031, 5233.862129910246, 38790.469025429375, 27411.57590288829, 39216.917957892176, 33182.23752763719, 27127.596989583613, 24499.009489895045, 0.078, 0.996, 0.268, 192.0, 0.0, 0.0, 0.0, 0.0, 0.0, 0.0, 0.0, 0.0, 0.0, 1.707474199045268E9, 0.0, 2024-02-09 11:23:19.045
224.0, -18030.0570166179, -8108.430577329466, 14383.28050175673, -3241.3382221863535, 45753.216237213164, 16463.847930890075, 33108.43206744576, 7812.560535974567, 27875.79928348056, 5245.306223071364, 38613.800837254625, 27416.22506573499, 38878.04316020527, 33115.025832060084, 27057.367808505038, 24371.403380799697, 0.078, 0.996, 0.268, 192.0, 0.0, 0.0, 0.0, 0.0, 0.0, 0.0, 0.0, 0.0, 0.0, 1.7074741990542424E9, 0.0, 2024-02-09 11:23:19.054
226.0, -18109.91979955671, -8204.364264531645, 14316.717006768824, -3242.969899531591, 45683.21057357914, 16410.606075597534, 33024.25539782708, 7761.531503383101, 28109.710289205348, 5295.396482395707, 39012.377144381666, 27465.935345403595, 39445.37513796987, 33318.91844498139, 27251.06802595473, 24608.44363074823, 0.082, 0.994, 0.268, 192.0, 1.0, 72.0, 15.5, 8.0, 4.0, 48.0, 0.0, 0.0, 0.0, 1.7074741990627196E9, 0.0, 2024-02-09 11:23:19.062
228.0, -18104.756546587534, -8200.743281929885, 14336.855928523057, -3232.263413937499, 45519.05936229937, 16410.38255815298, 32993.43234222321, 7720.471348818702, 27774.12119795337, 5185.738824097971, 38526.45021992329, 27359.094006907228, 38844.4708400334, 33060.59933431141, 27009.512723626223, 24347.978752610536, 0.082, 0.994, 0.268, 192.0, 0.0, 0.0, 0.0, 0.0, 0.0, 0.0, 0.0, 0.0, 0.0, 1.7074741990693178E9, 0.0, 2024-02-09 11:23:19.069
230.0, -18038.10364462181, -8119.449987345933, 14361.040516023699, -3254.9951380485463, 45877.20136370676, 16470.53110248221, 33183.958611960246, 7866.919978489874, 28072.338172476077, 5299.308037675386, 38897.9809162594, 27470.115121616738, 39242.42129831568, 33278.461787517284, 27211.39367954656, 24529.47491758763, 0.082, 0.994, 0.268, 192.0, 0.0, 0.0, 0.0, 0.0, 0.0, 0.0, 0.0, 0.0, 0.0, 1.7074741990784335E9, 0.0, 2024-02-09 11:23:19.078
232.0, -18120.022788050508, -8229.129997388125, 14284.798715686646, -3241.3829256752642, 45479.80969903585, 16373.94921469083, 32956.77548131651, 7688.061319358507, 27933.57854289753, 5218.774702402914, 38780.85777531359, 27389.00064098843, 39207.99961185451, 33175.46494906723, 27131.016806485273, 24501.490533529584, 0.082, 0.994, 0.268, 192.0, 0.0, 0.0, 0.0, 0.0, 0.0, 0.0, 0.0, 0.0, 0.0, 1.7074741990863175E9, 0.0, 2024-02-09 11:23:19.086
234.0, -17983.073649772843, -8074.07594610166, 14370.160027761463, -3252.7376118585603, 45753.05977500198, 16461.992736100285, 33110.15315176883, 7826.731541959231, 27892.652498799864, 5234.7114961995485, 38610.69394477534, 27400.109457982715, 38870.46591883492, 33093.52345389408, 27052.673942169422, 24351.86795614576, 0.082, 0.994, 0.268, 192.0, 0.0, 0.0, 0.0, 0.0, 0.0, 0.0, 0.0, 0.0, 0.0, 1.7074741990933964E9, 0.0, 2024-02-09 11:23:19.093
236.0, -18019.238772301527, -8134.202138686435, 14318.348684114062, -3242.142884986745, 45701.15902437676, 16414.271761688204, 33063.438005857235, 7781.648073392877, 28150.390464114007, 5302.280819687941, 39033.09721149173, 27476.328906575312, 39461.64720793333, 33306.155598897414, 27256.991238235383, 24605.046165591022, 0.08, 0.992, 0.268, 192.0, 1.0, 64.0, 15.5, 0.0, 4.0, 48.0, 0.0, 0.0, 0.0, 1.7074741991013975E9, 0.0, 2024-02-09 11:23:19.101
238.0, -17989.734469620522, -8102.395606326534, 14350.870472296534, -3222.6298120772617, 45515.28191748642, 16403.408813882925, 32975.17096700322, 7710.14484288035, 27825.351396244932, 5207.397664475163, 38562.5035837297, 27390.341745655747, 38857.859534962125, 33042.33795909142, 27019.95098828685, 24344.514232219964, 0.08, 0.992, 0.268, 192.0, 0.0, 0.0, 0.0, 0.0, 0.0, 0.0, 0.0, 0.0, 0.0, 1.7074741991103501E9, 0.0, 2024-02-09 11:23:19.110
240.0, -17917.091300140775, -8006.841898780096, 14392.51177221677, -3229.8270737918706, 45878.2295439517, 16478.823599675132, 33166.188975118275, 7871.680900058855, 28128.485754547808, 5330.511072934994, 38937.43174522302, 27507.77781102393, 39245.28232160596, 33266.41419725588, 27217.026319149296, 24523.909333218257, 0.08, 0.992, 0.268, 192.0, 0.0, 0.0, 0.0, 0.0, 0.0, 0.0, 0.0, 0.0, 0.0, 1.707474199118374E9, 0.0, 2024-02-09 11:23:19.118
242.0, -18005.22422852805, -8123.4509496034325, 14310.838497977078, -3220.2158236760883, 45478.02155947943, 16380.408868838414, 32938.33529214088, 7691.57054323799, 27984.652278977905, 5261.913569201657, 38820.44271474394, 27438.845031123765, 39222.19296958363, 33184.89738522737, 27145.925420036965, 24511.90644644576, 0.08, 0.992, 0.268, 192.0, 0.0, 0.0, 0.0, 0.0, 0.0, 0.0, 0.0, 0.0, 0.0, 1.7074741991277335E9, 0.0, 2024-02-09 11:23:19.127
244.0, -17875.986442087466, -7970.408555317946, 14399.03848159772, -3238.87953029627, 45747.360080165876, 16456.561262197647, 33098.105561507415, 7810.526527229134, 27929.778746340126, 5279.347929876796, 38633.872703775494, 27447.785728905885, 38867.850764733645, 33101.07834351997, 27052.092796813584, 24353.25376430199, 0.08, 0.992, 0.268, 192.0, 0.0, 0.0, 0.0, 0.0, 0.0, 0.0, 0.0, 0.0, 0.0, 1.707474199134362E9, 0.0, 2024-02-09 11:23:19.134
246.0, -17916.756023973947, -8021.34818093159, 14346.534233872204, -3226.1837394456556, 45702.81305346645, 16415.67992158889, 33049.669331272766, 7766.940625541285, 28189.57307214416, 5352.013451100999, 39065.35077874074, 27524.45221238759, 39458.24974277613, 33325.78043052917, 27259.606392336656, 24606.07434583597, 0.079, 0.995, 0.267, 192.0, 1.0, 56.0, 15.5, 24.0, 4.0, 40.0, 0.0, 0.0, 0.0, 1.7074741991423504E9, 0.0, 2024-02-09 11:23:19.142
248.0, -17900.796878432855, -8010.909916270962, 14349.8869955405, -3232.4422278931415, 45507.03412378242, 16379.224226382285, 32960.21764996262, 7646.710592116188, 27868.624373510407, 5254.112810386755, 38589.146863120426, 27430.731347886485, 38870.510622323825, 33058.319456376965, 27016.7770405742, 24338.993351339504, 0.079, 0.995, 0.267, 192.0, 0.0, 0.0, 0.0, 0.0, 0.0, 0.0, 0.0, 0.0, 0.0, 1.7074741991493552E9, 0.0, 2024-02-09 11:23:19.149
250.0, -17824.845650773725, -7917.077293047583, 14381.559417433671, -3240.108876241312, 45870.71935781471, 16470.39699201548, 33158.924658170305, 7852.748972505209, 28166.796644544203, 5370.8336199323685, 38952.876800641636, 27539.807860828387, 39245.70700475061, 33266.101272833504, 27203.883493409576, 24502.004623652057, 0.079, 0.995, 0.267, 192.0, 0.0, 0.0, 0.0, 0.0, 0.0, 0.0, 0.0, 0.0, 0.0, 1.7074741991573932E9, 0.0, 2024-02-09 11:23:19.157
252.0, -17911.81628844932, -8034.82628283814, 14306.25639036374, -3219.4558643646083, 45475.04877746687, 16384.23101714027, 32931.272140893, 7701.539421265057, 28033.11086095701, 5304.828918555846, 38851.93632268147, 27479.033467654404, 39235.313443578896, 33201.61649007994, 27146.79713807072, 24513.09108890189, 0.079, 0.995, 0.267, 192.0, 0.0, 0.0, 0.0, 0.0, 0.0, 0.0, 0.0, 0.0, 0.0, 1.707474199166406E9, 0.0, 2024-02-09 11:23:19.166
254.0, -17799.9011039616, -7895.820784070585, 14389.695452415403, -3234.5432918719403, 45749.86347554487, 16454.527253452212, 33109.05791629051, 7805.095053326494, 27973.744627683714, 5325.258412987997, 38663.98050355679, 27490.276395115423, 38884.52516609731, 33124.525323453585, 27060.31823877314, 24362.954421395592, 0.079, 0.995, 0.267, 192.0, 0.0, 0.0, 0.0, 0.0, 0.0, 0.0, 0.0, 0.0, 0.0, 1.7074741991744084E9, 0.0, 2024-02-09 11:23:19.174
0.0, -17848.404389429616, -7966.541703527178, 14346.89186178349, -3220.461692865097, 45707.70808550216, 16413.131822720985, 33082.369933410875, 7782.698605382277, 28228.0627760962, 5392.157184142731, 39089.11068309673, 27558.158643026192, 39477.49459475215, 33345.74053832776, 27275.744351833386, 24618.121936097377, 0.0775, 0.9955, 0.2675, 192.0, 1.0, 48.0, 15.5, 16.0, 4.0, 48.0, 0.0, 0.0, 0.0, 1.7074741991814632E9, 0.0, 2024-02-09 11:23:19.181
2.0, -17837.85436604671, -7951.968366142317, 14366.248472481784, -3200.367474599776, 45506.095350515294, 16407.588590096067, 32988.91728984324, 7718.929078451286, 27898.732173291704, 5290.479098615539, 38619.813456513104, 27462.91785990213, 38886.98385798739, 33083.06283748899, 27036.938314072886, 24366.418941786163, 0.0775, 0.9955, 0.2675, 192.0, 0.0, 0.0, 0.0, 0.0, 0.0, 0.0, 0.0, 0.0, 0.0, 1.7074741991894944E9, 0.0, 2024-02-09 11:23:19.189
4.0, -17764.317126788752, -7859.409792352891, 14408.068586357664, -3206.357742113798, 45873.669788082814, 16485.59617824509, 33200.23068192371, 7890.635179356955, 28195.071601280168, 5419.068684466921, 38990.67360051556, 27583.75139042752, 39262.44846134764, 33303.40633432941, 27235.39945309156, 24546.10461546238, 0.0775, 0.9955, 0.2675, 192.0, 0.0, 0.0, 0.0, 0.0, 0.0, 0.0, 0.0, 0.0, 0.0, 1.7074741991984928E9, 0.0, 2024-02-09 11:23:19.198
6.0, -17865.078790793275, -7991.463898594845, 14332.184413931896, -3199.160480399189, 45478.15566994616, 16379.559502549113, 32976.22149899262, 7696.689092718255, 28060.69291361486, 5352.326375523374, 38893.28704992378, 27514.796258782895, 39257.6651880342, 33225.57756013603, 27173.641583161545, 24538.303856647475, 0.0775, 0.9955, 0.2675, 192.0, 0.0, 0.0, 0.0, 0.0, 0.0, 0.0, 0.0, 0.0, 0.0, 1.707474199205468E9, 0.0, 2024-02-09 11:23:19.205
8.0, -17758.70683893047, -7858.940405719329, 14408.716786946869, -3228.128341213267, 45737.25709167208, 16454.415494729936, 33128.19100954426, 7811.085320840517, 27992.050706392612, 5351.67817493417, 38696.27877429471, 27514.97507273854, 38893.46586387943, 33124.59237868695, 27071.15883483396, 24371.671601733164, 0.0775, 0.9955, 0.2675, 192.0, 0.0, 0.0, 0.0, 0.0, 0.0, 0.0, 0.0, 0.0, 0.0, 1.7074741992135358E9, 0.0, 2024-02-09 11:23:19.213
10.0, -17818.877735004156, -7932.164720554915, 14347.741228072791, -3227.837768535348, 45702.70129474417, 16410.226095941794, 33091.534148637555, 7779.68111988081, 28242.010264636312, 5406.484652338583, 39118.70439275556, 27573.849567633817, 39484.177766344284, 33340.93491326987, 27274.738523332897, 24616.758479685603, 0.07975, 0.99375, 0.26575000000000004, 192.0, 1.0, 72.0, 15.5, 0.0, 4.0, 32.0, 0.0, 0.0, 0.0, 1.707474199222524E9, 0.0, 2024-02-09 11:23:19.222
12.0, -17814.273275646363, -7928.633144930976, 14357.84421656659, -3215.030218962457, 45497.847556811284, 16400.23486617027, 32984.11166478535, 7719.443168573758, 27918.111135734456, 5311.6685523591705, 38642.45577364633, 27485.604880524264, 38892.325924912206, 33083.845148544926, 27034.233752993794, 24360.58513648333, 0.07975, 0.99375, 0.26575000000000004, 192.0, 0.0, 0.0, 0.0, 0.0, 0.0, 0.0, 0.0, 0.0, 0.0, 1.707474199230574E9, 0.0, 2024-02-09 11:23:19.230
