%OpenBCI Raw EXG Data
%Number of channels = 16
%Sample Rate = 125 Hz
%Board = OpenBCI_GUI$BoardCytonSerialDaisy
Sample Index, EXG Channel 0, EXG Channel 1, EXG Channel 2, EXG Channel 3, EXG Channel 4, EXG Channel 5, EXG Channel 6, EXG Channel 7, EXG Channel 8, EXG Channel 9, EXG Channel 10, EXG Channel 11, EXG Channel 12, EXG Channel 13, EXG Channel 14, EXG Channel 15, Accel Channel 0, Accel Channel 1, Accel Channel 2, Other, Other, Other, Other, Other, Other, Other, Analog Channel 0, Analog Channel 1, Analog Channel 2, Timestamp, Other, Timestamp (Formatted)
0.0, -15914.263238222986, -13039.180700681294, 16674.02138400333, -1975.9165615935997, 46545.786743853896, 17817.134298936642, 34524.191561244916, 9448.328250447305, 0.0, 0.0, 0.0, 0.0, 0.0, 0.0, 0.0, 0.0, 0.0, 0.0, 0.0, 192.0, 0.0, 0.0, 0.0, 0.0, 0.0, 0.0, 0.0, 0.0, 0.0, 1.7074743574654794E9, 0.0, 2024-02-09 11:25:57.465
46.0, -15897.544133370417, -13047.227328685205, 16693.087422023706, -1994.6920269360576, 46811.303116238494, 17863.670630892593, 34645.76269933733, 9548.08408595134, 30753.31816116788, 6086.134145991105, 39300.312316454925, 29072.601088595522, 40256.78816518643, 34540.44127946392, 29168.937107197897, 24923.558524079148, 0.0, 0.0, 0.0, 192.0, 0.0, 0.0, 0.0, 0.0, 0.0, 0.0, 0.0, 0.0, 0.0, 1.7074743574655848E9, 0.0, 2024-02-09 11:25:57.465
0.0, -7014.424444964462, -7471.942302220143, 8526.296439921432, -857.0329376498387, 23424.516430439526, 9007.73066374429, 17416.859259231005, 4849.568587490152, 15237.430064371832, 2997.6595041345963, 19486.161409158874, 14475.570854612692, 19980.47023778799, 17168.799599266007, 14506.01393056082, 12399.607884837138, 0.116, 0.998, 0.164, 192.0, 1.5, 80.0, 15.5, 24.0, 2.5, 16.0, 0.0, 0.0, 0.0, 1.7074743575561554E9, 0.0, 2024-02-09 11:25:57.556
2.0, -14047.244375615643, -14937.514357270522, 17029.391769098256, -1706.5780409071494, 46575.64867444619, 17956.095094215285, 34679.044446831285, 9572.402783918713, 30802.42494373619, 6614.529384914564, 38888.347314399165, 28272.49804407335, 40148.538666789376, 34557.741529672334, 29187.06437195115, 24869.06497109711, 0.116, 0.998, 0.164, 192.0, 0.0, 0.0, 0.0, 0.0, 0.0, 0.0, 0.0, 0.0, 0.0, 1.707474357563069E9, 0.0, 2024-02-09 11:25:57.563
4.0, -13960.631365851328, -14907.115984811306, 17114.663674195253, -1711.3389624761298, 46914.59052736647, 18045.367961569784, 34886.178062698615, 9722.271230491548, 30884.00881099806, 6651.633280710374, 38925.76413461735, 28327.684501133503, 40074.844965320226, 34586.48587304186, 29195.155703443972, 24836.543182914636, 0.116, 0.998, 0.164, 192.0, 0.0, 0.0, 0.0, 0.0, 0.0, 0.0, 0.0, 0.0, 0.0, 1.7074743575710983E9, 0.0, 2024-02-09 11:25:57.571
6.0, -14038.460140044706, -14930.026522877995, 17042.668705304706, -1697.5479361472055, 46713.20130982415, 17983.9453678066, 34766.05978799579, 9670.370479866324, 30998.56150133151, 6647.632318452874, 39158.51284963046, 28342.302542007274, 40476.52816492655, 34701.77617094233, 29311.876512989584, 24996.961652870377, 0.116, 0.998, 0.164, 192.0, 0.0, 0.0, 0.0, 0.0, 0.0, 0.0, 0.0, 0.0, 0.0, 1.7074743575791028E9, 0.0, 2024-02-09 11:25:57.579
8.0, -13993.57783717845, -14909.731138912575, 17089.47325819412, -1699.6042966370937, 46701.86897538531, 17999.03279531393, 34777.59328813473, 9648.085790644383, 30729.491201578523, 6619.491472183642, 38750.77232727675, 28275.247308641352, 39918.29334715526, 34488.02643871623, 29125.038281087673, 24793.67253704936, 0.096, 1.002, 0.16, 192.0, 1.5, 0.0, 15.5, 40.0, 2.5, 0.0, 0.0, 0.0, 0.0, 1.7074743575871089E9, 0.0, 2024-02-09 11:25:57.587
10.0, -13989.308653987486, -14919.498851239545, 17088.780354116006, -1709.2378984973311, 46924.11237050443, 18032.068673618876, 34888.256774932954, 9737.939803354717, 31049.791699623074, 6666.4301355397865, 39172.92972480413, 28369.86224292067, 40433.50105685009, 34721.35629908518, 29328.997949242348, 24985.249338775797, 0.096, 1.002, 0.16, 192.0, 0.0, 0.0, 0.0, 0.0, 0.0, 0.0, 0.0, 0.0, 0.0, 1.7074743575953171E9, 0.0, 2024-02-09 11:25:57.595
12.0, -14044.383352325363, -14927.456072265635, 17025.591972540853, -1705.9745438068562, 46582.04127336041, 17953.681105814114, 34706.67120297804, 9603.7175779006, 30802.894330369752, 6609.947277301226, 38888.50377661035, 28275.537881319273, 40161.41327159563, 34554.34406451512, 29193.88165401002, 24876.798674678645, 0.096, 1.002, 0.16, 192.0, 0.0, 0.0, 0.0, 0.0, 0.0, 0.0, 0.0, 0.0, 0.0, 1.707474357602098E9, 0.0, 2024-02-09 11:25:57.602
14.0, -13953.702325070182, -14894.37549047178, 17089.942644827683, -1728.4156952399846, 46902.185309193774, 18037.701313221613, 34865.413292099634, 9741.761951656576, 30884.768770309543, 6656.997699379647, 38911.59312863268, 28324.37644295412, 40079.47177642248, 34586.977611419876, 29196.988546489305, 24842.309932984106, 0.096, 1.002, 0.16, 192.0, 0.0, 0.0, 0.0, 0.0, 0.0, 0.0, 0.0, 0.0, 0.0, 1.7074743576113057E9, 0.0, 2024-02-09 11:25:57.611
16.0, -14046.730285493171, -14937.536709014978, 17020.160498638215, -1719.497349202317, 46715.25767031404, 17969.059105999364, 34765.16571821758, 9653.271395358015, 30998.539149587054, 6624.945297830737, 39144.16302969015, 28330.836097101703, 40476.41640620428, 34692.90252839357, 29295.403277326022, 24982.61183293007, 0.096, 1.002, 0.16, 192.0, 0.0, 0.0, 0.0, 0.0, 0.0, 0.0, 0.0, 0.0, 0.0, 1.7074743576191576E9, 0.0, 2024-02-09 11:25:57.619
18.0, -13985.330043474441, -14901.036310319461, 17063.433475903686, -1721.9560410924007, 46699.74555966206, 17991.053222543385, 34774.41934042208, 9628.706828201632, 30736.062614448383, 6591.529439870053, 38736.80248699218, 28265.03256142528, 39918.98625123337, 34474.86126123205, 29112.25308325924, 24777.109894407975, 0.10400000000000001, 1.0, 0.154, 192.0, 1.5, 32.0, 15.5, 32.0, 2.0, 104.0, 0.0, 0.0, 0.0, 1.707474357627165E9, 0.0, 2024-02-09 11:25:57.627
20.0, -13973.796543335504, -14907.42890923368, 17071.681269607696, -1726.6275556835599, 46918.9267657908, 18009.180487296642, 34855.71263500603, 9697.39373891279, 31063.62742944091, 6629.50505369962, 39162.13383223222, 28361.61444921666, 40439.15604819728, 34699.25042381888, 29308.94843446594, 24962.47291117584, 0.10400000000000001, 1.0, 0.154, 192.0, 0.0, 0.0, 0.0, 0.0, 0.0, 0.0, 0.0, 0.0, 0.0, 1.707474357634158E9, 0.0, 2024-02-09 11:25:57.634
22.0, -14009.559334463995, -14899.650502163233, 17038.488929091567, -1694.9104303014792, 46583.00239837199, 17961.41480939565, 34679.78205439831, 9612.546516960445, 30828.554133004443, 6573.849210005905, 38898.51735812633, 28282.556329078237, 40184.323809662324, 34551.46068948039, 29178.4365985914, 24864.751084417236, 0.10400000000000001, 1.0, 0.154, 192.0, 0.0, 0.0, 0.0, 0.0, 0.0, 0.0, 0.0, 0.0, 0.0, 1.707474357643149E9, 0.0, 2024-02-09 11:25:57.643
24.0, -13908.37298731482, -14859.439713888136, 17130.555764502977, -1698.1067297585882, 46928.694478117766, 18052.364057584295, 34895.20816745856, 9760.179789087748, 30919.391622470812, 6615.199937248223, 38942.32677725873, 28343.688350163502, 40111.45712273802, 34592.498492300336, 29209.86315129556, 24857.151491302433, 0.10400000000000001, 1.0, 0.154, 192.0, 0.0, 0.0, 0.0, 0.0, 0.0, 0.0, 0.0, 0.0, 0.0, 1.7074743576512144E9, 0.0, 2024-02-09 11:25:57.651
26.0, -13989.62157840986, -14889.27929273597, 17067.65795560574, -1684.0921859851107, 46749.232321886106, 17985.867617829754, 34783.00241029292, 9681.30048290497, 31042.326216975, 6616.228117493167, 39190.56525117937, 28363.782568428825, 40528.9653574187, 34714.0919821372, 29324.415841629012, 25008.316339053672, 0.10400000000000001, 1.0, 0.154, 192.0, 0.0, 0.0, 0.0, 0.0, 0.0, 0.0, 0.0, 0.0, 0.0, 1.70747435765824E9, 0.0, 2024-02-09 11:25:57.658
28.0, -13947.756761045071, -14876.538798396445, 17108.986331103602, -1697.078549513644, 46723.05842912894, 17987.32048121935, 34748.71483429847, 9632.66308697022, 30769.925507298176, 6581.985244987637, 38778.57789737915, 28293.30751816124, 39965.74610063387, 34490.32866839512, 29138.315217294126, 24797.919368495866, 0.09, 1.032, 0.156, 192.0, 1.0, 104.0, 16.0, 32.0, 2.0, 112.0, 0.0, 0.0, 0.0, 1.7074743576672285E9, 0.0, 2024-02-09 11:25:57.667
30.0, -13938.905470240768, -14881.724403110076, 17119.089319597402, -1703.8287763391468, 46956.12006856443, 18032.180432341152, 34853.61157102723, 9735.16818704226, 31091.924737921327, 6627.783969376561, 39206.14441706472, 28386.581347773237, 40482.429025462756, 34711.543883269296, 29328.03682423077, 24972.95587932538, 0.09, 1.032, 0.156, 192.0, 0.0, 0.0, 0.0, 0.0, 0.0, 0.0, 0.0, 0.0, 0.0, 1.7074743576752553E9, 0.0, 2024-02-09 11:25:57.675
32.0, -14004.083157072444, -14899.762260885509, 17071.033069018493, -1694.0387122677223, 46614.74187549852, 17967.27096644294, 34679.804406142764, 9619.09557808585, 30846.591990779878, 6575.391480373321, 38933.162562032056, 28297.777867052304, 40230.05547881788, 34557.6074192056, 29203.984642503816, 24888.980375406787, 0.09, 1.032, 0.156, 192.0, 0.0, 0.0, 0.0, 0.0, 0.0, 0.0, 0.0, 0.0, 0.0, 1.707474357683244E9, 0.0, 2024-02-09 11:25:57.683
34.0, -13923.214545633144, -14875.644728618234, 17147.140758888814, -1715.5410904337277, 46934.81885609852, 18038.66243823319, 34830.96925389401, 9722.874727591841, 30925.761869640577, 6603.3311609424545, 38951.13336457412, 28338.815669872245, 40144.85062895425, 34582.84253869564, 29213.484133897324, 24856.168014546398, 0.09, 1.032, 0.156, 192.0, 0.0, 0.0, 0.0, 0.0, 0.0, 0.0, 0.0, 0.0, 0.0, 1.7074743576902483E9, 0.0, 2024-02-09 11:25:57.690
36.0, -14001.400947737808, -14901.081013808373, 17069.28963295098, -1710.8025206092025, 46737.274138602515, 17983.65479512868, 34709.375764057135, 9642.497854530557, 31055.446690970268, 6602.504146397609, 39201.18232979564, 28351.08677757821, 40551.898247229845, 34697.95402264047, 29314.737536279863, 24991.060792334178, 0.09, 1.032, 0.156, 192.0, 0.0, 0.0, 0.0, 0.0, 0.0, 0.0, 0.0, 0.0, 0.0, 1.7074743576994643E9, 0.0, 2024-02-09 11:25:57.699
38.0, -13964.520569386552, -14888.452278191124, 17101.3867379888, -1726.4934452168281, 46705.601716709345, 17983.23011198403, 34682.39720849958, 9600.834202865864, 30779.22383299158, 6565.601416301896, 38783.87526081506, 28276.633116797584, 39965.857859356154, 34473.60956354255, 29113.817705371108, 24765.665801246858, 0.07, 1.05, 0.16, 192.0, 1.0, 24.0, 16.0, 104.0, 2.5, 0.0, 0.0, 0.0, 0.0, 1.7074743577073E9, 0.0, 2024-02-09 11:25:57.707
40.0, -13953.635269836817, -14888.787554357954, 17111.735595671606, -1730.2932417742304, 46934.0812485315, 18018.635275201235, 34791.3619627192, 9695.739709823098, 31100.2395868587, 6613.009466291603, 39207.03848684293, 28375.98662090142, 40476.14818527081, 34703.67606922103, 29306.310928620213, 24948.056036002166, 0.07, 1.05, 0.16, 192.0, 0.0, 0.0, 0.0, 0.0, 0.0, 0.0, 0.0, 0.0, 0.0, 1.707474357714295E9, 0.0, 2024-02-09 11:25:57.714
42.0, -14003.323197760965, -14892.09561253734, 17068.261452706036, -1710.400189209007, 46589.08207286383, 17953.569347091838, 34631.03289974128, 9567.373641416269, 30859.95833396415, 6566.450782591198, 38939.28694001281, 28299.007212997345, 40217.76201936746, 34546.09627081112, 29174.748560756274, 24851.362389488506, 0.07, 1.05, 0.16, 192.0, 0.0, 0.0, 0.0, 0.0, 0.0, 0.0, 0.0, 0.0, 0.0, 1.707474357723349E9, 0.0, 2024-02-09 11:25:57.723
44.0, -13921.828737476915, -14870.816751815886, 17138.602392506888, -1729.466227229384, 46907.32621041849, 18033.298019563917, 34787.87509058417, 9678.171238681227, 30941.341035525926, 6602.682960353251, 38956.006044865375, 28351.13148106712, 40117.02270710739, 34570.951410645415, 29183.06340969365, 24814.616121603984, 0.07, 1.05, 0.16, 192.0, 0.0, 0.0, 0.0, 0.0, 0.0, 0.0, 0.0, 0.0, 0.0, 1.7074743577313788E9, 0.0, 2024-02-09 11:25:57.731
46.0, -14004.373729750363, -14894.554304427422, 17059.544272368465, -1717.888023601535, 46718.811597682434, 17957.972640749533, 34679.64794393157, 9580.650577622722, 31060.922868361817, 6593.630503848852, 39196.68962916012, 28364.564879484762, 40522.684517226764, 34681.72665616592, 29289.6141755121, 24957.17554773993, 0.07, 1.05, 0.16, 192.0, 0.0, 0.0, 0.0, 0.0, 0.0, 0.0, 0.0, 0.0, 0.0, 1.707474357738488E9, 0.0, 2024-02-09 11:25:57.738
48.0, -13953.188234947711, -14860.914929022185, 17107.33230201391, -1705.885136829035, 46699.67850442869, 17986.158190507675, 34683.157167811056, 9570.279368195459, 30786.33168772837, 6567.724832025151, 38785.931621304946, 28305.44451540047, 39944.19901897896, 34473.72132226483, 29100.652527886934, 24746.37624578193, 0.06, 1.03, 0.16, 192.0, 0.5, 112.0, 16.0, 24.0, 2.5, 0.0, 0.0, 0.0, 0.0, 1.7074743577463284E9, 0.0, 2024-02-09 11:25:57.746
50.0, -13942.973487731635, -14862.881882534253, 17108.539296214498, -1715.854014856102, 46940.87617884591, 18017.160060067185, 34805.0635820703, 9656.981784937596, 31111.750735253187, 6625.302925742022, 39212.939347379135, 28414.319862642275, 40456.34453968341, 34717.95883392797, 29311.071850189193, 24943.65274234447, 0.06, 1.03, 0.16, 192.0, 0.0, 0.0, 0.0, 0.0, 0.0, 0.0, 0.0, 0.0, 0.0, 1.7074743577553873E9, 0.0, 2024-02-09 11:25:57.755
52.0, -14004.060805327988, -14878.170475741683, 17050.201243186148, -1705.8627850845796, 46602.761340470475, 17932.201079392562, 34643.013434769324, 9508.320332565349, 30860.092444430884, 6556.884235964327, 38935.93417834451, 28311.993576525878, 40194.00211501147, 34551.170116802474, 29177.453121835366, 24834.889153824945, 0.06, 1.03, 0.16, 192.0, 0.0, 0.0, 0.0, 0.0, 0.0, 0.0, 0.0, 0.0, 0.0, 1.707474357762447E9, 0.0, 2024-02-09 11:25:57.762
54.0, -13915.145565884777, -14850.74488529502, 17127.314761556954, -1718.8938521020236, 46944.45245795876, 18032.649818974714, 34826.56596023631, 9662.703831518154, 30935.753099412097, 6589.54013461353, 38958.82236466675, 28358.440501504007, 40098.9177940986, 34580.98734390585, 29195.6921453109, 24808.424688389863, 0.06, 1.03, 0.16, 192.0, 0.0, 0.0, 0.0, 0.0, 0.0, 0.0, 0.0, 0.0, 0.0, 1.707474357770419E9, 0.0, 2024-02-09 11:25:57.770
56.0, -13992.750822633603, -14877.298757707926, 17048.726028052097, -1717.5080439457947, 46768.45482211767, 17956.475073871028, 34718.65173800608, 9570.815810062386, 31060.542888706077, 6581.3146926539775, 39205.876196131256, 28370.86807142116, 40514.74964794513, 34693.41661851604, 29307.495571076342, 24951.475852903826, 0.06, 1.03, 0.16, 192.0, 0.0, 0.0, 0.0, 0.0, 0.0, 0.0, 0.0, 0.0, 0.0, 1.7074743577786472E9, 0.0, 2024-02-09 11:25:57.778
58.0, -13951.154226202278, -14860.870225533276, 17093.273054751524, -1720.5702329361718, 46750.23815038659, 17970.60137636678, 34722.96562468596, 9546.854740006298, 30789.885615096762, 6553.889102207316, 38793.888842331035, 28302.15880896554, 39945.718937601916, 34478.72811302282, 29115.739955394263, 24740.385978267906, 0.06, 1.02, 0.162, 192.0, 0.5, 112.0, 15.5, 112.0, 2.5, 8.0, 0.0, 0.0, 0.0, 1.7074743577874324E9, 0.0, 2024-02-09 11:25:57.787
60.0, -13935.508005083562, -14865.854664546809, 17102.459621722654, -1722.0901515591327, 46993.67099924934, 18019.037606601432, 34844.00032091145, 9672.739764778587, 31110.074354419037, 6603.442919664732, 39216.225053814065, 28400.171208402066, 40462.87124906436, 34701.99968838688, 29316.61508281411, 24922.9326752344, 0.06, 1.02, 0.162, 192.0, 0.0, 0.0, 0.0, 0.0, 0.0, 0.0, 0.0, 0.0, 0.0, 1.7074743577944405E9, 0.0, 2024-02-09 11:25:57.794
62.0, -13995.72360464616, -14886.507676423513, 17052.70463856514, -1710.7131136313812, 46650.169390460185, 17955.424541881628, 34671.623667672124, 9568.334766427848, 30870.664819558242, 6548.502331793587, 38949.61344595116, 28312.306500948253, 40220.243063002, 34544.93398009944, 29192.048810964683, 24846.646171408436, 0.06, 1.02, 0.162, 192.0, 0.0, 0.0, 0.0, 0.0, 0.0, 0.0, 0.0, 0.0, 0.0, 1.7074743578024333E9, 0.0, 2024-02-09 11:25:57.802
64.0, -13907.61302800334, -14860.803170299909, 17131.740406959107, -1730.7626284077917, 46983.277438077625, 18031.264010818482, 34847.42013781311, 9685.30144516247, 30943.375044271357, 6584.421585133266, 38962.75627169088, 28360.630972460625, 40123.147085088145, 34564.737625686845, 29198.843741279095, 24808.04470873412, 0.06, 1.02, 0.162, 192.0, 0.0, 0.0, 0.0, 0.0, 0.0, 0.0, 0.0, 0.0, 0.0, 1.7074743578114853E9, 0.0, 2024-02-09 11:25:57.811
66.0, -13991.052090055, -14895.694243394644, 17050.447112375154, -1733.3777825090626, 46804.57524115744, 17957.570309349336, 34739.39415686061, 9593.368720217792, 31069.86356614394, 6577.604303074397, 39208.111370576786, 28373.684391222527, 40551.36180536292, 34676.451644474466, 29311.675347289485, 24948.100739491078, 0.06, 1.02, 0.162, 192.0, 0.0, 0.0, 0.0, 0.0, 0.0, 0.0, 0.0, 0.0, 0.0, 1.707474357818454E9, 0.0, 2024-02-09 11:25:57.818
68.0, -13948.248499423087, -14874.124809995272, 17097.162258286746, -1735.4788464878616, 46770.06414771845, 17973.46239965706, 34733.426241091045, 9570.61464436229, 30791.651402908734, 6545.551901525486, 38784.948144548915, 28304.684556088992, 39975.3349990052, 34452.28599933219, 29115.427030971892, 24730.551210707574, 0.052000000000000005, 1.006, 0.168, 192.0, 0.5, 80.0, 15.5, 56.0, 2.5, 32.0, 0.0, 0.0, 0.0, 1.7074743578265448E9, 0.0, 2024-02-09 11:25:57.826
70.0, -13946.102731955378, -14885.18892350065, 17095.105897796857, -1753.0026141408223, 46998.61073477397, 17999.65864415868, 34837.80888769733, 9656.758267493042, 31112.15306665338, 6594.882201538348, 39209.20660605509, 28403.635728792637, 40483.14428128532, 34673.05417931726, 29314.312853135212, 24911.779154751202, 0.052000000000000005, 1.006, 0.168, 192.0, 0.0, 0.0, 0.0, 0.0, 0.0, 0.0, 0.0, 0.0, 0.0, 1.7074743578344688E9, 0.0, 2024-02-09 11:25:57.834
72.0, -14008.53115421905, -14897.169458528693, 17031.71635052161, -1745.91711114849, 46638.2559106655, 17923.059215910343, 34653.161126752035, 9509.482623277025, 30862.327618876414, 6535.717133965151, 38943.287902270305, 28305.980957267402, 40222.00885081397, 34518.22364547535, 29176.044961934684, 24812.135077969444, 0.052000000000000005, 1.006, 0.168, 192.0, 0.0, 0.0, 0.0, 0.0, 0.0, 0.0, 0.0, 0.0, 0.0, 1.707474357843492E9, 0.0, 2024-02-09 11:25:57.843
74.0, -13929.718903269639, -14871.152027982716, 17103.66661592324, -1761.3845183115625, 46958.55640871006, 18013.449670487604, 34823.973157879496, 9637.580470750388, 30923.727860895142, 6566.719003524662, 38939.95749234647, 28347.75636765437, 40097.55433768682, 34537.55790442919, 29178.280136380214, 24774.450036817794, 0.052000000000000005, 1.006, 0.168, 192.0, 0.0, 0.0, 0.0, 0.0, 0.0, 0.0, 0.0, 0.0, 0.0, 1.707474357850536E9, 0.0, 2024-02-09 11:25:57.850
76.0, -14012.979151365656, -14895.582484672366, 17027.715388264107, -1752.466172273895, 46772.45578437517, 17950.484806357003, 34717.2435781054, 9560.198731446115, 31051.736301390687, 6559.119410409858, 39183.83737609832, 28360.31804803825, 40514.25790956711, 34659.19609775497, 29286.79785571073, 24925.190201424386, 0.052000000000000005, 1.006, 0.168, 192.0, 0.0, 0.0, 0.0, 0.0, 0.0, 0.0, 0.0, 0.0, 0.0, 1.7074743578585477E9, 0.0, 2024-02-09 11:25:57.858
78.0, -13969.057973510979, -14866.70403083611, 17065.311022437934, -1745.1348000925543, 46731.44033329968, 17970.064934499853, 34714.270796092846, 9543.256109148993, 30770.14902474273, 6524.9659448821485, 38765.300961172696, 28292.36874489412, 39928.93277751598, 34448.262685330235, 29091.644774871445, 24723.868039115434, 0.054, 0.99, 0.152, 192.0, 0.5, 88.0, 15.0, 120.0, 2.0, 96.0, 0.0, 0.0, 0.0, 1.707474357867538E9, 0.0, 2024-02-09 11:25:57.867
80.0, -13963.805313563982, -14874.169513484183, 17070.407220173744, -1755.1260298640764, 46971.14044083839, 18008.129955307242, 34832.73504170597, 9629.109159601827, 31087.655554730365, 6569.982358215137, 39181.266925485965, 28389.263557107875, 40432.83050451642, 34683.5371474668, 29295.269166859292, 24912.40500359595, 0.054, 0.99, 0.152, 192.0, 0.0, 0.0, 0.0, 0.0, 0.0, 0.0, 0.0, 0.0, 0.0, 1.7074743578746197E9, 0.0, 2024-02-09 11:25:57.874
82.0, -14020.623447969372, -14875.890597807242, 17028.542402808955, -1734.4283144984622, 46624.934270970145, 17937.56549806184, 34655.46335643093, 9496.228038815027, 30846.726101246608, 6509.610296441352, 38921.629061893116, 28296.772038551815, 40195.164405723146, 34536.68618639543, 29174.77091250073, 24823.86974380848, 0.054, 0.99, 0.152, 192.0, 0.0, 0.0, 0.0, 0.0, 0.0, 0.0, 0.0, 0.0, 0.0, 1.7074743578827057E9, 0.0, 2024-02-09 11:25:57.882
84.0, -13956.13866521581, -14885.121868267282, 17100.313854254946, -1754.9695676528893, 46957.43882148729, 18016.601266455804, 34852.60574252674, 9634.562985248922, 30913.803686356987, 6536.275927576534, 38923.08192528271, 28340.112071050655, 40085.752616614416, 34555.81927964917, 29189.567767330143, 24792.554949826594, 0.054, 0.99, 0.152, 192.0, 0.0, 0.0, 0.0, 0.0, 0.0, 0.0, 0.0, 0.0, 0.0, 1.70747435789066E9, 0.0, 2024-02-09 11:25:57.890
86.0, -14069.909044493324, -14955.887491212785, 17024.250867873536, -1744.3748407810738, 46771.13703145231, 17952.898794758177, 34737.51661032636, 9567.865379794286, 31025.920036544805, 6518.975677368126, 39170.82866082533, 28348.56103045476, 40509.809912420504, 34673.74708339538, 29301.013565184305, 24938.02010274173, 0.054, 0.99, 0.152, 192.0, 0.0, 0.0, 0.0, 0.0, 0.0, 0.0, 0.0, 0.0, 0.0, 1.7074743578996632E9, 0.0, 2024-02-09 11:25:57.899
88.0, -14131.935135356802, -15126.90068804034, 17060.192472957668, -1747.9958233828336, 46731.50738853304, 17977.262196214462, 34744.80327901879, 9582.75164160152, 30712.012137414473, 6449.059420711926, 38736.33310035862, 28258.036465410765, 39931.16795196151, 34455.83992670059, 29104.80995235562, 24729.32186476253, 0.063, 0.997, 0.14600000000000002, 192.0, 1.0, 32.0, 15.5, 48.0, 2.0, 48.0, 0.0, 0.0, 0.0, 1.7074743579066603E9, 0.0, 2024-02-09 11:25:57.906
90.0, -14200.53263909014, -15321.003236890227, 17071.033069018493, -1765.5195910357943, 46965.61955995793, 18009.605170441293, 34844.022672655905, 9687.626026585822, 30999.52262634309, 6437.883548484272, 39137.926892987125, 28337.966303582944, 40433.255187661074, 34676.094016563184, 29297.2137686269, 24912.427355340405, 0.063, 0.997, 0.14600000000000002, 192.0, 0.0, 0.0, 0.0, 0.0, 0.0, 0.0, 0.0, 0.0, 0.0, 1.7074743579146433E9, 0.0, 2024-02-09 11:25:57.914
92.0, -14452.14622642353, -15479.946491711915, 17008.336425821355, -1767.911227692512, 46609.958602185085, 17928.64715202417, 34651.082414517696, 9523.65362926169, 30724.640873031723, 6295.659398515153, 38859.31239835172, 28219.39029924754, 40191.878699288216, 34515.87671230754, 29156.755406469754, 24811.308063424596, 0.063, 0.997, 0.14600000000000002, 192.0, 0.0, 0.0, 0.0, 0.0, 0.0, 0.0, 0.0, 0.0, 0.0, 1.707474357922799E9, 0.0, 2024-02-09 11:25:57.922
94.0, -14569.179960391517, -15458.332354823633, 17084.868798836327, -1784.5185738228054, 46933.4777514312, 18025.47490900456, 34834.70199521804, 9672.762116523041, 30738.74482378302, 6198.138737456648, 38831.14920033803, 28229.940322630446, 40063.244409947925, 34520.548226898696, 29144.48429876379, 24755.495757519693, 0.063, 0.997, 0.14600000000000002, 192.0, 0.0, 0.0, 0.0, 0.0, 0.0, 0.0, 0.0, 0.0, 0.0, 1.7074743579306424E9, 0.0, 2024-02-09 11:25:57.930
96.0, -15059.241957574126, -15551.226204779889, 17004.849553686327, -1780.4505563319394, 46752.83095274341, 17980.726716605033, 34733.2474271354, 9619.274392041492, 30851.44231932668, 6019.794168447754, 39079.63354344768, 28252.135604874566, 40494.94600235773, 34652.55762965175, 29267.754169434807, 24912.13678266249, 0.063, 0.997, 0.14600000000000002, 192.0, 0.0, 0.0, 0.0, 0.0, 0.0, 0.0, 0.0, 0.0, 0.0, 1.707474357938668E9, 0.0, 2024-02-09 11:25:57.938
98.0, -15529.410902191508, -15556.389457749065, 17030.66581853221, -1814.8945945375676, 46699.85731838433, 17983.81125733987, 34683.47009223343, 9570.79345831793, 30533.37699572766, 5673.990329979698, 38630.98932874076, 28160.38169388553, 39911.409009863026, 34434.225789812306, 29052.23864939674, 24678.382239148887, 0.0695, 1.0165, 0.136, 192.0, 1.0, 48.0, 16.0, 48.0, 1.5, 120.0, 0.0, 0.0, 0.0, 1.7074743579466653E9, 0.0, 2024-02-09 11:25:57.946
100.0, -16014.913143505233, -15644.120054736146, 17041.282897148478, -1839.816789605235, 46950.085097561496, 18026.659551460692, 34812.640823440655, 9665.430744341702, 30810.22570255109, 5369.268997820496, 39018.70268806251, 28261.098654401143, 40414.16679789624, 34656.737405864886, 29237.087576042126, 24831.022302034176, 0.0695, 1.0165, 0.136, 192.0, 0.0, 0.0, 0.0, 0.0, 0.0, 0.0, 0.0, 0.0, 0.0, 1.7074743579556897E9, 0.0, 2024-02-09 11:25:57.955
102.0, -16426.699331605356, -15654.737133352415, 16977.334556261845, -1846.3434989861846, 46607.67872425065, 17962.80061755188, 34660.60425765565, 9572.626301363267, 30534.673396906066, 4916.73557957835, 38750.705272043386, 28183.873377308057, 40188.794158553384, 34509.75233432679, 29130.179182312393, 24734.55217296507, 0.0695, 1.0165, 0.136, 192.0, 0.0, 0.0, 0.0, 0.0, 0.0, 0.0, 0.0, 0.0, 0.0, 1.7074743579628162E9, 0.0, 2024-02-09 11:25:57.962
104.0, -16577.99828982333, -15537.636344151062, 17028.27418187549, -1894.6679704985584, 46925.22995772719, 18039.780025455955, 34794.96059357651, 9733.469454463657, 30516.233207730438, 4480.675396999764, 38719.23401585031, 28227.54868597373, 40069.458194906496, 34528.77366885825, 29126.066461332615, 24677.666983326315, 0.0695, 1.0165, 0.136, 192.0, 0.0, 0.0, 0.0, 0.0, 0.0, 0.0, 0.0, 0.0, 0.0, 1.7074743579706757E9, 0.0, 2024-02-09 11:25:57.970
106.0, -16695.121430769137, -15457.77356121225, 16950.199538493103, -1908.458996827483, 46765.70555754966, 17976.16696073615, 34715.50014203789, 9700.29946569198, 30565.09412110974, 4014.0827314952294, 38970.10999561668, 28259.869308456102, 40505.51837748508, 34650.031882528296, 29248.12933780305, 24811.57628435806, 0.0695, 1.0165, 0.136, 192.0, 0.0, 0.0, 0.0, 0.0, 0.0, 0.0, 0.0, 0.0, 0.0, 1.7074743579787047E9, 0.0, 2024-02-09 11:25:57.978
108.0, -16683.230302718915, -15359.381182119989, 16992.01965236898, -1922.3841336231392, 46727.707591975646, 18001.8491151153, 34707.25234833388, 9745.494692980612, 30156.43717723336, 3550.2616823031526, 38545.40449922139, 28194.177531501955, 39930.85502753914, 34451.883667931994, 29059.771187278177, 24608.555389470504, 0.07175000000000001, 1.02525, 0.127, 192.0, 1.0, 40.0, 16.0, 40.0, 1.5, 88.0, 0.0, 0.0, 0.0, 1.7074743579867156E9, 0.0, 2024-02-09 11:25:57.986
110.0, -16709.58300943172, -15261.413486172378, 17002.346158307333, -1947.9321775355552, 46990.09472013649, 18060.880072221767, 34828.08587885927, 9908.997703671183, 30322.689452491937, 3245.8085710774153, 38942.05855632527, 28272.922727218, 40423.86745498985, 34687.694571935484, 29257.405311752, 24799.66280456338, 0.07175000000000001, 1.02525, 0.127, 192.0, 0.0, 0.0, 0.0, 0.0, 0.0, 0.0, 0.0, 0.0, 0.0, 1.7074743579947085E9, 0.0, 2024-02-09 11:25:57.994
112.0, -16727.844384651708, -15166.820903637517, 16954.78164610644, -1946.2557967014072, 46652.78454456145, 18000.66447265917, 34662.34769372317, 9813.153423446825, 29948.722416010194, 2945.021145942348, 38688.09803582407, 28176.43024640444, 40183.94383000658, 34553.405291248004, 29149.535793010687, 24722.862210614945, 0.07175000000000001, 1.02525, 0.127, 192.0, 0.0, 0.0, 0.0, 0.0, 0.0, 0.0, 0.0, 0.0, 0.0, 1.7074743580027187E9, 0.0, 2024-02-09 11:25:58.002
114.0, -16718.344893258203, -15065.679259977254, 17029.3694173538, -1966.8194016002897, 46965.26193204665, 18082.829485276878, 34807.61168093821, 9954.885835037927, 29866.803272581492, 2765.6260449440533, 38672.98825657228, 28207.856799108602, 40036.534075323834, 34574.4606345249, 29157.87299369252, 24685.758314819137, 0.07175000000000001, 1.02525, 0.127, 192.0, 0.0, 0.0, 0.0, 0.0, 0.0, 0.0, 0.0, 0.0, 0.0, 1.7074743580119388E9, 0.0, 2024-02-09 11:25:58.011
116.0, -16730.191317819514, -14959.687287770188, 16965.48813170053, -1952.1790089820636, 46808.55385167049, 18024.89376364872, 34732.934502713026, 9949.230843690735, 29839.578847834928, 2614.640011148454, 38914.16357924504, 28206.806267119202, 40467.2521909776, 34698.02107787384, 29285.03206789876, 24848.456662709315, 0.07175000000000001, 1.02525, 0.127, 192.0, 0.0, 0.0, 0.0, 0.0, 0.0, 0.0, 0.0, 0.0, 0.0, 1.7074743580187676E9, 0.0, 2024-02-09 11:25:58.018
118.0, -16741.300134813802, -14907.920647611696, 17004.916608919695, -1943.5959391112256, 46765.16911568274, 18056.208557630605, 34713.2426158479, 9981.21619000628, 29431.88302897013, 2488.2855997426036, 38495.29188815259, 28138.544039552697, 39897.32741085618, 34496.38599114251, 29114.04122281566, 24668.83804426647, 0.066875, 1.024625, 0.1275, 192.0, 0.5, 120.0, 16.0, 0.0, 2.0, 0.0, 0.0, 0.0, 0.0, 1.7074743580267591E9, 0.0, 2024-02-09 11:25:58.026
120.0, -16720.200088047994, -14779.666337927145, 17018.104138148326, -1952.201360726519, 47011.46298783577, 18083.67885156618, 34816.977061864985, 10092.550229138164, 29622.655167896173, 2479.4119571938463, 38895.2316516914, 28219.211485291897, 40388.37288479482, 34729.00059568889, 29312.41295485651, 24856.033904079664, 0.066875, 1.024625, 0.1275, 192.0, 0.0, 0.0, 0.0, 0.0, 0.0, 0.0, 0.0, 0.0, 0.0, 1.7074743580348148E9, 0.0, 2024-02-09 11:25:58.034
122.0, -16743.580012748243, -14737.53329962889, 16950.199538493103, -1953.0730787602758, 46658.059556252905, 18006.56533319537, 34641.31470219072, 9967.559274144087, 29290.932928434962, 2435.7366485281764, 38637.38192765498, 28131.682054004916, 40155.91474245963, 34586.28470734176, 29193.099342954083, 24763.65414424588, 0.066875, 1.024625, 0.1275, 192.0, 0.0, 0.0, 0.0, 0.0, 0.0, 0.0, 0.0, 0.0, 0.0, 1.7074743580429971E9, 0.0, 2024-02-09 11:25:58.042
124.0, -16694.83085809122, -14636.346952479715, 17024.407330084723, -1969.5239626793818, 46973.73324319521, 18102.051985508442, 34806.22587278198, 10109.38109271301, 29257.494718729824, 2489.582000921011, 38608.570529052085, 28154.056150204677, 40011.47776978943, 34610.53635007577, 29186.147950428483, 24715.55319017806, 0.066875, 1.024625, 0.1275, 192.0, 0.0, 0.0, 0.0, 0.0, 0.0, 0.0, 0.0, 0.0, 0.0, 1.7074743580508213E9, 0.0, 2024-02-09 11:25:58.050
126.0, -16678.82700906122, -14588.447164111993, 16939.87303255475, -1978.7552331394236, 46810.23023250464, 18034.14738585322, 34715.656604249074, 10042.236452369269, 29350.634437875087, 2538.4652660447678, 38874.39982585905, 28164.181490442934, 40439.491324364106, 34761.030645493345, 29308.300233876736, 24869.623764708493, 0.066875, 1.024625, 0.1275, 192.0, 0.0, 0.0, 0.0, 0.0, 0.0, 0.0, 0.0, 0.0, 0.0, 1.7074743580578537E9, 0.0, 2024-02-09 11:25:58.057
128.0, -16679.76578232834, -14527.8292331492, 16968.25974801299, -1986.3101227653174, 46766.711386050156, 18046.194976114628, 34717.22122636095, 10054.664022286419, 29042.493288814225, 2565.488525091234, 38443.569951483005, 28078.12727429, 39847.23715153184, 34535.099212539106, 29110.57670242509, 24662.0207622076, 0.059437500000000004, 1.0183125, 0.13275, 192.0, 0.5, 80.0, 15.5, 80.0, 2.0, 40.0, 0.0, 0.0, 0.0, 1.707474358066857E9, 0.0, 2024-02-09 11:25:58.066
130.0, -16669.4839798789, -14445.597165298124, 16972.73009690405, -1995.4966897364486, 47014.659287292874, 18078.7167642971, 34834.41142254012, 10161.505360782787, 29327.61214108612, 2667.680700740898, 38835.08310736217, 28144.0425686887, 40329.386631177265, 34752.02289247786, 29296.207940126413, 24837.90663932641, 0.059437500000000004, 1.0183125, 0.13275, 192.0, 0.0, 0.0, 0.0, 0.0, 0.0, 0.0, 0.0, 0.0, 0.0, 1.7074743580748508E9, 0.0, 2024-02-09 11:25:58.074
132.0, -16645.38879935608, -14389.360176248572, 16916.694273554596, -1980.3422069957505, 46664.40745167821, 17990.98616731002, 34667.17567052552, 10010.988713620749, 29109.660280902423, 2691.842936497085, 38597.506415546704, 28078.015515567724, 40109.17724480358, 34608.479989585874, 29177.386066602, 24755.115777863954, 0.059437500000000004, 1.0183125, 0.13275, 192.0, 0.0, 0.0, 0.0, 0.0, 0.0, 0.0, 0.0, 0.0, 0.0, 1.7074743580830555E9, 0.0, 2024-02-09 11:25:58.083
134.0, -16620.44425254396, -14326.328256884606, 17003.30728331891, -1974.5084016929154, 46985.06557763405, 18081.06369746491, 34836.91481791912, 10154.799837446195, 29170.81465373214, 2780.6911207069306, 38590.040932898635, 28121.13203062201, 39972.630437926106, 34617.10776294563, 29170.993467687786, 24710.389937208885, 0.059437500000000004, 1.0183125, 0.13275, 192.0, 0.0, 0.0, 0.0, 0.0, 0.0, 0.0, 0.0, 0.0, 0.0, 1.7074743580898395E9, 0.0, 2024-02-09 11:25:58.089
136.0, -16624.020531656806, -14279.076669106087, 16943.337552945322, -1950.0779450032646, 46832.69373568222, 18029.319409050873, 34768.33966593023, 10093.354891938556, 29311.04949844474, 2854.854208809639, 38860.0723576632, 28149.406987357976, 40413.764466496046, 34757.901401269606, 29295.760905237308, 24874.831721166578, 0.059437500000000004, 1.0183125, 0.13275, 192.0, 0.0, 0.0, 0.0, 0.0, 0.0, 0.0, 0.0, 0.0, 0.0, 1.707474358098878E9, 0.0, 2024-02-09 11:25:58.098
138.0, -16589.911769618007, -14228.315857448086, 16981.067297585883, -1946.5016658904156, 46777.14965071078, 18051.29117385044, 34751.06176746628, 10080.65910108794, 29053.84797499752, 2899.311828531245, 38455.66224523333, 28107.586873482094, 39846.34308175362, 34551.84066913613, 29110.129667535984, 24688.015841009124, 0.048718750000000005, 1.01515625, 0.13437500000000002, 192.0, 0.5, 24.0, 15.5, 80.0, 2.0, 32.0, 0.0, 0.0, 0.0, 1.7074743581079667E9, 0.0, 2024-02-09 11:25:58.107
140.0, -16587.90011261703, -14195.436441354328, 16993.360757036302, -1950.972014781477, 47030.52902585614, 18102.119040741807, 34889.173196455624, 10189.199172162911, 29368.113502039138, 3000.6769896360624, 38859.535915796274, 28191.897653567514, 40328.09022999886, 34776.58745963424, 29293.70454474742, 24866.15924431792, 0.048718750000000005, 1.01515625, 0.13437500000000002, 192.0, 0.0, 0.0, 0.0, 0.0, 0.0, 0.0, 0.0, 0.0, 0.0, 1.7074743581139643E9, 0.0, 2024-02-09 11:25:58.113
142.0, -16602.652263957534, -14167.85438869648, 16927.601924848786, -1950.4132211700942, 46678.64551289625, 18012.868525131766, 34713.443781548, 10028.2666120847, 29158.588249515087, 3038.4290860210763, 38617.17595066738, 28114.09123111859, 40109.0654860813, 34635.45854514343, 29178.660116035953, 24786.162350912375, 0.048718750000000005, 1.01515625, 0.13437500000000002, 192.0, 0.0, 0.0, 0.0, 0.0, 0.0, 0.0, 0.0, 0.0, 0.0, 1.7074743581220624E9, 0.0, 2024-02-09 11:25:58.122
144.0, -16583.42976372597, -14127.710655654748, 17005.140126364247, -1966.4170702000943, 46991.56993527054, 18094.430040649182, 34875.73979803798, 10128.849462133583, 29243.994265078818, 3211.6104020607954, 38585.39177005193, 28140.443937831395, 39962.43804245449, 34625.623777583096, 29162.879784450506, 24728.74071940669, 0.048718750000000005, 1.01515625, 0.13437500000000002, 192.0, 0.0, 0.0, 0.0, 0.0, 0.0, 0.0, 0.0, 0.0, 0.0, 1.7074743581309276E9, 0.0, 2024-02-09 11:25:58.130
146.0, -16588.503609717325, -14099.79332683007, 16933.860413296272, -1954.4365351720496, 46835.30888978349, 18037.880127177254, 34809.332765261264, 10080.703804576851, 29428.619674279653, 3426.5000732541175, 38853.07626164869, 28162.460406119873, 40402.67800124622, 34768.42907290805, 29292.22932961337, 24898.12223888901, 0.048718750000000005, 1.01515625, 0.13437500000000002, 192.0, 0.0, 0.0, 0.0, 0.0, 0.0, 0.0, 0.0, 0.0, 0.0, 1.7074743581379197E9, 0.0, 2024-02-09 11:25:58.137
148.0, -16570.264586241792, -14073.284157906075, 16960.235471753535, -1956.001157283921, 46772.94752275319, 18045.323258080873, 34812.81963739629, 10061.928339234393, 29241.803794122196, 3519.930365077301, 38435.63508220138, 28111.252559572764, 39826.539436166226, 34542.721157398366, 29105.636966900467, 24700.376355692908, 0.043359375000000006, 1.0105781249999999, 0.13918750000000002, 192.0, 0.5, 24.0, 15.5, 56.0, 2.0, 64.0, 0.0, 0.0, 0.0, 1.7074743581459477E9, 0.0, 2024-02-09 11:25:58.145
150.0, -16584.748516648833, -14067.83033225898, 16964.012916566484, -1969.0769277902757, 47012.46881633626, 18074.514636339503, 34922.27612999393, 10136.113779081557, 29667.738636462527, 3523.2384232566865, 38837.653557974525, 28206.940377585935, 40298.92120348468, 34756.35913090219, 29289.189492367448, 24873.378857776985, 0.043359375000000006, 1.0105781249999999, 0.13918750000000002, 192.0, 0.0, 0.0, 0.0, 0.0, 0.0, 0.0, 0.0, 0.0, 0.0, 1.7074743581549969E9, 0.0, 2024-02-09 11:25:58.154
152.0, -16608.687234960467, -14038.43778830025, 16910.033453706917, -1965.679462633069, 46659.55712313141, 17971.98718452301, 34756.47088962446, 9958.819742062062, 29571.04498994887, 3387.0492442905006, 38607.92232846288, 28135.079519162122, 40086.17729975907, 34587.96108817591, 29170.926412454417, 24780.842635732013, 0.043359375000000006, 1.0105781249999999, 0.13918750000000002, 192.0, 0.0, 0.0, 0.0, 0.0, 0.0, 0.0, 0.0, 0.0, 0.0, 1.7074743581620135E9, 0.0, 2024-02-09 11:25:58.162
154.0, -16595.834981898664, -13984.637139396327, 16997.853457671816, -1968.8534103457225, 46971.94510363878, 18055.29213610794, 34928.601673674784, 10070.287891660679, 29755.156309027236, 3384.2329244891316, 38595.986496923746, 28185.01331627528, 39930.698565327955, 34569.23032632236, 29170.501729309766, 24730.707672918757, 0.043359375000000006, 1.0105781249999999, 0.13918750000000002, 192.0, 0.0, 0.0, 0.0, 0.0, 0.0, 0.0, 0.0, 0.0, 0.0, 1.707474358170261E9, 0.0, 2024-02-09 11:25:58.170
156.0, -16615.19159259696, -13969.840284566913, 16931.714645828564, -1943.3053664333067, 46821.02612507655, 18007.03471982893, 34862.44051008708, 10010.161699075901, 30057.37424580744, 3560.767002197147, 38899.00909650434, 28238.836316923658, 40383.81312892594, 34709.15224661258, 29315.452792102435, 24916.182448408897, 0.043359375000000006, 1.0105781249999999, 0.13918750000000002, 192.0, 0.0, 0.0, 0.0, 0.0, 0.0, 0.0, 0.0, 0.0, 0.0, 1.7074743581780272E9, 0.0, 2024-02-09 11:25:58.178
158.0, -16573.036202554253, -13945.655697066271, 16963.945861333115, -1934.8564070292007, 46758.530647579515, 18004.061937816376, 34826.342442791756, 9937.183253429324, 29888.082133302945, 3814.1016738535973, 38496.87886200892, 28195.09395302462, 39804.81354055566, 34491.31214515116, 29139.94689463936, 24734.46276598725, 0.0456796875, 1.0162890624999998, 0.13459375, 192.0, 0.5, 64.0, 15.5, 120.0, 2.0, 8.0, 0.0, 0.0, 0.0, 1.7074743581870277E9, 0.0, 2024-02-09 11:25:58.187
160.0, -16513.13352741403, -13944.605165076873, 16982.58721620884, -1926.9885929809325, 47016.20155766029, 18037.746016710524, 34941.9456651146, 9959.557349629087, 30321.325996080162, 4120.074703702296, 38896.237480191885, 28286.31142214673, 40276.97179042957, 34703.363144798655, 29339.033882502783, 24906.750012248758, 0.0456796875, 1.0162890624999998, 0.13459375, 192.0, 0.0, 0.0, 0.0, 0.0, 0.0, 0.0, 0.0, 0.0, 0.0, 1.7074743581940196E9, 0.0, 2024-02-09 11:25:58.194
162.0, -16473.816808917145, -13979.295072471508, 16944.2986779569, -1888.7000547289915, 46670.97886454807, 17971.003707766977, 34764.27164843937, 9780.475173053166, 30192.95992767333, 4326.9400986361625, 38687.762759657235, 28241.16089834701, 40089.57476491627, 34585.502396285825, 29252.17500354946, 24852.077645311078, 0.0456796875, 1.0162890624999998, 0.13459375, 192.0, 0.0, 0.0, 0.0, 0.0, 0.0, 0.0, 0.0, 0.0, 0.0, 1.7074743582020516E9, 0.0, 2024-02-09 11:25:58.202
164.0, -16352.022153380174, -13935.418598105742, 17032.36455111081, -1883.3132843152625, 46983.88093517792, 18062.08706642235, 34918.610443903264, 9847.440999441267, 30316.96740591138, 4584.365139527934, 38687.13691081249, 28296.12383796261, 39947.35061494716, 34587.91638468699, 29264.580221722154, 24819.06411875059, 0.0456796875, 1.0162890624999998, 0.13459375, 192.0, 0.0, 0.0, 0.0, 0.0, 0.0, 0.0, 0.0, 0.0, 0.0, 1.707474358211321E9, 0.0, 2024-02-09 11:25:58.211
166.0, -16288.565550871559, -13930.992952703591, 16970.606681180798, -1857.8546473806678, 46828.11162806888, 18007.99584484051, 34815.770067664394, 9732.463625963168, 30550.65489419161, 4780.367586656522, 38990.87476621566, 28326.566913910738, 40395.41368429824, 34721.93744444101, 29405.083287368216, 24983.394143986006, 0.0456796875, 1.0162890624999998, 0.13459375, 192.0, 0.0, 0.0, 0.0, 0.0, 0.0, 0.0, 0.0, 0.0, 0.0, 1.7074743582180955E9, 0.0, 2024-02-09 11:25:58.218
168.0, -16158.791322564046, -13867.2234257726, 17013.969065424095, -1840.979080316911, 46764.051528459975, 18014.56725771037, 34783.047113781824, 9649.695116245166, 30334.602932286612, 4927.5985273836295, 38584.855328185, 28263.93732594697, 39825.86888383256, 34502.15274121198, 29218.513276399768, 24772.661897261372, 0.05583984375000001, 1.02114453125, 0.131296875, 192.0, 1.0, 8.0, 16.0, 8.0, 2.0, 0.0, 0.0, 0.0, 0.0, 1.7074743582261105E9, 0.0, 2024-02-09 11:25:58.226
170.0, -16044.305687463962, -13823.481061873563, 17034.46561508961, -1841.3814117171064, 47013.02760994764, 18070.647784548735, 34889.2849551779, 9767.30999556899, 30716.46013456108, 5142.957585210513, 39007.817388512776, 28366.732998696923, 40319.55186361693, 34732.62157829065, 29417.82378170774, 24946.245544701284, 0.05583984375000001, 1.02114453125, 0.131296875, 192.0, 0.0, 0.0, 0.0, 0.0, 0.0, 0.0, 0.0, 0.0, 0.0, 1.7074743582341266E9, 0.0, 2024-02-09 11:25:58.234
172.0, -15981.564340777915, -13815.434433869654, 16968.77383813546, -1847.014051319844, 46653.52215212848, 17971.47309440054, 34680.89964162107, 9582.863400323797, 30551.28074303636, 5220.853414637258, 38797.934508077444, 28289.03833497028, 40130.67962296958, 34578.81922469369, 29297.638451771552, 24865.376933261985, 0.05583984375000001, 1.02114453125, 0.131296875, 192.0, 0.0, 0.0, 0.0, 0.0, 0.0, 0.0, 0.0, 0.0, 0.0, 1.7074743582431412E9, 0.0, 2024-02-09 11:25:58.243
174.0, -15831.628838971716, -13738.276212009932, 17053.26343217652, -1863.6884526835029, 46964.72549017972, 18045.23385110305, 34831.03630912737, 9677.657148558754, 30636.39618592217, 5321.369209452773, 38776.02979851125, 28322.588303397693, 39986.823795655226, 34558.367378517076, 29277.477178272868, 24789.80568525859, 0.05583984375000001, 1.02114453125, 0.131296875, 192.0, 0.0, 0.0, 0.0, 0.0, 0.0, 0.0, 0.0, 0.0, 0.0, 1.7074743582501583E9, 0.0, 2024-02-09 11:25:58.250
176.0, -15782.455001170041, -13709.017778517937, 16995.841800670838, -1857.0946880691872, 46830.235043792134, 17973.12712349023, 34755.06272972378, 9602.197659277637, 30835.97491216361, 5410.530318084993, 39078.225383547, 28354.32778052423, 40458.53501064003, 34692.23197605991, 29410.04537463729, 24940.814070798646, 0.05583984375000001, 1.02114453125, 0.131296875, 192.0, 0.0, 0.0, 0.0, 0.0, 0.0, 0.0, 0.0, 0.0, 0.0, 1.7074743582581704E9, 0.0, 2024-02-09 11:25:58.258
178.0, -15679.547569697806, -13653.697210991051, 17035.80671975693, -1857.8993508695783, 46773.37220589784, 17972.098943245288, 34732.30865386828, 9559.863455279286, 30576.627621248677, 5453.512722672549, 38673.25647750574, 28289.88770125958, 39890.912460197505, 34455.459947044845, 29220.815506078663, 24729.299513018075, 0.06691992187500001, 1.022572265625, 0.1306484375, 192.0, 1.0, 56.0, 16.0, 0.0, 2.0, 8.0, 0.0, 0.0, 0.0, 1.707474358267165E9, 0.0, 2024-02-09 11:25:58.267
180.0, -15594.789754723282, -13610.64775117013, 17057.912595023226, -1853.5184089563381, 47031.870130523464, 18029.6546852177, 34855.75733849494, 9680.831096271408, 30918.318738736958, 5573.9886252866545, 39086.16025282863, 28391.454028064494, 40375.76650092203, 34674.01530432884, 29416.750897973885, 24900.916206945923, 0.06691992187500001, 1.022572265625, 0.1306484375, 192.0, 0.0, 0.0, 0.0, 0.0, 0.0, 0.0, 0.0, 0.0, 0.0, 1.7074743582743793E9, 0.0, 2024-02-09 11:25:58.274
182.0, -15568.973489877402, -13596.297931229823, 17010.526896777978, -1830.294946467274, 46684.211097265616, 17965.952213520075, 34711.14155186911, 9551.548606341912, 30730.07234693436, 5586.460898692715, 38872.41052060253, 28324.868181332135, 40188.52593761992, 34546.49860221131, 29330.830792287685, 24855.989200590757, 0.06691992187500001, 1.022572265625, 0.1306484375, 192.0, 0.0, 0.0, 0.0, 0.0, 0.0, 0.0, 0.0, 0.0, 0.0, 1.7074743582821822E9, 0.0, 2024-02-09 11:25:58.282
184.0, -15459.449942046398, -13543.771331759852, 17087.171028515226, -1837.134580270598, 46981.44459503229, 18066.132732168764, 34866.70969327804, 9683.915637006241, 30788.164530773705, 5656.488914071192, 38838.704089963925, 28360.630972460625, 40027.77219149735, 34544.665759165975, 29333.401242900043, 24810.77162155767, 0.06691992187500001, 1.022572265625, 0.1306484375, 192.0, 0.0, 0.0, 0.0, 0.0, 0.0, 0.0, 0.0, 0.0, 0.0, 1.7074743582902365E9, 0.0, 2024-02-09 11:25:58.290
186.0, -15468.748267739806, -13553.87432025365, 17015.578391024876, -1825.198748731464, 46829.92211936976, 18027.173641583162, 34770.463081653485, 9645.00124990955, 30957.434291533744, 5704.209888483273, 39132.31660512884, 28392.19163563152, 40487.167595287276, 34707.02883088933, 29462.25904968489, 24982.477722463336, 0.06691992187500001, 1.022572265625, 0.1306484375, 192.0, 0.0, 0.0, 0.0, 0.0, 0.0, 0.0, 0.0, 0.0, 0.0, 1.7074743582992296E9, 0.0, 2024-02-09 11:25:58.299
188.0, -15395.322787204123, -13508.43322377601, 17048.435455374176, -1821.488359151883, 46752.786249254495, 18033.18626084164, 34727.99476718841, 9615.787519906464, 30676.003477096976, 5710.1107490194745, 38709.868634923536, 28327.41628020004, 39914.87353025359, 34497.97296499884, 29259.260506541792, 24776.52874905214, 0.06691992187500001, 1.022572265625, 0.1306484375, 192.0, 0.0, 0.0, 0.0, 0.0, 0.0, 0.0, 0.0, 0.0, 0.0, 1.7074743583062575E9, 0.0, 2024-02-09 11:25:58.306
190.0, -15363.717420544317, -13495.893895136584, 17062.427647403198, -1828.0150685328329, 47011.70885702477, 18076.705107296122, 34853.388053582676, 9728.037980561016, 30989.598451804934, 5801.864660008509, 39116.111590398745, 28432.62594135117, 40385.534213249, 34724.23967411991, 29437.716834272964, 24943.60803885556, 0.08, 1.02, 0.128, 192.0, 1.0, 64.0, 15.5, 112.0, 2.0, 0.0, 0.0, 0.0, 0.0, 1.707474358314237E9, 0.0, 2024-02-09 11:25:58.314
192.0, -15395.56865639313, -13489.76951715583, 17001.74266120704, -1825.9363562984893, 46660.5629516319, 17977.41865842565, 34657.87734483211, 9554.834312776842, 30773.300620710925, 5770.460459048803, 38888.86140452164, 28342.682521663013, 40193.71154233355, 34588.497530042834, 29327.075699219193, 24859.096093070042, 0.08, 1.02, 0.128, 192.0, 0.0, 0.0, 0.0, 0.0, 0.0, 0.0, 0.0, 0.0, 0.0, 1.7074743583222644E9, 0.0, 2024-02-09 11:25:58.322
194.0, -15340.069274910604, -13457.76181909583, 17080.063173778435, -1849.6068536766595, 46970.000501871174, 18053.571051784882, 34798.1121895447, 9649.113970889328, 30800.703859413134, 5812.414683391415, 38842.07920337668, 28372.745617955403, 40024.642947273605, 34579.64623923853, 29297.347879093635, 24775.791141485115, 0.08, 1.02, 0.128, 192.0, 0.0, 0.0, 0.0, 0.0, 0.0, 0.0, 0.0, 0.0, 0.0, 1.7074743583302412E9, 0.0, 2024-02-09 11:25:58.330
196.0, -15439.087502847613, -13494.865714891639, 17011.42096655619, -1854.9489206014778, 46835.71122118369, 17995.724737134547, 34722.27272060785, 9583.444545679635, 30941.095166336916, 5794.667398293901, 39128.047421937874, 28383.653269249593, 40489.02279007707, 34703.229034331926, 29432.10654641468, 24924.139669434986, 0.08, 1.02, 0.128, 192.0, 0.0, 0.0, 0.0, 0.0, 0.0, 0.0, 0.0, 0.0, 0.0, 1.7074743583393972E9, 0.0, 2024-02-09 11:25:58.339
198.0, -15490.11653543908, -13465.853150588651, 17045.373266383802, -1862.4814584829162, 46763.425679615226, 18002.56437093787, 34701.8432261757, 9555.79543778842, 30619.565322347324, 5644.418972065327, 38676.27396300721, 28270.64284928356, 39920.32735590069, 34456.89045868999, 29235.478250441345, 24716.156687278355, 0.08, 1.02, 0.128, 192.0, 0.0, 0.0, 0.0, 0.0, 0.0, 0.0, 0.0, 0.0, 0.0, 1.7074743583463368E9, 0.0, 2024-02-09 11:25:58.346
200.0, -15573.354431790644, -13496.966778870437, 17065.981574771595, -1890.2870285853182, 47028.226796177245, 18052.8110924734, 34839.1723441091, 9665.698965275165, 30892.63658435781, 5548.842912774434, 39052.72204312349, 28348.315161265753, 40395.77131220953, 34673.367103739634, 29423.81404922176, 24876.15047408944, 0.07200000000000001, 1.032, 0.12, 192.0, 1.0, 32.0, 16.0, 32.0, 1.5, 96.0, 0.0, 0.0, 0.0, 1.7074743583553383E9, 0.0, 2024-02-09 11:25:58.355
202.0, -15716.271485837877, -13561.988003490926, 16985.247073799022, -1920.1489591776085, 46669.727166858574, 17965.728696075523, 34661.67714138951, 9523.988905428518, 30640.330092946304, 5289.987360237523, 38803.8577203581, 28245.810061193715, 40209.24600472999, 34534.92039858346, 29301.170027395492, 24785.84942649, 0.07200000000000001, 1.032, 0.12, 192.0, 0.0, 0.0, 0.0, 0.0, 0.0, 0.0, 0.0, 0.0, 0.0, 1.7074743583613276E9, 0.0, 2024-02-09 11:25:58.361
204.0, -15782.566759892317, -13627.657428700619, 17053.933984510182, -1954.8835700611558, 46960.18808605529, 18053.10166515132, 34803.25309076942, 9658.38994483828, 30638.340787689784, 5046.889787541603, 38728.264120610256, 28253.744930475346, 40033.09190667771, 34525.35385195659, 29260.758073420297, 24690.586291621483, 0.07200000000000001, 1.032, 0.12, 192.0, 0.0, 0.0, 0.0, 0.0, 0.0, 0.0, 0.0, 0.0, 0.0, 1.7074743583703597E9, 0.0, 2024-02-09 11:25:58.370
206.0, -16001.949131721156, -13720.28305772341, 16972.68539341514, -1964.5618754103036, 46801.49070042261, 18001.8491151153, 34697.86461566265, 9642.00611615254, 30780.162606258706, 4771.002205729747, 39000.53071982035, 28281.058762199733, 40489.31336275499, 34668.94145833748, 29376.182481787502, 24819.980540273256, 0.07200000000000001, 1.032, 0.12, 192.0, 0.0, 0.0, 0.0, 0.0, 0.0, 0.0, 0.0, 0.0, 0.0, 1.7074743583783348E9, 0.0, 2024-02-09 11:25:58.378
208.0, -16060.220129516141, -13730.944839828593, 17010.16926886669, -1959.063346274298, 46737.18473162469, 18002.31850174886, 34694.2883365498, 9646.945851677163, 30443.54533476178, 4442.900948870296, 38553.6522929254, 28203.140581028532, 39918.22629192189, 34449.22381034181, 29179.509482325255, 24599.838209132937, 0.07200000000000001, 1.032, 0.12, 192.0, 0.0, 0.0, 0.0, 0.0, 0.0, 0.0, 0.0, 0.0, 0.0, 1.7074743583863852E9, 0.0, 2024-02-09 11:25:58.386
210.0, -16111.986769674633, -13860.093219291357, 17018.99820792654, -1969.6580731461136, 47006.16562439986, 18049.368923827282, 34818.22875955448, 9803.69863554223, 30724.79733524291, 4168.332119981304, 38955.00021636489, 28306.87502704561, 40395.83836744289, 34675.51287120734, 29373.075589308213, 24767.699809992293, 0.07, 1.036, 0.122, 192.0, 1.0, 24.0, 16.0, 48.0, 1.5, 104.0, 0.0, 0.0, 0.0, 1.7074743583944025E9, 0.0, 2024-02-09 11:25:58.394
212.0, -16169.9671947917, -13936.133853928312, 16954.759294361986, -1963.287825976351, 46666.64262612374, 17959.64902158368, 34674.39528398458, 9677.858314258852, 30422.288825784784, 3833.5923950186248, 38720.39630656198, 28218.317415513688, 40217.15852226717, 34541.670625408966, 29274.303230560214, 24702.857399327448, 0.07, 1.036, 0.122, 192.0, 0.0, 0.0, 0.0, 0.0, 0.0, 0.0, 0.0, 0.0, 0.0, 1.7074743584023855E9, 0.0, 2024-02-09 11:25:58.402
214.0, -16164.781590078068, -13919.258286864555, 17029.771748753996, -1986.7571576544235, 46963.87612389042, 18040.987019656543, 34810.29389027284, 9807.386673377356, 30345.510583580803, 3502.585411379983, 38664.51694542372, 28229.426232507973, 40050.21334293048, 34542.654102165, 29256.26537278478, 24641.144232886345, 0.07, 1.036, 0.122, 192.0, 0.0, 0.0, 0.0, 0.0, 0.0, 0.0, 0.0, 0.0, 0.0, 1.7074743584096262E9, 0.0, 2024-02-09 11:25:58.409
216.0, -16231.702712977258, -13945.901566255281, 16965.845759611817, -1984.6560936756248, 46835.53240722804, 17990.293263231906, 34733.716813768966, 9775.155457872803, 30377.495929896348, 3077.5446388178634, 38946.03716683831, 28228.308645285208, 40511.64275546584, 34690.04150510329, 29382.217452790435, 24792.264377148676, 0.07, 1.036, 0.122, 192.0, 0.0, 0.0, 0.0, 0.0, 0.0, 0.0, 0.0, 0.0, 0.0, 1.7074743584174583E9, 0.0, 2024-02-09 11:25:58.417
218.0, -16212.368454023417, -13896.660673220238, 17009.476364788577, -1979.5598959398146, 46765.794964527486, 18004.665434916667, 34725.13374389813, 9770.305129326001, 29947.60482878743, 2723.87298630154, 38521.37637393193, 28159.375865385042, 39937.15821947554, 34468.24514487328, 29189.16543592995, 24590.182255528245, 0.07, 1.036, 0.122, 192.0, 0.0, 0.0, 0.0, 0.0, 0.0, 0.0, 0.0, 0.0, 0.0, 1.7074743584264262E9, 0.0, 2024-02-09 11:25:58.426
220.0, -16283.379946157927, -13941.565327830951, 17016.47246080309, -1997.8659746487112, 47023.465874608264, 18063.13759841175, 34850.14705063666, 9946.079247722537, 30108.000946998713, 2581.291208421136, 38904.59703261817, 28231.169668575487, 40399.6828674892, 34687.58281321321, 29365.207775259947, 24766.38105706943, 0.064, 1.028, 0.13, 192.0, 1.0, 0.0, 16.0, 16.0, 2.0, 8.0, 0.0, 0.0, 0.0, 1.707474358434439E9, 0.0, 2024-02-09 11:25:58.434
222.0, -16310.492612182214, -13928.690723024694, 16951.07125652686, -1992.1215763236974, 46671.42589943718, 17988.92980682013, 34689.438008003, 9862.416668226322, 29764.499338209553, 2489.49259394319, 38671.73655888278, 28139.303998864176, 40220.734801380015, 34553.047663336714, 29257.07003558517, 24715.754355878158, 0.064, 1.028, 0.13, 192.0, 0.0, 0.0, 0.0, 0.0, 0.0, 0.0, 0.0, 0.0, 0.0, 1.7074743584415207E9, 0.0, 2024-02-09 11:25:58.441
224.0, -16281.45769613477, -13879.628643945294, 17026.32958010788, -2011.2099660885294, 46965.083118091, 18077.08508695186, 34846.79428896836, 10025.539699261153, 29695.92418622067, 2498.947381847785, 38610.33631686406, 28151.552754825683, 40038.07634569125, 34538.94371258542, 29227.87865732654, 24656.902212727335, 0.064, 1.028, 0.13, 192.0, 0.0, 0.0, 0.0, 0.0, 0.0, 0.0, 0.0, 0.0, 0.0, 1.7074743584504764E9, 0.0, 2024-02-09 11:25:58.450
226.0, -16325.200060033807, -13904.66259773524, 16948.992544292516, -2015.836777190778, 46828.08927632443, 18009.381652996737, 34772.206517721, 9976.902303326406, 29782.827768662904, 2500.288486515103, 38905.669916352024, 28168.540080611718, 40513.20737757771, 34676.943382852485, 29360.245687990868, 24820.360519928996, 0.064, 1.028, 0.13, 192.0, 0.0, 0.0, 0.0, 0.0, 0.0, 0.0, 0.0, 0.0, 0.0, 1.7074743584585035E9, 0.0, 2024-02-09 11:25:58.458
228.0, -16330.966810103275, -13882.266149791021, 16974.16060854919, -2022.2964313383618, 46743.44322007218, 18006.94531285111, 34737.8518864932, 9960.965509529771, 29403.96570014545, 2464.816268064531, 38463.86533544843, 28078.08257080109, 39934.90069328555, 34452.86714468803, 29152.754444212253, 24607.057822592, 0.064, 1.028, 0.13, 192.0, 0.0, 0.0, 0.0, 0.0, 0.0, 0.0, 0.0, 0.0, 0.0, 1.7074743584656515E9, 0.0, 2024-02-09 11:25:58.465
230.0, -16318.673350652856, -13852.40421919873, 16989.337443034347, -2026.5209110404148, 47006.85852847798, 18047.53608078195, 34863.55809730984, 10060.22960665579, 29667.336305062334, 2539.940481178818, 38856.965465183916, 28155.44195836091, 40387.76938769453, 34671.824833372215, 29327.65684457503, 24773.466560061763, 0.062, 1.016, 0.14, 192.0, 0.5, 120.0, 15.5, 96.0, 2.0, 48.0, 0.0, 0.0, 0.0, 1.707474358473711E9, 0.0, 2024-02-09 11:25:58.473
232.0, -16320.237972764728, -13820.754149050015, 16924.20445969158, -2015.6356114906803, 46648.42595439267, 17958.062047727355, 34682.39720849958, 9927.303782380079, 29429.938427202516, 2525.076571116039, 38638.36540441101, 28072.2264137538, 40201.82522557083, 34545.53747719973, 29215.674604853943, 24703.84087608348, 0.062, 1.016, 0.14, 192.0, 0.0, 0.0, 0.0, 0.0, 0.0, 0.0, 0.0, 0.0, 0.0, 1.7074743584826264E9, 0.0, 2024-02-09 11:25:58.482
234.0, -16300.881362066433, -13782.890293942726, 17008.247018843536, -2019.3012975813506, 46947.71581264923, 18041.09877837882, 34842.56980926631, 10058.061487443625, 29459.73330256144, 2581.0900427210386, 38593.10312188901, 28108.838571171593, 40015.45638030248, 34537.177924773445, 29194.529854599223, 24653.392988847852, 0.062, 1.016, 0.14, 192.0, 0.0, 0.0, 0.0, 0.0, 0.0, 0.0, 0.0, 0.0, 0.0, 1.7074743584905024E9, 0.0, 2024-02-09 11:25:58.490
236.0, -16312.727786627745, -13773.234340338033, 16953.574651905856, -1998.7153409380128, 46824.26712802257, 17996.350585979293, 34801.28613725735, 10020.801129436628, 29594.402562904666, 2609.9908483017502, 38886.737988798384, 28122.47313528933, 40480.35031322841, 34684.766493411844, 29330.495516120856, 24826.507249654205, 0.062, 1.016, 0.14, 192.0, 0.0, 0.0, 0.0, 0.0, 0.0, 0.0, 0.0, 0.0, 0.0, 1.7074743584975252E9, 0.0, 2024-02-09 11:25:58.497
238.0, -16281.703565323778, -13707.60961861725, 16988.443373256134, -1981.7727186408902, 46737.81058046944, 18017.495336234017, 34773.972305532974, 10024.958553905315, 29327.18745794147, 2646.155970830437, 38483.46781533573, 28080.004820824248, 39909.017373206305, 34468.82629022912, 29145.15485109745, 24644.094663154443, 0.062, 1.016, 0.14, 192.0, 0.0, 0.0, 0.0, 0.0, 0.0, 0.0, 0.0, 0.0, 0.0, 1.7074743585055912E9, 0.0, 2024-02-09 11:25:58.505
240.0, -16300.36727194396, -13690.04114747538, 17008.716405477095, -1982.9797128414766, 47010.72538026874, 18068.502017081024, 34917.24698749149, 10143.109875096068, 29619.28005448342, 2728.186872981414, 38863.73804375387, 28157.90065025099, 40358.15332629124, 34688.56628996924, 29323.454716617434, 24823.936799041847, 0.064, 1.004, 0.148, 192.0, 1.0, 0.0, 15.5, 48.0, 2.0, 80.0, 0.0, 0.0, 0.0, 1.7074743585145774E9, 0.0, 2024-02-09 11:25:58.514
242.0, -16297.752117842689, -13666.951795453047, 16956.92741357415, -1965.0089102994098, 46669.79422209194, 17991.634367899223, 34779.02379977987, 10026.053789383626, 29424.797525977796, 2757.7805826402405, 38660.40422444394, 28092.342983763574, 40195.90201329017, 34565.69875069842, 29228.59391314911, 24769.353839081985, 0.064, 1.004, 0.148, 192.0, 0.0, 0.0, 0.0, 0.0, 0.0, 0.0, 0.0, 0.0, 0.0, 1.707474358521608E9, 0.0, 2024-02-09 11:25:58.521
244.0, -16266.280861649617, -13631.814853169306, 17026.061359174415, -1989.5734774557923, 46961.41743200034, 18067.697354280634, 34928.80283937488, 10144.808607674671, 29464.91890727507, 2814.3975513455334, 38609.86693023049, 28126.250580102278, 40007.90149067658, 34547.61618943408, 29211.405421662977, 24712.222780254222, 0.064, 1.004, 0.148, 192.0, 0.0, 0.0, 0.0, 0.0, 0.0, 0.0, 0.0, 0.0, 0.0, 1.7074743585297654E9, 0.0, 2024-02-09 11:25:58.529
246.0, -16282.932911268821, -13640.442626529053, 16939.917736043662, -2003.677428207091, 46814.857043606884, 17997.579931924338, 34837.65242548614, 10068.969138737815, 29632.19936277859, 2838.380973146078, 38894.8293202912, 28139.393405841998, 40467.810984588985, 34680.89964162107, 29322.247722416847, 24863.521738472195, 0.064, 1.004, 0.148, 192.0, 0.0, 0.0, 0.0, 0.0, 0.0, 0.0, 0.0, 0.0, 0.0, 1.7074743585376797E9, 0.0, 2024-02-09 11:25:58.537
248.0, -16260.067076691043, -13597.795498108328, 16972.707745159598, -1994.6249717026917, 46721.00206863905, 18005.51480120597, 34802.20255878002, 10029.518309774197, 29365.25247874886, 2831.9660224874046, 38457.31627432302, 28072.137006775978, 39891.29243985325, 34452.26364758774, 29106.28516748967, 24642.284171853564, 0.064, 1.004, 0.148, 192.0, 0.0, 0.0, 0.0, 0.0, 0.0, 0.0, 0.0, 0.0, 0.0, 1.7074743585466568E9, 0.0, 2024-02-09 11:25:58.546
250.0, -16264.045687204087, -13596.74496611893, 16990.142105834737, -2011.2546695774402, 46985.40085380088, 18041.434054545647, 34926.45590620708, 10139.019505860748, 29687.87755821676, 2925.15044512158, 38852.763337226315, 28159.889955507515, 40340.718965616106, 34672.13775779459, 29279.645297485033, 24802.993214487222, 0.058, 0.998, 0.15, 192.0, 0.5, 104.0, 15.5, 24.0, 2.0, 88.0, 0.0, 0.0, 0.0, 1.7074743585539215E9, 0.0, 2024-02-09 11:25:58.553
252.0, -16269.007774473164, -13581.948111289516, 16930.82057605035, -1994.7367304249683, 46634.41141061919, 17945.723884788025, 34761.052997237806, 9984.479544696755, 29510.382355497168, 2925.441017799499, 38651.75409933974, 28089.325498262107, 40183.11681546173, 34530.4500496924, 29182.750485271274, 24743.023484113633, 0.058, 0.998, 0.15, 192.0, 0.0, 0.0, 0.0, 0.0, 0.0, 0.0, 0.0, 0.0, 0.0, 1.7074743585616736E9, 0.0, 2024-02-09 11:25:58.561
254.0, -16218.135204092885, -13548.420494606555, 17012.583257267863, -2006.3372857972727, 46931.063763030026, 18018.94819962361, 34918.63279564772, 10085.844705801572, 29570.217975404023, 3073.8342492382826, 38606.69298251784, 28132.553772038675, 39989.684818945505, 34507.338345925615, 29168.870051964528, 24679.2763089271, 0.058, 0.998, 0.15, 192.0, 0.0, 0.0, 0.0, 0.0, 0.0, 0.0, 0.0, 0.0, 0.0, 1.7074743585706372E9, 0.0, 2024-02-09 11:25:58.570
0.0, -16203.293645774562, -13521.799566960284, 16948.970192548062, -1989.8193466448006, 46805.223441746646, 17958.93376576111, 34844.06737614481, 10018.633010224463, 29820.244588881087, 3231.5258063704737, 38916.868140324135, 28165.991981743813, 40466.49223166612, 34643.41576616952, 29299.359536094613, 24850.513023199204, 0.058, 0.998, 0.15, 192.0, 0.0, 0.0, 0.0, 0.0, 0.0, 0.0, 0.0, 0.0, 0.0, 1.7074743585776768E9, 0.0, 2024-02-09 11:25:58.577
2.0, -16150.521177115581, -13476.112601293637, 16985.26942554348, -1970.194515013041, 46719.01276338253, 17971.294280444894, 34827.527085247886, 9996.080100069059, 29657.59094447982, 3300.2127170816325, 38500.343382399486, 28116.058184630656, 39895.449864321934, 34418.87014137151, 29103.13357152147, 24654.845852237446, 0.058, 0.998, 0.15, 192.0, 0.0, 0.0, 0.0, 0.0, 0.0, 0.0, 0.0, 0.0, 0.0, 1.70747435858571E9, 0.0, 2024-02-09 11:25:58.585
4.0, -16139.904098499312, -13457.024211528804, 17021.345141094345, -1968.1828580120634, 46998.40956907387, 18024.71494969308, 34963.38098804724, 10103.368473454533, 30077.557871050583, 3368.966683026157, 38910.05085826527, 28211.455429965907, 40351.02311981, 34640.308873690235, 29297.86196921611, 24845.05919755211, 0.056, 1.002, 0.15, 192.0, 0.5, 96.0, 15.5, 40.0, 2.0, 88.0, 0.0, 0.0, 0.0, 1.7074743585937133E9, 0.0, 2024-02-09 11:25:58.593
6.0, -16117.597057532914, -13454.18553998298, 16959.520215930967, -1950.7261455924686, 46648.00127124802, 17939.823024251822, 34793.64184065364, 9928.823701003039, 29975.03041923409, 3275.625798180795, 38731.05808866717, 28150.770443769747, 40195.87966154572, 34516.3460989411, 29208.432639650422, 24792.063211448578, 0.056, 1.002, 0.15, 192.0, 0.0, 0.0, 0.0, 0.0, 0.0, 0.0, 0.0, 0.0, 0.0, 1.7074743586027265E9, 0.0, 2024-02-09 11:25:58.602
8.0, -16084.762344928069, -13428.27986815928, 17059.410161901735, -1937.3821541526502, 46966.223057058225, 18061.8635489778, 35002.60829956631, 10090.918551792927, 30124.1612582399, 3291.204964066144, 38689.64030619148, 28212.841238122135, 39997.01619112685, 34498.15177895448, 29204.945767515394, 24753.439397029808, 0.056, 1.002, 0.15, 192.0, 0.0, 0.0, 0.0, 0.0, 0.0, 0.0, 0.0, 0.0, 0.0, 1.7074743586097286E9, 0.0, 2024-02-09 11:25:58.609
10.0, -16054.922766080233, -13405.436385325955, 16989.851533156816, -1924.1722731795637, 46844.13782884334, 18007.772327395956, 34940.93983661412, 10007.367731018989, 30407.290805255274, 3395.8558316058916, 39021.00491774141, 28275.82845399719, 40480.953810328705, 34645.31566444822, 29373.366161986134, 24952.302867448674, 0.056, 1.002, 0.15, 192.0, 0.0, 0.0, 0.0, 0.0, 0.0, 0.0, 0.0, 0.0, 0.0, 1.7074743586178644E9, 0.0, 2024-02-09 11:25:58.617
12.0, -15978.479800043084, -13381.005928636305, 17019.93698119366, -1910.8282817397455, 46750.484019575604, 18005.22422852805, 34889.55317611137, 9933.4952155942, 30208.919073214423, 3627.0622762515877, 38598.087560902546, 28228.73332842986, 39894.51109105481, 34410.06355405612, 29182.817540504642, 24760.65901048887, 0.056, 1.002, 0.15, 192.0, 0.0, 0.0, 0.0, 0.0, 0.0, 0.0, 0.0, 0.0, 0.0, 1.7074743586267204E9, 0.0, 2024-02-09 11:25:58.626
14.0, -15869.291528378908, -13400.451946312422, 17051.18471994218, -1895.8079094657792, 47023.8011507751, 18047.7595982265, 35000.52958733196, 9982.132611528947, 30594.687830768566, 3948.9497481524645, 39012.48890310394, 28350.013893844356, 40337.343852203354, 34640.62179811261, 29367.24178400538, 24929.235867170795, 0.054, 1.014, 0.14400000000000002, 192.0, 0.5, 88.0, 15.5, 88.0, 2.0, 64.0, 0.0, 0.0, 0.0, 1.7074743586337936E9, 0.0, 2024-02-09 11:25:58.633
16.0, -15787.372384950208, -13421.104958189126, 17005.676568231174, -1859.7992491482794, 46679.450175696635, 17960.654850084167, 34815.926529875585, 9775.244864850625, 30483.353791636684, 4236.996678948007, 38844.18026735548, 28314.586378882694, 40193.17510046662, 34539.86013410809, 29295.760905237308, 24883.437142781873, 0.054, 1.014, 0.14400000000000002, 192.0, 0.0, 0.0, 0.0, 0.0, 0.0, 0.0, 0.0, 0.0, 0.0, 1.7074743586417754E9, 0.0, 2024-02-09 11:25:58.641
18.0, -15643.538909380308, -13404.855239970118, 17100.179743788212, -1849.0927635541873, 46971.72158619423, 18042.37282781277, 34947.623008206254, 9822.22823169568, 30577.745208471446, 4547.752982110141, 38796.749865621314, 28361.435635261016, 39995.92095564854, 34525.53266591224, 29292.162274380004, 24821.969845529777, 0.054, 1.014, 0.14400000000000002, 192.0, 0.0, 0.0, 0.0, 0.0, 0.0, 0.0, 0.0, 0.0, 0.0, 1.707474358649816E9, 0.0, 2024-02-09 11:25:58.649
20.0, -15596.510839046341, -13434.56070835122, 17039.13712968077, -1827.1209987546206, 46851.491552769134, 17991.589664410312, 34856.69611176206, 9714.984561799118, 30808.99635660605, 4777.75243255525, 39117.67621251061, 28405.446220093516, 40482.78665337404, 34678.03861833079, 29455.709988559483, 25003.466010506872, 0.054, 1.014, 0.14400000000000002, 192.0, 0.0, 0.0, 0.0, 0.0, 0.0, 0.0, 0.0, 0.0, 0.0, 1.7074743586587875E9, 0.0, 2024-02-09 11:25:58.658
22.0, -15484.953282469904, -13395.042824154238, 17067.03210676099, -1814.7157805819252, 46747.84651372988, 18004.441917472115, 34798.49216920044, 9629.489139257568, 30547.503298223415, 4954.867655619104, 38687.5839457016, 28341.296713506785, 39917.64514656605, 34445.28990331768, 29271.26339331429, 24811.82215354707, 0.054, 1.014, 0.14400000000000002, 192.0, 0.0, 0.0, 0.0, 0.0, 0.0, 0.0, 0.0, 0.0, 0.0, 1.70747435866579E9, 0.0, 2024-02-09 11:25:58.665
24.0, -15402.497697174276, -13383.777544948764, 17085.96403431464, -1821.3989521740618, 47025.54458684261, 18050.62062151678, 34923.3937172167, 9688.497744619579, 30891.116665734848, 5178.40745191663, 39082.94160162707, 28445.075863012775, 40367.51870721802, 34682.598374199675, 29455.30765715929, 24964.99865829929, 0.064, 1.026, 0.138, 192.0, 1.0, 0.0, 16.0, 8.0, 2.0, 40.0, 0.0, 0.0, 0.0, 1.7074743586738167E9, 0.0, 2024-02-09 11:25:58.673
26.0, -15374.401554393955, -13380.402431536011, 17019.534649793466, -1814.492263137372, 46663.49103015554, 17965.68399258661, 34740.24352314991, 9544.08312369384, 30719.879951462743, 5264.908702958668, 38889.9789917444, 28374.220833089454, 40225.33926073781, 34561.407215763, 29360.893888580074, 24891.014384152222, 0.064, 1.026, 0.138, 192.0, 0.0, 0.0, 0.0, 0.0, 0.0, 0.0, 0.0, 0.0, 0.0, 1.7074743586820447E9, 0.0, 2024-02-09 11:25:58.682
28.0, -15263.4027914289, -13349.288803254225, 17096.312891997444, -1831.7031063679585, 46949.52630395011, 18050.128883138765, 34901.198434972575, 9663.933177463196, 30758.548469370424, 5382.25536134903, 38816.41940074199, 28402.540493314325, 40030.96849095446, 34537.44614570691, 29335.47995513439, 24818.170048972377, 0.064, 1.026, 0.138, 192.0, 0.0, 0.0, 0.0, 0.0, 0.0, 0.0, 0.0, 0.0, 0.0, 1.707474358689816E9, 0.0, 2024-02-09 11:25:58.689
30.0, -15259.670050104864, -13373.182818076948, 17022.529783550475, -1829.110304011143, 46820.15440704279, 17992.886065588722, 34799.006259322916, 9582.148144501227, 30953.4556810207, 5475.506839216571, 39131.57899756182, 28431.038967494842, 40519.532921258564, 34686.75579866836, 29466.41647415358, 24968.530233923226, 0.064, 1.026, 0.138, 192.0, 0.0, 0.0, 0.0, 0.0, 0.0, 0.0, 0.0, 0.0, 0.0, 1.7074743586978223E9, 0.0, 2024-02-09 11:25:58.697
32.0, -15189.686738215298, -13341.286878739224, 17056.839711289373, -1818.1132457391318, 46736.76004848004, 18008.599341940804, 34774.464043910986, 9556.51069361099, 30664.201756024573, 5513.728322235146, 38703.163111586946, 28353.590172957203, 39946.94828354696, 34458.38802556849, 29265.809567667195, 24771.656068760883, 0.064, 1.026, 0.138, 192.0, 0.0, 0.0, 0.0, 0.0, 0.0, 0.0, 0.0, 0.0, 0.0, 1.7074743587058828E9, 0.0, 2024-02-09 11:25:58.705
34.0, -15128.353551429935, -13315.224744704336, 17078.051516777457, -1827.0539435212545, 47020.09076119551, 18068.367906614294, 34908.95449029857, 9672.96328222314, 30983.339963357448, 5617.35100952995, 39095.05624712184, 28449.76972934839, 40389.9822103956, 34681.480786976914, 29448.624485567154, 24937.59541959708, 0.068, 1.022, 0.138, 192.0, 1.0, 32.0, 15.5, 104.0, 2.0, 40.0, 0.0, 0.0, 0.0, 1.7074743587138705E9, 0.0, 2024-02-09 11:25:58.713
36.0, -15130.767539831108, -13316.029407504728, 17012.538553778955, -1815.296925937763, 46660.74176558755, 17988.88510333122, 34717.8470752057, 9540.752713769998, 30803.453123981137, 5625.129416600396, 38908.5309396423, 28374.779626700834, 40242.99713885751, 34566.41400652099, 29358.43519668999, 24893.62953825349, 0.068, 1.022, 0.138, 192.0, 0.0, 0.0, 0.0, 0.0, 0.0, 0.0, 0.0, 0.0, 0.0, 1.7074743587218847E9, 0.0, 2024-02-09 11:25:58.721
38.0, -15030.721131649154, -13259.77006671072, 17105.67827292422, -1817.241527705375, 46946.084135303994, 18063.606985045313, 34859.266562374425, 9635.032371882484, 30821.6250922233, 5704.545164650102, 38843.93439816647, 28414.163400431087, 40028.86742697566, 34544.62105567707, 29325.242856173856, 24812.939740769834, 0.068, 1.022, 0.138, 192.0, 0.0, 0.0, 0.0, 0.0, 0.0, 0.0, 0.0, 0.0, 0.0, 1.7074743587299104E9, 0.0, 2024-02-09 11:25:58.729
40.0, -15044.132178322337, -13266.542645280677, 17044.590955327865, -1807.5632223562268, 46843.89195965433, 18003.27962676044, 34795.988773821446, 9580.024728777973, 31010.296167170545, 5765.006633401708, 39173.68968411561, 28455.96116256251, 40523.60093874943, 34701.4408947755, 29474.97719227996, 24980.51076895127, 0.068, 1.022, 0.138, 192.0, 0.0, 0.0, 0.0, 0.0, 0.0, 0.0, 0.0, 0.0, 0.0, 1.707474358738938E9, 0.0, 2024-02-09 11:25:58.738
42.0, -14987.738727061598, -13229.684618673877, 17078.833827833394, -1798.1307861960872, 46753.03211844351, 18005.09011806132, 34765.568049617774, 9536.617641045767, 30717.26479736147, 5773.544999783636, 38751.28641739922, 28394.24799612141, 39956.33601621819, 34467.82046172863, 29287.267242344293, 24777.53457755263, 0.068, 1.022, 0.138, 192.0, 0.0, 0.0, 0.0, 0.0, 0.0, 0.0, 0.0, 0.0, 0.0, 1.707474358746241E9, 0.0, 2024-02-09 11:25:58.746
44.0, -14937.20143284815, -13203.018987538695, 17105.387700246298, -1797.169661184509, 47026.46100836528, 18059.762484999, 34899.81262681635, 9646.923499932707, 31029.38455693538, 5856.849951368565, 39142.28548315591, 28497.31188980483, 40396.352457565365, 34690.354429525665, 29474.26193645739, 24937.930695763913, 0.07, 1.0190000000000001, 0.139, 192.0, 1.0, 32.0, 15.5, 96.0, 2.0, 48.0, 0.0, 0.0, 0.0, 1.7074743587539475E9, 0.0, 2024-02-09 11:25:58.753
46.0, -14966.281052384504, -13219.782795880175, 17031.112853421313, -1794.8674315056123, 46658.4618876531, 17965.348716419783, 34699.161016841055, 9493.791698669398, 30847.24019136908, 5834.654669124445, 38961.05753911228, 28430.05549073881, 40262.264342577975, 34576.91932641499, 29383.491502224388, 24890.053259140645, 0.07, 1.0190000000000001, 0.139, 192.0, 0.0, 0.0, 0.0, 0.0, 0.0, 0.0, 0.0, 0.0, 0.0, 1.707474358761919E9, 0.0, 2024-02-09 11:25:58.761
48.0, -14879.75744959801, -13183.729432073766, 17117.457642252164, -1804.9257165105007, 46938.23867300018, 18053.414589573695, 34843.03919589987, 9608.456147725123, 30855.44328158418, 5869.389280007992, 38877.84199450517, 28449.032121781365, 40044.04426146082, 34541.06712830867, 29332.306007421736, 24803.52965635415, 0.07, 1.0190000000000001, 0.139, 192.0, 0.0, 0.0, 0.0, 0.0, 0.0, 0.0, 0.0, 0.0, 0.0, 1.7074743587699375E9, 0.0, 2024-02-09 11:25:58.769
50.0, -14910.938133113163, -13205.097699773038, 17051.18471994218, -1801.3270856531963, 46825.51882571207, 18001.17856278164, 34772.51944214338, 9567.306586182904, 31049.389368222877, 5895.563172765157, 39201.875233873754, 28483.945546620555, 40542.71168025872, 34705.441857033, 29476.363000436188, 24975.593385171105, 0.07, 1.0190000000000001, 0.139, 192.0, 0.0, 0.0, 0.0, 0.0, 0.0, 0.0, 0.0, 0.0, 0.0, 1.7074743587779672E9, 0.0, 2024-02-09 11:25:58.777
52.0, -14873.096629750327, -13188.825629809575, 17073.447057419668, -1798.2872484072743, 46718.319859304414, 18006.386519239728, 34717.17652287203, 9523.899498450697, 30751.351207655815, 5867.77995440721, 38766.217382695366, 28404.35098461521, 39966.59546692318, 34474.95066820987, 29273.297402059725, 24763.90001343489, 0.07, 1.0190000000000001, 0.139, 192.0, 0.0, 0.0, 0.0, 0.0, 0.0, 0.0, 0.0, 0.0, 0.0, 1.7074743587859688E9, 0.0, 2024-02-09 11:25:58.785
54.0, -14843.03353345794, -13188.177429220372, 17081.605444145855, -1820.2143097179307, 46998.07429290704, 18051.537043039447, 34843.03919589987, 9634.741799204565, 31059.112377060937, 5922.586431811623, 39141.614930822245, 28492.863892658224, 40397.201823854666, 34689.88504289211, 29446.568125077265, 24921.703329289357, 0.07300000000000001, 1.0175, 0.1385, 192.0, 1.0, 48.0, 15.5, 96.0, 2.0, 40.0, 0.0, 0.0, 0.0, 1.7074743587940176E9, 0.0, 2024-02-09 11:25:58.794
56.0, -14875.555321640411, -13203.734243361265, 17018.70763524862, -1812.6370683475816, 46637.56300658739, 17957.860882027257, 34659.68783613299, 9487.712024177556, 30866.14976717827, 5881.347463291581, 38953.83792565321, 28419.594874333725, 40259.55978149889, 34568.69388445543, 29342.386644171078, 24855.78803489066, 0.07300000000000001, 1.0175, 0.1385, 192.0, 0.0, 0.0, 0.0, 0.0, 0.0, 0.0, 0.0, 0.0, 0.0, 1.7074743588009987E9, 0.0, 2024-02-09 11:25:58.800
58.0, -14793.032681111417, -13164.573987075566, 17106.95232235817, -1823.365905686129, 46921.87719605889, 18034.99675214252, 34809.466875728, 9605.684531412666, 30877.4373981282, 5913.176347395939, 38874.73510202588, 28442.72892984497, 40042.747860282405, 34539.52485794126, 29319.789030526765, 24782.38490609943, 0.07300000000000001, 1.0175, 0.1385, 192.0, 0.0, 0.0, 0.0, 0.0, 0.0, 0.0, 0.0, 0.0, 0.0, 1.707474358810043E9, 0.0, 2024-02-09 11:25:58.810
60.0, -14835.36688510977, -13192.781888578163, 17038.488929091567, -1822.5388911412826, 46815.16996802926, 17973.529454890428, 34761.36592166018, 9545.021896960961, 31066.868432386927, 5927.816740014165, 39201.4505507291, 28473.64139242666, 40529.01006090761, 34697.75285694037, 29464.516575874877, 24946.781986568214, 0.07300000000000001, 1.0175, 0.1385, 192.0, 0.0, 0.0, 0.0, 0.0, 0.0, 0.0, 0.0, 0.0, 0.0, 1.7074743588182638E9, 0.0, 2024-02-09 11:25:58.818
62.0, -14795.290207301405, -13167.166789432382, 17072.731801597096, -1808.5019956233498, 46713.514234246526, 17977.396306681196, 34720.283415351325, 9510.331989566326, 30767.198594474627, 5888.298855817182, 38769.03370249674, 28395.678507766548, 39951.3292254602, 34457.31514183464, 29272.448035770423, 24742.867021902446, 0.07300000000000001, 1.0175, 0.1385, 192.0, 0.0, 0.0, 0.0, 0.0, 0.0, 0.0, 0.0, 0.0, 0.0, 1.707474358826056E9, 0.0, 2024-02-09 11:25:58.826
64.0, -14767.574044176823, -13160.997707962717, 17102.034938578003, -1810.4465973909614, 46997.80607197357, 18041.679923734657, 34854.23741987198, 9650.119799389817, 31072.67988594531, 5943.977051255352, 39154.86951528425, 28497.669517716113, 40385.9812481381, 34683.69360967798, 29455.709988559483, 24909.70044251686, 0.07450000000000001, 1.01675, 0.13625, 192.0, 1.0, 48.0, 15.5, 96.0, 2.0, 24.0, 0.0, 0.0, 0.0, 1.7074743588331907E9, 0.0, 2024-02-09 11:25:58.833
66.0, -14815.160908122172, -13184.265873940692, 17039.494757592056, -1800.9694577419114, 46644.40264039071, 17956.20685293756, 34671.3330949942, 9511.650742489188, 30886.78042731052, 5900.055873400674, 38977.843699198216, 28428.021481993375, 40264.924200168156, 34572.136053101545, 29373.09794105267, 24870.11550308651, 0.07450000000000001, 1.01675, 0.13625, 192.0, 0.0, 0.0, 0.0, 0.0, 0.0, 0.0, 0.0, 0.0, 0.0, 1.7074743588420632E9, 0.0, 2024-02-09 11:25:58.842
68.0, -14737.689761840078, -13149.799483990608, 17118.597581219386, -1812.011219502833, 46925.63228912739, 18037.43309228815, 34814.56307346381, 9615.13931931726, 30889.373229667337, 5916.842033486609, 38883.96637248592, 28447.422796180585, 40039.43980210302, 34531.32176772616, 29331.724862065897, 24782.98840319972, 0.07450000000000001, 1.01675, 0.13625, 192.0, 0.0, 0.0, 0.0, 0.0, 0.0, 0.0, 0.0, 0.0, 0.0, 1.7074743588501143E9, 0.0, 2024-02-09 11:25:58.850
70.0, -14780.225131538527, -13175.615748836488, 17048.18958618517, -1806.3562281556403, 46818.45567446419, 17983.341870706307, 34740.51174408338, 9551.816827275376, 31076.233813313702, 5931.303612149193, 39212.69347819012, 28485.10783733223, 40528.04893589603, 34694.22128131644, 29473.144349234626, 24952.928716293423, 0.07450000000000001, 1.01675, 0.13625, 192.0, 0.0, 0.0, 0.0, 0.0, 0.0, 0.0, 0.0, 0.0, 0.0, 1.7074743588571231E9, 0.0, 2024-02-09 11:25:58.857
72.0, -14747.05514276685, -13159.567196317577, 17075.011679531537, -1799.9636292414225, 46708.99918186655, 17993.71308013357, 34707.05118263378, 9526.469949063057, 30777.502748668525, 5893.685626230911, 38782.73532184784, 28408.463705594982, 39955.03961503978, 34467.23931637279, 29270.27991655826, 24745.817452170548, 0.07450000000000001, 1.01675, 0.13625, 192.0, 0.0, 0.0, 0.0, 0.0, 0.0, 0.0, 0.0, 0.0, 0.0, 1.7074743588660936E9, 0.0, 2024-02-09 11:25:58.866
74.0, -14717.841412763764, -13151.878196224952, 17106.035900835504, -1807.6973328229587, 47003.21519413176, 18042.171662112672, 34860.38414959719, 9642.85548244184, 31084.369848295435, 5952.783638570743, 39166.090091000806, 28504.106820119243, 40391.99386739658, 34685.79467365678, 29458.615715338674, 24912.852038485056, 0.07525000000000001, 1.0153750000000001, 0.137125, 192.0, 1.0, 48.0, 15.5, 88.0, 2.0, 40.0, 0.0, 0.0, 0.0, 1.7074743588741193E9, 0.0, 2024-02-09 11:25:58.874
76.0, -14758.476884183514, -13169.60312957801, 17039.070074447405, -1795.7615012838248, 46650.39290790474, 17965.348716419783, 34668.181499026, 9491.198896312582, 30900.839674572908, 5911.477614817335, 38987.43259756954, 28434.078804740766, 40271.16033687119, 34578.0592653822, 29374.77432188682, 24862.82883439408, 0.07525000000000001, 1.0153750000000001, 0.137125, 192.0, 0.0, 0.0, 0.0, 0.0, 0.0, 0.0, 0.0, 0.0, 0.0, 1.7074743588823068E9, 0.0, 2024-02-09 11:25:58.882
78.0, -14686.6160257597, -13142.937498442829, 17111.400319504777, -1815.6098503601374, 46932.76249560863, 18042.28342083495, 34820.44158225555, 9608.52320295849, 30905.242968230603, 5937.003306985296, 38893.91289876853, 28454.329485217273, 40040.73620328143, 34546.94563710042, 29327.634492830577, 24778.696868264302, 0.07525000000000001, 1.0153750000000001, 0.137125, 192.0, 0.0, 0.0, 0.0, 0.0, 0.0, 0.0, 0.0, 0.0, 0.0, 1.7074743588891535E9, 0.0, 2024-02-09 11:25:58.889
80.0, -14735.879270539197, -13174.22994068026, 17047.13905419577, -1813.7546555703468, 46828.782180402544, 17996.03766155692, 34755.64387507962, 9564.199693703615, 31093.24349084419, 5950.973147269863, 39220.18131258265, 28483.789084409367, 40538.04016566755, 34711.76740071385, 29469.232793954947, 24948.056036002166, 0.07525000000000001, 1.0153750000000001, 0.137125, 192.0, 0.0, 0.0, 0.0, 0.0, 0.0, 0.0, 0.0, 0.0, 0.0, 1.7074743588985016E9, 0.0, 2024-02-09 11:25:58.898
82.0, -14698.328339854283, -13150.26887062417, 17078.94558655567, -1804.5457368547604, 46718.38691453778, 18003.301978504896, 34715.880121693626, 9533.086065421829, 30791.919623842197, 5917.222013142349, 38786.6021736386, 28406.474400338462, 39966.282542500805, 34477.54347056669, 29270.168157835982, 24744.074016103034, 0.07525000000000001, 1.0153750000000001, 0.137125, 192.0, 0.0, 0.0, 0.0, 0.0, 0.0, 0.0, 0.0, 0.0, 0.0, 1.7074743589061449E9, 0.0, 2024-02-09 11:25:58.906
84.0, -14678.390583800148, -13147.161978144883, 17102.929008356215, -1817.5097486388386, 47009.22781339024, 18050.039476160942, 34854.5279925499, 9636.552290505444, 31097.356211823968, 5981.639740662545, 39161.44092815411, 28504.68796547508, 40389.1328441063, 34693.26015630486, 29444.77998552084, 24903.598416280558, 0.07162500000000001, 1.0146875, 0.1385625, 192.0, 1.0, 16.0, 15.5, 88.0, 2.0, 48.0, 0.0, 0.0, 0.0, 1.7074743589131818E9, 0.0, 2024-02-09 11:25:58.913
86.0, -14724.703398311543, -13163.32228938607, 17039.360647125322, -1796.8120332732242, 46655.131477729265, 17970.0425827554, 34671.400150227564, 9511.40487330018, 30913.69192763471, 5939.283184919737, 38987.23143186944, 28430.077842483264, 40273.28375259444, 34588.09519864264, 29358.30108622326, 24858.805520392125, 0.07162500000000001, 1.0146875, 0.1385625, 192.0, 0.0, 0.0, 0.0, 0.0, 0.0, 0.0, 0.0, 0.0, 0.0, 1.707474358921184E9, 0.0, 2024-02-09 11:25:58.921
88.0, -14648.863929374687, -13127.000704646196, 17122.10680509887, -1803.7634257988248, 46936.20466425475, 18056.856758219812, 34819.88278864417, 9624.102368843838, 30912.462581689666, 5966.351147455114, 38891.498910367365, 28456.944639318543, 40045.36301438368, 34548.89023886803, 29323.27590266179, 24781.066153176565, 0.07162500000000001, 1.0146875, 0.1385625, 192.0, 0.0, 0.0, 0.0, 0.0, 0.0, 0.0, 0.0, 0.0, 0.0, 1.7074743589301991E9, 0.0, 2024-02-09 11:25:58.930
90.0, -14709.884191737676, -13171.547731345623, 17059.790141557474, -1796.1191291951097, 46833.47604673816, 18004.844248872312, 34760.49420362642, 9591.647635894733, 31099.077296147025, 5980.253932506315, 39225.657489974205, 28498.31771830532, 40549.57366580649, 34715.813066460265, 29480.92275630507, 24962.987001298312, 0.07162500000000001, 1.0146875, 0.1385625, 192.0, 0.0, 0.0, 0.0, 0.0, 0.0, 0.0, 0.0, 0.0, 0.0, 1.7074743589372003E9, 0.0, 2024-02-09 11:25:58.937
92.0, -14700.518810810901, -13168.664356310888, 17081.650147634762, -1796.4991088508498, 46708.86507139982, 17997.13289703523, 34689.035676602805, 9520.16675712666, 30783.828292349375, 5928.934327236931, 38788.9044033175, 28415.39274637613, 39977.748987406376, 34484.45015960338, 29281.925175419474, 24755.115777863954, 0.07162500000000001, 1.0146875, 0.1385625, 192.0, 0.0, 0.0, 0.0, 0.0, 0.0, 0.0, 0.0, 0.0, 0.0, 1.7074743589454284E9, 0.0, 2024-02-09 11:25:58.945
94.0, -14719.71895929801, -13196.42522292438, 17098.95039784317, -1814.7604840708357, 46997.42609231784, 18043.602173757812, 34837.6747772306, 9628.930345646184, 31074.468025501734, 5975.984749315352, 39152.00849199397, 28490.785180423878, 40391.27861157401, 34685.97348761243, 29445.897572743605, 24896.669375499416, 0.0708125, 1.01934375, 0.13728125000000002, 192.0, 1.0, 24.0, 16.0, 0.0, 2.0, 32.0, 0.0, 0.0, 0.0, 1.707474358954198E9, 0.0, 2024-02-09 11:25:58.954
96.0, -14771.373840734226, -13217.882897601474, 17040.1206064368, -1797.884917007079, 46650.23644569355, 17978.826818326335, 34668.80734787075, 9517.864527447764, 30870.843633513887, 5920.17244341045, 38977.24020209792, 28411.81646726328, 40279.4081305752, 34575.68998046994, 29367.934688083493, 24850.781244132668, 0.0708125, 1.01934375, 0.13728125000000002, 192.0, 0.0, 0.0, 0.0, 0.0, 0.0, 0.0, 0.0, 0.0, 0.0, 1.7074743589612105E9, 0.0, 2024-02-09 11:25:58.961
98.0, -14799.380576536725, -13211.75851962072, 17117.502345741075, -1821.1307312405982, 46936.27171948811, 18064.232833890062, 34817.28998628735, 9636.105255616338, 30857.499642074068, 5920.999457955296, 38877.66318054953, 28428.289702926842, 40045.43006961705, 34542.22941902035, 29330.69668182095, 24768.41506581486, 0.0708125, 1.01934375, 0.13728125000000002, 192.0, 0.0, 0.0, 0.0, 0.0, 0.0, 0.0, 0.0, 0.0, 0.0, 1.7074743589692109E9, 0.0, 2024-02-09 11:25:58.969
100.0, -14970.30436638646, -13298.48328810731, 17035.270277890002, -1841.493170439383, 46832.760790915585, 17999.524533691947, 34741.316406883765, 9566.36781291578, 30992.593585561943, 5823.00941026323, 39170.85101256979, 28417.24794116592, 40538.80012497904, 34692.14256908209, 29467.06467474278, 24928.61001832605, 0.0708125, 1.01934375, 0.13728125000000002, 192.0, 0.0, 0.0, 0.0, 0.0, 0.0, 0.0, 0.0, 0.0, 0.0, 1.7074743589772828E9, 0.0, 2024-02-09 11:25:58.977
102.0, -15063.019402387072, -13278.72434600882, 17067.367382927823, -1844.2200832629305, 46720.46562677212, 18003.234923271528, 34707.3417553117, 9538.6516497912, 30647.482651172002, 5610.131396070886, 38718.22818734982, 28320.397832441075, 39969.50119370237, 34451.973074909816, 29260.17692806446, 24710.166419764333, 0.0708125, 1.01934375, 0.13728125000000002, 192.0, 0.0, 0.0, 0.0, 0.0, 0.0, 0.0, 0.0, 0.0, 0.0, 1.7074743589863012E9, 0.0, 2024-02-09 11:25:58.986
104.0, -15230.523375335144, -13432.124368205592, 17085.5840546589, -1888.9459239179998, 47014.324011126046, 18058.19786288713, 34848.71653899152, 9650.566834278921, 30906.427610686736, 5368.710204209114, 39052.25265648993, 28386.67075475106, 40383.72372194812, 34660.917182078025, 29429.334930102224, 24835.87263058098, 0.07040625, 1.023671875, 0.14264062500000002, 192.0, 1.0, 24.0, 16.0, 16.0, 2.0, 80.0, 0.0, 0.0, 0.0, 1.7074743589932828E9, 0.0, 2024-02-09 11:25:58.993
106.0, -15508.512021125796, -13679.714641537028, 17019.288780604456, -1896.4337583105278, 46669.66011162521, 17979.676184615637, 34669.4331967155, 9532.907251466186, 30682.39607601119, 4973.665472706017, 38868.208392644934, 28317.693271361983, 40277.39647357422, 34559.775538417765, 29353.629571632096, 24775.835844974023, 0.07040625, 1.023671875, 0.14264062500000002, 192.0, 0.0, 0.0, 0.0, 0.0, 0.0, 0.0, 0.0, 0.0, 0.0, 1.7074743590012996E9, 0.0, 2024-02-09 11:25:59.001
108.0, -15574.94140564697, -13710.403586674165, 17104.068947323438, -1911.9011654736003, 46951.69442316228, 18062.265880377996, 34812.014974595906, 9701.707625592664, 30628.997758507463, 4606.314552583045, 38735.6401962805, 28333.585361669706, 40036.84699974621, 34525.13033451204, 29307.428515842978, 24662.132520929878, 0.07040625, 1.023671875, 0.14264062500000002, 192.0, 0.0, 0.0, 0.0, 0.0, 0.0, 0.0, 0.0, 0.0, 0.0, 1.7074743590105584E9, 0.0, 2024-02-09 11:25:59.010
110.0, -15808.874763116213, -13887.138830082278, 17024.966123696104, -1926.4968546029156, 46860.94634067373, 18012.823821642854, 34743.99861621841, 9727.099207293893, 30770.730170098566, 4195.936524383607, 39054.10785127972, 28381.596908759704, 40544.87979947088, 34699.451589518976, 29458.79452929432, 24825.38966243144, 0.07040625, 1.023671875, 0.14264062500000002, 192.0, 0.0, 0.0, 0.0, 0.0, 0.0, 0.0, 0.0, 0.0, 0.0, 1.7074743590173123E9, 0.0, 2024-02-09 11:25:59.017
112.0, -15916.118433012776, -13976.590511392416, 17029.436472587167, -1945.2052647120076, 46747.22066488513, 18012.846173387312, 34697.52933949582, 9730.563727684466, 30347.254019648317, 3778.65180714748, 38589.10215963151, 28294.089829217177, 39981.928763619515, 34461.67373200342, 29253.69492217242, 24613.785697673047, 0.07040625, 1.023671875, 0.14264062500000002, 192.0, 0.0, 0.0, 0.0, 0.0, 0.0, 0.0, 0.0, 0.0, 0.0, 1.7074743590253253E9, 0.0, 2024-02-09 11:25:59.025
114.0, -15992.919026961212, -13998.696386658716, 17046.55790883993, -1967.422898700583, 47039.290909682626, 18072.905310738723, 34820.55334097783, 9891.138659851393, 30518.51308566488, 3452.9868904336563, 38951.62510295214, 28378.020629646857, 40400.621640756326, 34670.26021126035, 29422.674110254542, 24765.397580313394, 0.071203125, 1.0228359375, 0.1443203125, 192.0, 1.0, 32.0, 15.5, 120.0, 2.0, 72.0, 0.0, 0.0, 0.0, 1.7074743590333507E9, 0.0, 2024-02-09 11:25:59.033
116.0, -16109.550429529005, -14016.86835490088, 16979.12269581827, -1963.1537155096194, 46698.04682708345, 17994.584798167325, 34661.67714138951, 9774.708422983698, 30164.148529070444, 2916.0085816393594, 38756.31555990167, 28301.532960120796, 40281.37508408727, 34574.68415196945, 29335.23408594538, 24718.928303590812, 0.071203125, 1.0228359375, 0.1443203125, 192.0, 0.0, 0.0, 0.0, 0.0, 0.0, 0.0, 0.0, 0.0, 0.0, 1.7074743590423574E9, 0.0, 2024-02-09 11:25:59.042
118.0, -16138.33947638744, -14041.20940461271, 17057.80083630095, -1978.3529017392282, 46982.159850854856, 18091.30079642544, 34835.46195452952, 9975.4047364479, 29958.579535314984, 2565.2426559022256, 38638.9689015113, 28324.21998074293, 40020.82079897175, 34544.97868358835, 29292.45284705792, 24635.511593283605, 0.071203125, 1.0228359375, 0.1443203125, 192.0, 0.0, 0.0, 0.0, 0.0, 0.0, 0.0, 0.0, 0.0, 0.0, 1.7074743590496385E9, 0.0, 2024-02-09 11:25:59.049
120.0, -16192.96713983621, -14040.047113901033, 16981.69314643063, -1986.555991954326, 46892.64111431135, 18038.215403344086, 34785.32699171627, 9980.947969072815, 29978.249070435653, 2388.9991508721296, 38961.30340830128, 28338.79331812779, 40518.147113102335, 34719.32229033975, 29450.12205244566, 24838.688950382348, 0.071203125, 1.0228359375, 0.1443203125, 192.0, 0.0, 0.0, 0.0, 0.0, 0.0, 0.0, 0.0, 0.0, 0.0, 1.707474359057358E9, 0.0, 2024-02-09 11:25:59.057
122.0, -16184.406421709828, -13970.71200260067, 17017.94767593714, -1975.2013057710299, 46772.76870879754, 18042.95397316861, 34723.59147353071, 9998.896419870427, 29534.432832531078, 2299.3239521174373, 38524.125638499936, 28260.003418922835, 39945.24955096836, 34486.68533404891, 29240.865020855075, 24625.676825723272, 0.071203125, 1.0228359375, 0.1443203125, 192.0, 0.0, 0.0, 0.0, 0.0, 0.0, 0.0, 0.0, 0.0, 0.0, 1.7074743590664256E9, 0.0, 2024-02-09 11:25:59.066
124.0, -16224.907782662844, -13981.53024691704, 17040.36647562581, -1988.4111867441163, 47069.28695074165, 18106.365872188315, 34866.82145200032, 10169.68609925343, 29724.087384234357, 2303.727245775133, 38892.258869678844, 28345.968228097943, 40358.466250713616, 34708.79461870129, 29417.86848519665, 24795.9524149838, 0.0696015625, 1.01541796875, 0.14716015625, 192.0, 1.0, 16.0, 15.5, 64.0, 2.0, 88.0, 0.0, 0.0, 0.0, 1.7074743590734084E9, 0.0, 2024-02-09 11:25:59.073
126.0, -16276.450905376782, -13996.327101746452, 16972.5065794595, -1977.4141284721052, 46729.8310076989, 18031.08519686284, 34714.36020307067, 10064.409382868933, 29455.531174603842, 2273.574742504924, 38726.09600139809, 28268.362971349117, 40256.743461697515, 34622.22631242589, 29347.57224888471, 24769.130321637433, 0.0696015625, 1.01541796875, 0.14716015625, 192.0, 0.0, 0.0, 0.0, 0.0, 0.0, 0.0, 0.0, 0.0, 0.0, 1.7074743590814292E9, 0.0, 2024-02-09 11:25:59.081
128.0, -16273.612233830958, -13957.658583838771, 17046.870833262306, -1993.2168118020072, 47002.9469731983, 18108.623398378302, 34855.44441407257, 10177.844485979616, 29376.20483353196, 2328.962365265175, 38604.54721505013, 28272.83332024018, 39991.91999339104, 34576.539346759244, 29298.80074248323, 24683.143160717867, 0.0696015625, 1.01541796875, 0.14716015625, 192.0, 0.0, 0.0, 0.0, 0.0, 0.0, 0.0, 0.0, 0.0, 0.0, 1.7074743590894115E9, 0.0, 2024-02-09 11:25:59.089
130.0, -16273.36636464195, -13915.123214140322, 16981.73784991954, -1983.2479337749403, 46920.58079488049, 18068.323203125383, 34802.87311111368, 10164.947529428904, 29522.385242269665, 2359.204275513205, 38937.208227778465, 28306.89737879007, 40493.604897690406, 34754.72745355695, 29447.93158148904, 24874.831721166578, 0.0696015625, 1.01541796875, 0.14716015625, 192.0, 0.0, 0.0, 0.0, 0.0, 0.0, 0.0, 0.0, 0.0, 0.0, 1.70747435909844E9, 0.0, 2024-02-09 11:25:59.098
132.0, -16288.878475293932, -13882.735536424583, 17001.809716440406, -1979.7610616399124, 46782.82699380243, 18062.15412165572, 34739.61767430516, 10135.823206403638, 29179.26361313625, 2362.6911476482333, 38498.62229807643, 28234.611837221604, 39919.008602977825, 34529.64538689201, 29229.935017816428, 24673.531910602083, 0.0696015625, 1.01541796875, 0.14716015625, 192.0, 0.0, 0.0, 0.0, 0.0, 0.0, 0.0, 0.0, 0.0, 0.0, 1.7074743591054137E9, 0.0, 2024-02-09 11:25:59.105
134.0, -16279.26722517815, -13863.64714665975, 17029.347065609345, -1987.58417219927, 47080.93220960286, 18118.145241516264, 34881.551251596364, 10273.107620848134, 29431.63715978112, 2435.133151427883, 38851.779860470284, 28311.74770733687, 40309.27006116749, 34738.61184580468, 29389.39236276059, 24825.412014175894, 0.0696015625, 1.01541796875, 0.14716015625, 192.0, 0.0, 0.0, 0.0, 0.0, 0.0, 0.0, 0.0, 0.0, 0.0, 1.7074743591136072E9, 0.0, 2024-02-09 11:25:59.113
136.0, -16313.934780828331, -13845.050495272935, 16959.78843686443, -1965.455945188516, 46744.5831590394, 18045.144444125228, 34742.14342142861, 10172.502419054797, 29243.79309937872, 2456.233198193693, 38696.97167837282, 28251.800328707737, 40216.10799027777, 34655.64217038658, 29317.75502178133, 24805.317795910574, 0.068, 1.008, 0.16, 192.0, 1.0, 16.0, 15.5, 64.0, 2.5, 0.0, 0.0, 0.0, 0.0, 1.7074743591214657E9, 0.0, 2024-02-09 11:25:59.121
138.0, -16291.65009160639, -13832.712332333605, 17035.963181968116, -1979.3140267508063, 47016.33566812702, 18128.11411954333, 34896.63867910369, 10291.592513512673, 29198.799037790184, 2506.7034371737764, 38562.9506186188, 28254.437834553464, 39949.40697543704, 34605.99894595134, 29266.16719557848, 24715.66494890034, 0.068, 1.008, 0.16, 192.0, 0.0, 0.0, 0.0, 0.0, 0.0, 0.0, 0.0, 0.0, 0.0, 1.707474359129468E9, 0.0, 2024-02-09 11:25:59.129
140.0, -16307.676292380846, -13799.967026706581, 16975.322899260867, -1972.519096436393, 46929.76736185162, 18087.523351612494, 34854.08095766079, 10280.908379663037, 29396.656679708565, 2582.364092154991, 38911.4366664215, 28303.119933977123, 40460.77018508556, 34784.8576050827, 29423.38936607711, 24911.242712884276, 0.068, 1.008, 0.16, 192.0, 0.0, 0.0, 0.0, 0.0, 0.0, 0.0, 0.0, 0.0, 0.0, 1.7074743591374834E9, 0.0, 2024-02-09 11:25:59.137
142.0, -16293.862914307467, -13786.131296888745, 16987.862227900296, -1972.2508755029294, 46788.70550259417, 18076.66040380721, 34805.39885823713, 10215.864803298093, 29079.75364682122, 2581.8276502880635, 38460.66903599132, 28213.221217777875, 39886.911497940004, 34541.64827366451, 29217.350985688092, 24699.906969059346, 0.068, 1.008, 0.16, 192.0, 0.0, 0.0, 0.0, 0.0, 0.0, 0.0, 0.0, 0.0, 0.0, 1.7074743591454837E9, 0.0, 2024-02-09 11:25:59.145
144.0, -16286.59859735949, -13746.38989524721, 17019.065263159904, -1975.0224918153874, 47088.71061667331, 18143.670933684225, 34946.12544132775, 10342.889767037603, 29391.38166801711, 2679.974160191317, 38840.805153942725, 28318.207361484452, 40293.802654004416, 34765.67980834005, 29382.440970234988, 24859.58783144806, 0.068, 1.008, 0.16, 192.0, 0.0, 0.0, 0.0, 0.0, 0.0, 0.0, 0.0, 0.0, 0.0, 1.7074743591546648E9, 0.0, 2024-02-09 11:25:59.154
146.0, -16316.460527951782, -13757.364601774765, 16938.330762187335, -1972.228523758474, 46735.173074623715, 18047.401970315215, 34767.93733453004, 10186.740480272829, 29208.857322795073, 2665.1773053619036, 38683.627686933, 28242.412596036505, 40204.887414561206, 34671.35544673866, 29297.66080351601, 24826.23902872074, 0.066, 1.006, 0.16, 192.0, 1.0, 8.0, 15.5, 56.0, 2.5, 0.0, 0.0, 0.0, 0.0, 1.7074743591605523E9, 0.0, 2024-02-09 11:25:59.160
148.0, -16311.453737193793, -13756.179959318633, 17028.497699320043, -1984.5443349533482, 47011.01595294666, 18117.38528220478, 34912.106086266765, 10287.36803381062, 29207.40445940548, 2721.481349644822, 38556.37920574894, 28251.82268045219, 39939.81807706572, 34615.56549257821, 29236.41702370847, 24716.111983789444, 0.066, 1.006, 0.16, 192.0, 0.0, 0.0, 0.0, 0.0, 0.0, 0.0, 0.0, 0.0, 0.0, 1.7074743591695092E9, 0.0, 2024-02-09 11:25:59.169
150.0, -16305.664635379868, -13773.971947905058, 16969.377335235757, -1983.8737826196889, 46925.63228912739, 18059.494264065535, 34860.07122517481, 10257.774324151793, 29420.371880575643, 2746.9623383238722, 38904.23940470689, 28285.1267796906, 40450.82365880295, 34776.699218356516, 29405.35150830168, 24904.157209891942, 0.066, 1.006, 0.16, 192.0, 0.0, 0.0, 0.0, 0.0, 0.0, 0.0, 0.0, 0.0, 0.0, 1.707474359177515E9, 0.0, 2024-02-09 11:25:59.177
152.0, -16276.65207107688, -13749.094456326302, 16978.183922551147, -1984.5666866978036, 46775.093290220895, 18041.81403420139, 34797.44163721104, 10186.472259339364, 29127.72049042231, 2750.1362860365257, 38457.562143512034, 28204.97342407387, 39877.88139318006, 34535.7027096394, 29188.07020045164, 24687.79232356457, 0.066, 1.006, 0.16, 192.0, 0.0, 0.0, 0.0, 0.0, 0.0, 0.0, 0.0, 0.0, 0.0, 1.7074743591845772E9, 0.0, 2024-02-09 11:25:59.184
154.0, -16287.112687481964, -13769.322785058355, 17008.3140740769, -1993.4403292465604, 47071.991511820735, 18106.90231405524, 34940.31398776937, 10296.88987694858, 29433.78292724883, 2816.0739321796814, 38810.51854020578, 28284.165654679022, 40275.74244448453, 34730.65462477859, 29347.013455273325, 24831.983427045754, 0.066, 1.006, 0.16, 192.0, 0.0, 0.0, 0.0, 0.0, 0.0, 0.0, 0.0, 0.0, 0.0, 1.7074743591936493E9, 0.0, 2024-02-09 11:25:59.193
156.0, -16302.445984178305, -13771.96029090408, 16938.73309358753, -1980.5433726958481, 46725.6288797413, 18030.504051507003, 34776.09572125623, 10155.29157582421, 29284.406219054013, 2820.2760601372793, 38666.61800940252, 28219.792630647735, 40192.30338243287, 34635.078565487696, 29273.498567759823, 24806.122458710965, 0.066, 1.008, 0.156, 192.0, 1.0, 8.0, 15.5, 64.0, 2.0, 112.0, 0.0, 0.0, 0.0, 1.707474359201754E9, 0.0, 2024-02-09 11:25:59.201
158.0, -16285.570417114546, -13770.90975891468, 17011.35391132282, -1996.0778350922867, 46985.2890950786, 18112.378491446794, 34927.841714363305, 10276.102754605146, 29292.74341973584, 2879.3964242215666, 38541.448240452795, 28219.16678180299, 39917.48868435487, 34577.90280317102, 29219.340290944612, 24718.861248357447, 0.066, 1.008, 0.156, 192.0, 0.0, 0.0, 0.0, 0.0, 0.0, 0.0, 0.0, 0.0, 0.0, 1.7074743592086613E9, 0.0, 2024-02-09 11:25:59.208
160.0, -16291.13600148392, -13789.372299834766, 16947.539680902923, -1994.2673437914068, 46899.5701550925, 18060.72361001058, 34873.05758870335, 10235.400227952032, 29552.26952460641, 3005.5273181828643, 38891.09657896717, 28258.97523867789, 40436.45148711819, 34749.58655233223, 29385.212586547448, 24918.171753665418, 0.066, 1.008, 0.156, 192.0, 0.0, 0.0, 0.0, 0.0, 0.0, 0.0, 0.0, 0.0, 0.0, 1.707474359216722E9, 0.0, 2024-02-09 11:25:59.216
162.0, -16303.831792334533, -13778.509352029485, 16963.342364232823, -2002.6045444732363, 46752.652138787766, 18022.256257802994, 34819.23458805497, 10130.347029012088, 29336.552838868243, 3084.56308657683, 38449.51551550812, 28172.988077758324, 39866.28083780776, 34496.40834288697, 29178.21308114685, 24700.242245226174, 0.066, 1.008, 0.156, 192.0, 0.0, 0.0, 0.0, 0.0, 0.0, 0.0, 0.0, 0.0, 0.0, 1.707474359225657E9, 0.0, 2024-02-09 11:25:59.225
164.0, -16284.56458861406, -13785.125468388256, 16991.863190157794, -2003.5656694848144, 47052.903122055905, 18084.72938355558, 34970.77941546195, 10258.243710785355, 29716.241921930545, 3218.338277141843, 38818.76633390979, 28257.611782266114, 40259.62683673225, 34685.52645272332, 29351.48380416439, 24839.78418586066, 0.066, 1.008, 0.156, 192.0, 0.0, 0.0, 0.0, 0.0, 0.0, 0.0, 0.0, 0.0, 0.0, 1.7074743592336614E9, 0.0, 2024-02-09 11:25:59.233
166.0, -16307.56453365857, -13800.369358106776, 16920.337607900812, -1992.7250734239906, 46701.71251317412, 17998.22813251354, 34788.14331151763, 10111.52686018072, 29684.144816892724, 3107.8089008103493, 38683.80650088865, 28205.263996751786, 40189.509414375956, 34591.82793996667, 29281.545195763734, 24812.827982047558, 0.07, 1.004, 0.146, 192.0, 1.0, 24.0, 15.5, 48.0, 2.0, 72.0, 0.0, 0.0, 0.0, 1.7074743592407088E9, 0.0, 2024-02-09 11:25:59.240
168.0, -16263.866873248444, -13788.075898656358, 17004.402518797222, -2003.1856898290744, 46975.56608624054, 18068.65847929221, 34959.17886008965, 10194.004797220803, 29798.473989781618, 2989.1658412415795, 38566.9515808763, 28232.510773242808, 39908.100951683635, 34520.43646817642, 29230.136183516526, 24711.082841287, 0.07, 1.004, 0.146, 192.0, 0.0, 0.0, 0.0, 0.0, 0.0, 0.0, 0.0, 0.0, 0.0, 1.707474359248727E9, 0.0, 2024-02-09 11:25:59.248
170.0, -16241.291611348584, -13782.622073009263, 16955.20632925109, -1983.0691198192978, 46913.13766397687, 18038.10364462181, 34921.58322591582, 10172.390660332521, 30152.615028931505, 3037.4456092650425, 38934.86129461066, 28290.89352976007, 40421.83344624442, 34694.556557483265, 29409.374822303635, 24922.306826389653, 0.07, 1.004, 0.146, 192.0, 0.0, 0.0, 0.0, 0.0, 0.0, 0.0, 0.0, 0.0, 0.0, 1.7074743592576897E9, 0.0, 2024-02-09 11:25:59.257
172.0, -16175.10809601642, -13756.157607574178, 16984.129486576257, -1960.7397271084462, 46777.6413890888, 18018.7023304346, 34855.1761931391, 10074.758240551739, 29976.17035820131, 3237.8289983068703, 38527.59015889051, 28248.671084483994, 39862.16811682798, 34462.54545003718, 29222.290721212714, 24739.447205000783, 0.07, 1.004, 0.146, 192.0, 0.0, 0.0, 0.0, 0.0, 0.0, 0.0, 0.0, 0.0, 0.0, 1.7074743592649095E9, 0.0, 2024-02-09 11:25:59.264
174.0, -16078.928539625233, -13774.195465349612, 17030.75522551003, -1944.4006019116166, 47084.64259918244, 18085.891674267255, 35012.24190142655, 10158.77844795924, 30361.96146749991, 3590.0924909225096, 38905.89343379658, 28362.597925972692, 40261.90671466669, 34663.86761234613, 29408.704269969974, 24907.755840749247, 0.07, 1.004, 0.146, 192.0, 0.0, 0.0, 0.0, 0.0, 0.0, 0.0, 0.0, 0.0, 0.0, 1.70747435927271E9, 0.0, 2024-02-09 11:25:59.272
176.0, -16020.366969152328, -13808.080709943857, 16968.55032069091, -1909.8001014948013, 46736.62593801331, 18003.927827349642, 34842.43569879958, 9980.299768483612, 30310.15012385251, 3820.13664485653, 38794.313525475685, 28320.487239418893, 40190.269373687435, 34576.3605328036, 29374.640211420086, 24904.090154658577, 0.066, 1.014, 0.136, 192.0, 1.0, 8.0, 15.5, 88.0, 2.0, 32.0, 0.0, 0.0, 0.0, 1.7074743592820323E9, 0.0, 2024-02-09 11:25:59.282
178.0, -15874.052449947889, -13808.885372744247, 17053.598708343354, -1908.0119619383768, 46990.07236839204, 18077.845046263345, 34968.00779914949, 10014.922620644882, 30366.67768557998, 4100.248706370438, 38689.88617538049, 28353.411359001562, 39909.79968426224, 34519.94472979841, 29346.81228957323, 24815.73370882675, 0.066, 1.014, 0.136, 192.0, 0.0, 0.0, 0.0, 0.0, 0.0, 0.0, 0.0, 0.0, 0.0, 1.7074743592897573E9, 0.0, 2024-02-09 11:25:59.289
180.0, -15799.621140911717, -13815.993227481036, 17009.163440366203, -1885.32494131624, 46911.88596628737, 18038.32716206636, 34883.13822545269, 9906.24843910318, 30656.535107676402, 4344.597976755855, 39062.31094149482, 28408.262539894884, 40442.419402887754, 34694.891833650094, 29516.97612011148, 25011.55734199969, 0.066, 1.014, 0.136, 192.0, 0.0, 0.0, 0.0, 0.0, 0.0, 0.0, 0.0, 0.0, 0.0, 1.707474359296789E9, 0.0, 2024-02-09 11:25:59.296
182.0, -15664.057810790278, -13776.654157239695, 17047.586089084874, -1861.4979817268827, 46768.74539479559, 18032.26983931897, 34812.774933907385, 9779.804620719508, 30414.197494291962, 4548.647051888353, 38654.212791229824, 28356.317085780753, 39887.067960151195, 34461.9866564258, 29340.531449381288, 24818.907656539403, 0.066, 1.014, 0.136, 192.0, 0.0, 0.0, 0.0, 0.0, 0.0, 0.0, 0.0, 0.0, 0.0, 1.7074743593048055E9, 0.0, 2024-02-09 11:25:59.304
184.0, -15535.401169705532, -13728.039113049403, 17078.90088306676, -1872.785612676813, 47056.30058721311, 18073.553511327926, 34928.15463878568, 9810.784138534564, 30769.009085775506, 4782.893333779971, 39021.07197297478, 28449.613267137203, 40272.50144153851, 34651.66355987353, 29504.146218794136, 24950.31356219215, 0.066, 1.014, 0.136, 192.0, 0.0, 0.0, 0.0, 0.0, 0.0, 0.0, 0.0, 0.0, 0.0, 1.7074743593137925E9, 0.0, 2024-02-09 11:25:59.313
186.0, -15478.49362832232, -13699.339473168788, 17020.3169608494, -1845.427077463517, 46705.95934462063, 17988.236902742017, 34734.186200402524, 9600.94596158814, 30651.52831691841, 4889.667617042973, 38918.76803860284, 28388.593004774215, 40223.97580432604, 34571.376093790066, 29436.01810169436, 24903.419602324917, 0.064, 1.032, 0.134, 192.0, 1.0, 0.0, 16.0, 32.0, 2.0, 24.0, 0.0, 0.0, 0.0, 1.7074743593207903E9, 0.0, 2024-02-09 11:25:59.320
188.0, -15328.379312560477, -13619.387283252156, 17112.562610216453, -1836.776952359313, 46970.71575769374, 18089.602063846836, 34877.10325444976, 9687.648378330276, 30665.274639758427, 5057.216293479954, 38805.86937735908, 28423.86405752469, 39964.91908608903, 34529.712442125376, 29388.878272638118, 24797.874665006955, 0.064, 1.032, 0.134, 192.0, 0.0, 0.0, 0.0, 0.0, 0.0, 0.0, 0.0, 0.0, 0.0, 1.707474359329049E9, 0.0, 2024-02-09 11:25:59.329
190.0, -15285.151038783913, -13590.799402093817, 17067.27797595, -1818.9402602839782, 46903.68287607228, 18058.95782219861, 34835.8195824408, 9655.305404103447, 30908.439267687714, 5184.1742019860985, 39182.451567942095, 28481.330392519285, 40521.566930003995, 34716.28245309382, 29562.81954798932, 25001.76727792827, 0.064, 1.032, 0.134, 192.0, 0.0, 0.0, 0.0, 0.0, 0.0, 0.0, 0.0, 0.0, 0.0, 1.7074743593368442E9, 0.0, 2024-02-09 11:25:59.336
192.0, -15204.4388895558, -13538.138692157114, 17080.75607785655, -1818.6273358616038, 46754.23911264409, 18033.879164919756, 34751.955837244495, 9571.955749029607, 30625.644996839168, 5240.791170691392, 38757.23198142433, 28411.10121144071, 39973.412748982046, 34481.186804912904, 29365.923031082515, 24804.647243576914, 0.064, 1.032, 0.134, 192.0, 0.0, 0.0, 0.0, 0.0, 0.0, 0.0, 0.0, 0.0, 0.0, 1.7074743593458085E9, 0.0, 2024-02-09 11:25:59.345
194.0, -15117.222382691192, -13492.116450323636, 17126.353636545377, -1818.3144114392296, 47064.995415806225, 18090.540837113957, 34910.04972577688, 9684.407375384257, 30935.551933712, 5359.411878515706, 39122.50418931296, 28515.394451069173, 40362.95895134914, 34681.279621276815, 29525.626245215684, 24944.74797782278, 0.064, 1.032, 0.134, 192.0, 0.0, 0.0, 0.0, 0.0, 0.0, 0.0, 0.0, 0.0, 0.0, 1.707474359352877E9, 0.0, 2024-02-09 11:25:59.352
196.0, -15113.511993111611, -13489.031909588804, 17056.169158955712, -1809.0384374902771, 46710.630859211786, 17993.109583033274, 34725.938406698515, 9537.869338735263, 30802.559054202924, 5378.746137469547, 39008.57734782426, 28459.738607375457, 40312.89104376925, 34592.766713233796, 29471.91500328958, 24919.69167228838, 0.07, 1.02, 0.138, 192.0, 1.0, 24.0, 15.5, 112.0, 2.0, 40.0, 0.0, 0.0, 0.0, 1.7074743593609197E9, 0.0, 2024-02-09 11:25:59.360
198.0, -15012.236238984615, -13448.441141657966, 17126.800671434485, -1823.947051041967, 46956.83532438699, 18061.796493744434, 34851.711672748526, 9620.481386242078, 30774.977001545074, 5448.148304003275, 38864.90033446554, 28471.562680192314, 40016.126932636136, 34526.985529301826, 29407.564331002755, 24809.0058337457, 0.07, 1.02, 0.138, 192.0, 0.0, 0.0, 0.0, 0.0, 0.0, 0.0, 0.0, 0.0, 0.0, 1.707474359369858E9, 0.0, 2024-02-09 11:25:59.369
200.0, -15018.78530011002, -13464.467342432421, 17061.622984602807, -1822.9635742859334, 46880.05708218302, 18014.321388521363, 34791.250203996926, 9575.889656053741, 31003.83651302296, 5499.758481950579, 39221.09773410532, 28506.990195153976, 40539.82830522398, 34701.2397290754, 29563.98183870099, 24990.725516167346, 0.07, 1.02, 0.138, 192.0, 0.0, 0.0, 0.0, 0.0, 0.0, 0.0, 0.0, 0.0, 0.0, 1.7074743593769002E9, 0.0, 2024-02-09 11:25:59.376
202.0, -14966.370459362324, -13435.27596417379, 17075.90574930975, -1819.811978317735, 46718.43161802669, 17997.98226332453, 34708.3922873011, 9498.910248149663, 30697.908186663175, 5476.736185161613, 38785.015199782276, 28423.126449957665, 39973.122176304125, 34470.212098385346, 29342.85603080464, 24773.868891461956, 0.07, 1.02, 0.138, 192.0, 0.0, 0.0, 0.0, 0.0, 0.0, 0.0, 0.0, 0.0, 0.0, 1.707474359384863E9, 0.0, 2024-02-09 11:25:59.384
204.0, -14911.452223235634, -13412.924219718483, 17108.516944470044, -1829.8702633226233, 47024.73992404222, 18078.895578252745, 34871.69413229157, 9657.473523315612, 30996.505140841622, 5581.409404445816, 39133.92593072962, 28520.356538338252, 40358.957989091636, 34678.03861833079, 29499.228835013968, 24917.992939709777, 0.07, 1.02, 0.138, 192.0, 0.0, 0.0, 0.0, 0.0, 0.0, 0.0, 0.0, 0.0, 0.0, 1.707474359393165E9, 0.0, 2024-02-09 11:25:59.393
206.0, -14939.77188346051, -13421.641400056053, 17032.65512378873, -1822.4047806745507, 46670.88945757025, 17990.51678067646, 34675.334057251705, 9503.06767261835, 30844.15565063425, 5548.641747074335, 39006.61039431219, 28448.070996769788, 40306.47609311058, 34587.737570731355, 29429.96077894697, 24897.474038299806, 0.074, 1.018, 0.136, 192.0, 1.0, 40.0, 15.5, 104.0, 2.0, 32.0, 0.0, 0.0, 0.0, 1.7074743594019463E9, 0.0, 2024-02-09 11:25:59.401
208.0, -14851.594251584322, -13380.469486769378, 17122.442081265697, -1825.690487109481, 46942.39609746887, 18083.634148077268, 34856.56200129533, 9635.85938642733, 30806.93999611616, 5584.292779480551, 38860.11706115211, 28464.231308010974, 40016.90924369207, 34528.9524828139, 29376.070723065226, 24795.035993461133, 0.074, 1.018, 0.136, 192.0, 0.0, 0.0, 0.0, 0.0, 0.0, 0.0, 0.0, 0.0, 0.0, 1.7074743594089663E9, 0.0, 2024-02-09 11:25:59.408
210.0, -14871.80022857192, -13386.526809516765, 17076.28572896549, -1807.9655537564224, 46889.44481485424, 18053.03460991795, 34839.194695853555, 9626.09167410036, 31036.492411672167, 5629.2868410690835, 39234.44172554514, 28522.524657550417, 40553.95460771974, 34727.86065672167, 29564.942963712572, 25005.09768785211, 0.074, 1.018, 0.136, 192.0, 0.0, 0.0, 0.0, 0.0, 0.0, 0.0, 0.0, 0.0, 0.0, 1.707474359416932E9, 0.0, 2024-02-09 11:25:59.416
212.0, -14828.862527473275, -13357.514245213777, 17092.446040206676, -1800.5447745972604, 46724.10896111834, 18034.57206899787, 34748.58072383174, 9548.776990029453, 30727.904227722196, 5610.332561770983, 38800.63906915654, 28450.864964826702, 39988.54487997829, 34492.47443586283, 29357.362312956135, 24803.261435420685, 0.074, 1.018, 0.136, 192.0, 0.0, 0.0, 0.0, 0.0, 0.0, 0.0, 0.0, 0.0, 0.0, 1.7074743594259748E9, 0.0, 2024-02-09 11:25:59.425
214.0, -14795.245503812494, -13345.868986352561, 17128.96879064665, -1811.6088881026374, 47032.4512758793, 18092.95482551513, 34885.79808304287, 9671.19749441117, 31022.656681854332, 5685.74734756319, 39146.77818379142, 28541.814213015346, 40356.275779757, 34691.561423726256, 29509.957672352517, 24935.404948640462, 0.074, 1.018, 0.136, 192.0, 0.0, 0.0, 0.0, 0.0, 0.0, 0.0, 0.0, 0.0, 0.0, 1.7074743594329903E9, 0.0, 2024-02-09 11:25:59.432
216.0, -14866.726382580566, -13381.140039103037, 17047.966068740614, -1814.268745692819, 46685.03811181046, 17986.828742841335, 34689.25919404736, 9525.441768818113, 30863.981647966106, 5647.92819594481, 39021.67547007507, 28470.31098250282, 40305.35850588781, 34592.1632161335, 29445.271723898855, 24907.286454115685, 0.07200000000000001, 1.012, 0.14200000000000002, 192.0, 1.0, 32.0, 15.5, 80.0, 2.0, 56.0, 0.0, 0.0, 0.0, 1.7074743594409974E9, 0.0, 2024-02-09 11:25:59.440
218.0, -14783.220265295538, -13332.815567590664, 17126.420691778745, -1824.1929202309752, 46935.15413226535, 18056.990868686542, 34814.83129439727, 9612.814737893908, 30807.230568794083, 5677.141925947896, 38865.23561063238, 28477.73176166198, 40007.40975229857, 34525.75618335679, 29374.05906606425, 24787.034068946134, 0.07200000000000001, 1.012, 0.14200000000000002, 192.0, 0.0, 0.0, 0.0, 0.0, 0.0, 0.0, 0.0, 0.0, 0.0, 1.7074743594490197E9, 0.0, 2024-02-09 11:25:59.449
220.0, -14884.317205466892, -13388.449059539922, 17059.65603109074, -1835.0335162917993, 46876.05611992552, 18017.003597855997, 34776.45334916751, 9581.99168229004, 31010.743202059653, 5697.861993057966, 39212.38055376775, 28502.78806719638, 40538.8671802124, 34709.12989486813, 29529.627207473186, 24959.56718439665, 0.07200000000000001, 1.012, 0.14200000000000002, 192.0, 0.0, 0.0, 0.0, 0.0, 0.0, 0.0, 0.0, 0.0, 0.0, 1.707474359457254E9, 0.0, 2024-02-09 11:25:59.457
222.0, -14912.033368591472, -13355.234367279336, 17072.307118452445, -1836.2405104923857, 46717.09051335937, 18001.759708137477, 34705.754781455376, 9512.187184356117, 30676.092884074795, 5602.420044233804, 38765.39036815052, 28402.09345842522, 39986.0861880882, 34459.885592447, 29321.934797994472, 24745.482176003716, 0.07200000000000001, 1.012, 0.14200000000000002, 192.0, 0.0, 0.0, 0.0, 0.0, 0.0, 0.0, 0.0, 0.0, 0.0, 1.707474359464992E9, 0.0, 2024-02-09 11:25:59.464
224.0, -14986.419974138735, -13382.36938504808, 17107.801688647472, -1861.4309264935168, 47029.09851421101, 18062.95878445611, 34863.51339382093, 9639.77094170701, 30920.151581782295, 5559.5493983685255, 39088.149558085155, 28465.952392334035, 40357.81805012441, 34654.59163839718, 29478.776988837362, 24875.25640431123, 0.07200000000000001, 1.012, 0.14200000000000002, 192.0, 0.0, 0.0, 0.0, 0.0, 0.0, 0.0, 0.0, 0.0, 0.0, 1.7074743594730155E9, 0.0, 2024-02-09 11:25:59.473
226.0, -15177.125057831414, -13498.553752726764, 17027.581277797377, -1878.1500313460865, 46676.924428573184, 17960.811312295355, 34678.79857764227, 9487.73437592201, 30731.5028585795, 5352.035802845455, 38933.05080330978, 28370.42103653205, 40319.06012523891, 34571.06316936769, 29408.01136589186, 24832.408110190405, 0.07, 1.018, 0.136, 192.0, 1.0, 24.0, 15.5, 104.0, 2.0, 32.0, 0.0, 0.0, 0.0, 1.707474359482362E9, 0.0, 2024-02-09 11:25:59.482
228.0, -15205.62353201193, -13508.992017387392, 17105.991197346593, -1898.5795257782372, 46926.81693158352, 18038.66243823319, 34814.78659090836, 9592.742871373042, 30653.741139619488, 5162.828286031281, 38756.91905700196, 28363.290830050806, 40015.411676813565, 34501.01280224476, 29332.596580099653, 24697.336518446988, 0.07, 1.018, 0.136, 192.0, 0.0, 0.0, 0.0, 0.0, 0.0, 0.0, 0.0, 0.0, 0.0, 1.7074743594880984E9, 0.0, 2024-02-09 11:25:59.488
230.0, -15434.326581278632, -13732.867089851748, 17035.4714435901, -1914.136339919131, 46860.65576799581, 17992.46138244407, 34756.47088962446, 9606.980932591074, 30857.656104285255, 4864.007814408281, 39105.29334608238, 28409.46953409547, 40549.55131406204, 34687.7392754244, 29485.571919151775, 24857.375008746985, 0.07, 1.018, 0.136, 192.0, 0.0, 0.0, 0.0, 0.0, 0.0, 0.0, 0.0, 0.0, 0.0, 1.7074743594971035E9, 0.0, 2024-02-09 11:25:59.497
232.0, -15535.334114472165, -13790.199314379612, 17048.435455374176, -1906.5367468043264, 46701.44429224066, 17990.785001609922, 34658.39143495458, 9588.496039926535, 30503.202140712994, 4509.3750368803785, 38639.3712329115, 28314.295806204776, 39988.70134218947, 34462.72426399282, 29271.59866948112, 24639.892535196846, 0.07, 1.018, 0.136, 192.0, 0.0, 0.0, 0.0, 0.0, 0.0, 0.0, 0.0, 0.0, 0.0, 1.7074743595051053E9, 0.0, 2024-02-09 11:25:59.505
234.0, -15694.478534993952, -13950.751894802082, 17075.972804543115, -1933.4482471285162, 47022.90708099688, 18050.173586627672, 34840.75931796543, 9761.051507121505, 30750.390082644237, 4242.204635406093, 38966.26549557036, 28408.977795717456, 40360.209686781134, 34661.0289408003, 29431.68186327003, 24766.93985068081, 0.07, 1.018, 0.136, 192.0, 0.0, 0.0, 0.0, 0.0, 0.0, 0.0, 0.0, 0.0, 0.0, 1.707474359513074E9, 0.0, 2024-02-09 11:25:59.513
236.0, -15855.008763671967, -14029.608849240405, 17012.292684589946, -1910.5600608062819, 46686.08864379986, 17984.101830017786, 34707.900548923084, 9718.627896145332, 30532.035891060343, 3809.8995458959994, 38847.75654646833, 28339.106242550166, 40332.85115156784, 34588.72104748739, 29384.474978980423, 24750.041931872598, 0.07200000000000001, 1.0190000000000001, 0.134, 192.0, 1.0, 40.0, 15.5, 112.0, 2.0, 16.0, 0.0, 0.0, 0.0, 1.7074743595211084E9, 0.0, 2024-02-09 11:25:59.521
238.0, -15949.578994462372, -14048.227852371676, 17080.979595301105, -1934.297613417818, 46938.35043172246, 18062.422342589183, 34849.02946341389, 9844.937604062272, 30389.096485268652, 3361.4788486336292, 38686.08637882309, 28329.919675579033, 40029.0015374424, 34517.329575697135, 29312.636472301063, 24643.982904432167, 0.07200000000000001, 1.0190000000000001, 0.134, 192.0, 0.0, 0.0, 0.0, 0.0, 0.0, 0.0, 0.0, 0.0, 0.0, 1.7074743595294423E9, 0.0, 2024-02-09 11:25:59.529
240.0, -16036.147300737775, -14069.59612007095, 17024.809661484916, -1936.8010087968123, 46902.542937105056, 18035.063807375886, 34815.3677362642, 9861.76846763712, 30485.812483526766, 2945.6246430426413, 39047.13410700967, 28366.442426019006, 40565.666921814314, 34717.19887461649, 29489.39406745363, 24846.377950474973, 0.07200000000000001, 1.0190000000000001, 0.134, 192.0, 0.0, 0.0, 0.0, 0.0, 0.0, 0.0, 0.0, 0.0, 0.0, 1.7074743595371523E9, 0.0, 2024-02-09 11:25:59.537
242.0, -16057.962603326156, -14039.711837734205, 17031.112853421313, -1946.2557967014072, 46743.62203402782, 18017.249467045007, 34729.49233406691, 9824.619868352398, 30019.823315122525, 2603.106511009516, 38592.23140385526, 28258.461148555416, 39999.18431033901, 34475.35299961007, 29275.97961139436, 24634.2151921052, 0.07200000000000001, 1.0190000000000001, 0.134, 192.0, 0.0, 0.0, 0.0, 0.0, 0.0, 0.0, 0.0, 0.0, 0.0, 1.7074743595441463E9, 0.0, 2024-02-09 11:25:59.544
244.0, -16118.66994126677, -14063.427038601285, 17059.141940968268, -1967.0429190448428, 47059.22866573676, 18076.168665429195, 34880.41131262914, 10010.251106053724, 30160.97458135779, 2509.1621290638604, 38916.577567646214, 28344.33655075271, 40356.923980346204, 34666.57217342522, 29434.989921449414, 24769.510301293172, 0.07200000000000001, 1.0190000000000001, 0.134, 192.0, 0.0, 0.0, 0.0, 0.0, 0.0, 0.0, 0.0, 0.0, 0.0, 1.7074743595531783E9, 0.0, 2024-02-09 11:25:59.553
246.0, -16166.77089533459, -14046.126788392878, 16982.296643530924, -1961.9020178201222, 46705.33349577588, 17986.001728296487, 34697.32817379572, 9936.423294117843, 29886.62926991335, 2403.661895234811, 38778.66730435697, 28270.50873881683, 40322.189369462656, 34581.099102628126, 29368.314667739236, 24753.349990051986, 0.07300000000000001, 1.0125000000000002, 0.137, 192.0, 1.0, 40.0, 15.5, 56.0, 2.0, 48.0, 0.0, 0.0, 0.0, 1.7074743595611792E9, 0.0, 2024-02-09 11:25:59.561
248.0, -16160.668869098292, -13993.935465089735, 17056.504435122544, -1977.838811616756, 46941.81495211303, 18062.28823212245, 34830.79043993836, 10077.261635930734, 29742.482869921074, 2413.3849040728696, 38614.44903784383, 28277.102503431142, 40012.550653523285, 34513.52977913973, 29291.55877727971, 24645.703988755227, 0.07300000000000001, 1.0125000000000002, 0.137, 192.0, 0.0, 0.0, 0.0, 0.0, 0.0, 0.0, 0.0, 0.0, 0.0, 1.7074743595691884E9, 0.0, 2024-02-09 11:25:59.569
250.0, -16208.792174910568, -13957.300955927487, 16998.278140816466, -1970.7533086244237, 46890.94238173275, 18029.699388706613, 34797.62045116669, 10092.550229138164, 29894.51943570607, 2441.8386747644754, 38968.947704905004, 28312.70883234845, 40538.2189796232, 34699.518644752345, 29457.028741482347, 24848.031979564665, 0.07300000000000001, 1.0125000000000002, 0.137, 192.0, 0.0, 0.0, 0.0, 0.0, 0.0, 0.0, 0.0, 0.0, 0.0, 1.7074743595771947E9, 0.0, 2024-02-09 11:25:59.577
252.0, -16189.972006079199, -13930.300048625477, 17004.80485019742, -1968.518134178893, 46727.908757675745, 18013.60613269879, 34714.38255481512, 10034.100417387535, 29522.720518436498, 2411.037970905062, 38527.76897284615, 28237.986950634357, 39976.29612401678, 34464.065368660136, 29252.39852099401, 24659.092683683957, 0.07300000000000001, 1.0125000000000002, 0.137, 192.0, 0.0, 0.0, 0.0, 0.0, 0.0, 0.0, 0.0, 0.0, 0.0, 1.7074743595854356E9, 0.0, 2024-02-09 11:25:59.585
254.0, -16201.170230051308, -13916.956057185658, 17035.113815678815, -1985.8407361317559, 47041.68254633934, 18069.083162436862, 34874.37634162621, 10160.387773560022, 29768.61205918933, 2466.1573727318496, 38855.8702297056, 28302.248215943364, 40317.47315138258, 34653.33994070768, 29393.080400595714, 24788.218711402264, 0.07300000000000001, 1.0125000000000002, 0.137, 192.0, 0.0, 0.0, 0.0, 0.0, 0.0, 0.0, 0.0, 0.0, 0.0, 1.7074743595932E9, 0.0, 2024-02-09 11:25:59.593
0.0, -16212.30139879005, -13870.799704885449, 16959.98960256453, -1970.6639016466024, 46700.706684673634, 17985.04060328491, 34721.57981652973, 10044.98571693727, 29603.47737115352, 2451.7404975581762, 38757.0978709576, 28241.630284980572, 40278.625819519264, 34577.54517525973, 29341.537277881776, 24789.828037003048, 0.07150000000000001, 1.0132500000000002, 0.14250000000000002, 192.0, 1.0, 24.0, 15.5, 88.0, 2.0, 80.0, 0.0, 0.0, 0.0, 1.70747435960029E9, 0.0, 2024-02-09 11:25:59.600
2.0, -16188.452087456239, -13830.231288699066, 17033.95152496714, -1982.0409395743538, 46941.81495211303, 18065.171607157186, 34853.36570183822, 10170.021375420258, 29531.147126096148, 2517.432274512324, 38580.09440661602, 28239.0151308793, 39949.29521671477, 34508.366526170554, 29254.20901229489, 24671.341439645465, 0.07150000000000001, 1.0132500000000002, 0.14250000000000002, 192.0, 0.0, 0.0, 0.0, 0.0, 0.0, 0.0, 0.0, 0.0, 0.0, 1.7074743596092489E9, 0.0, 2024-02-09 11:25:59.609
4.0, -16199.15857305033, -13825.336256663353, 16973.579463193353, -1984.8125558868119, 46907.19209995176, 18023.150327581207, 34857.34431235127, 10167.182703874434, 29759.201974773645, 2572.194048427826, 38952.318007030255, 28279.672954043504, 40490.72152265567, 34702.044391875796, 29430.00548243588, 24872.976526376788, 0.07150000000000001, 1.0132500000000002, 0.14250000000000002, 192.0, 0.0, 0.0, 0.0, 0.0, 0.0, 0.0, 0.0, 0.0, 0.0, 1.707474359617248E9, 0.0, 2024-02-09 11:25:59.617
6.0, -16183.11002053142, -13774.553093260896, 16986.25290229951, -1972.1614685251081, 46734.77074322352, 18015.90836237769, 34777.392122434634, 10106.520069422731, 29447.64100881112, 2590.455423647812, 38506.02072549114, 28196.77033385877, 39940.3768706771, 34464.17712738241, 29215.898122298495, 24667.519291343608, 0.07150000000000001, 1.0132500000000002, 0.14250000000000002, 192.0, 0.0, 0.0, 0.0, 0.0, 0.0, 0.0, 0.0, 0.0, 0.0, 1.7074743596242793E9, 0.0, 2024-02-09 11:25:59.624
