%OpenBCI Raw EXG Data
%Number of channels = 16
%Sample Rate = 125 Hz
%Board = OpenBCI_GUI$BoardCytonSerialDaisy
Sample Index, EXG Channel 0, EXG Channel 1, EXG Channel 2, EXG Channel 3, EXG Channel 4, EXG Channel 5, EXG Channel 6, EXG Channel 7, EXG Channel 8, EXG Channel 9, EXG Channel 10, EXG Channel 11, EXG Channel 12, EXG Channel 13, EXG Channel 14, EXG Channel 15, Accel Channel 0, Accel Channel 1, Accel Channel 2, Other, Other, Other, Other, Other, Other, Other, Analog Channel 0, Analog Channel 1, Analog Channel 2, Timestamp, Other, Timestamp (Formatted)
0.0, -10264.83747539967, -17077.33626095489, 18518.688502155364, -994.920849194628, 47214.126254812036, 18822.20284011398, 35453.19711604084, 10460.683460317072, 0.0, 0.0, 0.0, 0.0, 0.0, 0.0, 0.0, 0.0, 0.0, 0.0, 0.0, 192.0, 0.0, 0.0, 0.0, 0.0, 0.0, 0.0, 0.0, 0.0, 0.0, 1.7074745094173944E9, 0.0, 2024-02-09 11:28:29.417
64.0, -10349.125903740634, -17109.81334564845, 18445.553594297602, -986.8742211907174, 46914.23289945518, 18743.502347886842, 35308.69308813728, 10343.225043204433, 32108.12444783741, 2436.116628183917, 39080.28174403688, 28315.79337308328, 40849.60113163008, 35379.659876782884, 29940.295808350544, 24887.236939339276, 0.0, 0.0, 0.0, 192.0, 0.0, 0.0, 0.0, 0.0, 0.0, 0.0, 0.0, 0.0, 0.0, 1.7074745094175005E9, 0.0, 2024-02-09 11:28:29.417
0.0, -4710.384274766955, -7954.67292722141, 9643.995421409061, -184.35718826737266, 23586.655984718323, 9623.09654034335, 17821.492889105426, 5436.637155608792, 16050.139492766797, 1223.3780292723216, 19493.246912151208, 14168.368478818951, 20307.565666146955, 17673.189064644466, 14944.666915496222, 12394.221114423408, 0.094, 1.03, 0.08600000000000001, 192.0, 1.0, 120.0, 16.0, 24.0, 1.0, 88.0, 0.0, 0.0, 0.0, 1.707474509525318E9, 0.0, 2024-02-09 11:28:29.525
2.0, -9331.853310090699, -15881.987319229524, 19345.434826068264, -406.3770659419377, 47456.843847852215, 19316.176392576264, 35766.255648881874, 10986.441193394803, 32983.41876070723, 2957.8957507486048, 39230.15019060972, 28569.79859707339, 40900.71957119937, 35893.03474343238, 30289.76533290927, 24871.300145542642, 0.094, 1.03, 0.08600000000000001, 192.0, 0.0, 0.0, 0.0, 0.0, 0.0, 0.0, 0.0, 0.0, 0.0, 1.707474509532313E9, 0.0, 2024-02-09 11:28:29.532
4.0, -9418.19809892155, -15940.973572847079, 19278.15607525779, -415.6083364019795, 47390.86149822015, 19275.943252556714, 35751.59290451919, 10963.21773090574, 33171.441635065275, 2886.280761513801, 39537.866656525934, 28583.36610595776, 41396.92829810719, 36047.55235285191, 30430.64837821107, 25016.027690890754, 0.094, 1.03, 0.08600000000000001, 192.0, 0.0, 0.0, 0.0, 0.0, 0.0, 0.0, 0.0, 0.0, 0.0, 1.7074745095394006E9, 0.0, 2024-02-09 11:28:29.539
6.0, -9415.202965164539, -15939.00661933501, 19274.62449963385, -428.30412725259396, 47254.22528436486, 19267.538996641517, 35689.432703188984, 10921.151747840851, 32845.21792474007, 2779.8864579065394, 39116.89390145468, 28489.466427501015, 40849.66818686345, 35826.96298682249, 30248.32519868913, 24850.53537494366, 0.094, 1.03, 0.08600000000000001, 192.0, 0.0, 0.0, 0.0, 0.0, 0.0, 0.0, 0.0, 0.0, 0.0, 1.7074745095473397E9, 0.0, 2024-02-09 11:28:29.547
8.0, -9362.8104761613, -15922.019293548978, 19303.59236044793, -437.17776980135085, 47537.6230523137, 19324.893572913836, 35813.21666398247, 11010.625780895447, 33115.18229427127, 2793.923353424472, 39439.027242544566, 28570.066818006853, 41220.26010993244, 36024.03831768493, 30381.407485176027, 24953.64397211599, 0.09, 1.03, 0.078, 192.0, 1.0, 104.0, 16.0, 24.0, 1.0, 56.0, 0.0, 0.0, 0.0, 1.7074745095553124E9, 0.0, 2024-02-09 11:28:29.555
10.0, -9463.01334655444, -15973.45065754064, 19232.960847969156, -436.21664478977266, 47205.11850179655, 19229.38456885631, 35651.34533063714, 10865.562959380504, 32958.697731339664, 2715.6475443419868, 39308.78362760349, 28503.03393638539, 41145.44882124053, 35939.571075388325, 30320.63309200205, 24919.043471699177, 0.09, 1.03, 0.078, 192.0, 0.0, 0.0, 0.0, 0.0, 0.0, 0.0, 0.0, 0.0, 0.0, 1.707474509563666E9, 0.0, 2024-02-09 11:28:29.563
12.0, -9367.303176796815, -15924.567392416882, 19308.1074128279, -450.16413332988424, 47448.5513506593, 19290.38247947484, 35761.427672079524, 10925.890317665377, 32914.12835289578, 2702.2812011577134, 39176.90833531718, 28505.179703853097, 40877.00437033229, 35873.52167052289, 30265.066655286155, 24821.165182729386, 0.09, 1.03, 0.078, 192.0, 0.0, 0.0, 0.0, 0.0, 0.0, 0.0, 0.0, 0.0, 0.0, 1.7074745095715349E9, 0.0, 2024-02-09 11:28:29.571
14.0, -9446.473055657514, -15972.82480869589, 19249.054103976978, -447.88425539544295, 47372.55541951125, 19253.367990656854, 35704.63188941859, 10898.978817341187, 33119.94321584025, 2706.0809977151152, 39505.76955148811, 28550.911373008654, 41379.29277173195, 36037.96345448059, 30412.230540779896, 24977.26976600525, 0.09, 1.03, 0.078, 192.0, 0.0, 0.0, 0.0, 0.0, 0.0, 0.0, 0.0, 0.0, 0.0, 1.7074745095804253E9, 0.0, 2024-02-09 11:28:29.580
16.0, -9444.595509123268, -15970.187302850165, 19261.19110121621, -454.34390954302665, 47228.85605440808, 19229.47397583413, 35659.88369701907, 10838.472645100672, 32799.799180006885, 2632.163778801415, 39087.90368889614, 28456.497604429438, 40830.13276220951, 35803.22543421095, 30225.951102489365, 24803.887284265435, 0.09, 1.03, 0.078, 192.0, 0.0, 0.0, 0.0, 0.0, 0.0, 0.0, 0.0, 0.0, 0.0, 1.707474509586382E9, 0.0, 2024-02-09 11:28:29.586
18.0, -9389.632569507667, -15951.478892741072, 19294.495200454618, -460.04360437913, 47510.48803454495, 19297.691499911725, 35777.61033506517, 10952.287727867095, 33061.71692153417, 2672.642788009976, 39417.81543705647, 28536.02511120142, 41186.73249324948, 35973.09869207128, 30368.376418158583, 24916.137744919986, 0.088, 1.034, 0.078, 192.0, 1.0, 96.0, 16.0, 40.0, 1.0, 56.0, 0.0, 0.0, 0.0, 1.70747450959542E9, 0.0, 2024-02-09 11:28:29.595
20.0, -9498.306751049371, -16006.240666656575, 19220.913257707747, -456.8696566664764, 47174.563667126145, 19212.307836092456, 35614.487304030336, 10818.356075090895, 32910.529722038475, 2619.6244501619876, 39297.518348398014, 28475.608345938726, 41105.46155040998, 35883.53525203887, 30313.346423309617, 24895.775305721203, 0.088, 1.034, 0.078, 192.0, 0.0, 0.0, 0.0, 0.0, 0.0, 0.0, 0.0, 0.0, 0.0, 1.707474509603398E9, 0.0, 2024-02-09 11:28:29.603
22.0, -9399.824964979287, -15957.424456766184, 19297.512685956084, -467.7326044717556, 47411.7380275414, 19290.80716261949, 35719.45109599246, 10902.197468542752, 32856.46085220109, 2621.814921118608, 39159.47397464204, 28473.21670928201, 40825.43889587389, 35815.51889366137, 30250.26980045674, 24811.799801802612, 0.088, 1.034, 0.078, 192.0, 0.0, 0.0, 0.0, 0.0, 0.0, 0.0, 0.0, 0.0, 0.0, 1.7074745096103776E9, 0.0, 2024-02-09 11:28:29.610
24.0, -9482.593474697289, -16008.051157957454, 19236.693589293194, -468.6266742499679, 47346.20271279845, 19254.843205790905, 35702.30730799524, 10898.82235513, 33057.64890404331, 2633.817807891108, 39484.49069076666, 28505.850256186757, 41306.49314004101, 35972.27167752644, 30390.459941680427, 24960.193033241398, 0.088, 1.034, 0.078, 192.0, 0.0, 0.0, 0.0, 0.0, 0.0, 0.0, 0.0, 0.0, 0.0, 1.7074745096197393E9, 0.0, 2024-02-09 11:28:29.619
26.0, -9469.54005593539, -15989.0745269149, 19249.38938014381, -466.1232788709735, 47213.67921992293, 19242.75091204058, 35627.31720534768, 10843.278270158562, 32748.39016775968, 2593.0258742601723, 39071.363397999216, 28423.66289182459, 40753.868610128004, 35749.17891611802, 30211.601282549058, 24794.678365549848, 0.088, 1.034, 0.078, 192.0, 0.0, 0.0, 0.0, 0.0, 0.0, 0.0, 0.0, 0.0, 0.0, 1.707474509627448E9, 0.0, 2024-02-09 11:28:29.627
28.0, -9420.38856987817, -15974.59059650786, 19277.463171179676, -481.3448168450376, 47499.22275533948, 19295.255159766097, 35758.11961390014, 10963.351841372472, 33023.58484549342, 2692.714654530842, 39395.55309957899, 28511.952282423055, 41092.721056070455, 35918.11340071123, 30346.67287429248, 24901.542055790673, 0.076, 1.054, 0.074, 192.0, 1.0, 48.0, 16.0, 120.0, 1.0, 40.0, 0.0, 0.0, 0.0, 1.707474509635475E9, 0.0, 2024-02-09 11:28:29.635
30.0, -9522.93837343912, -16021.953943008655, 19214.274789604522, -474.3710725749818, 47166.80761180015, 19219.058062917957, 35594.147216576006, 10845.938127748745, 32873.31406752039, 2696.7603202772525, 39278.228792933085, 28437.610380364702, 40980.42589192699, 35807.13698949063, 30290.346478265106, 24879.50323575774, 0.076, 1.054, 0.074, 192.0, 0.0, 0.0, 0.0, 0.0, 0.0, 0.0, 0.0, 0.0, 0.0, 1.7074745096427166E9, 0.0, 2024-02-09 11:28:29.642
32.0, -9408.989180205963, -15956.373924776784, 19298.92084585677, -458.2107613337948, 47408.04998970628, 19300.44076447973, 35713.01379358933, 10927.231422332696, 32828.744689076506, 2835.318784155701, 39151.203829193575, 28453.86009858371, 40659.968931671254, 35744.8873811826, 30245.106547487565, 24812.090374480533, 0.076, 1.054, 0.074, 192.0, 0.0, 0.0, 0.0, 0.0, 0.0, 0.0, 0.0, 0.0, 0.0, 1.7074745096514835E9, 0.0, 2024-02-09 11:28:29.651
34.0, -9481.5876461968, -16005.346596878362, 19241.56626958445, -456.9367118998423, 47345.91214012053, 19271.450551921196, 35690.93027006749, 10917.933096639288, 33045.467203315166, 3028.6837254385623, 39491.06210363652, 28511.97463416751, 41120.95130931751, 35912.45840936404, 30396.20434000544, 24973.157045025477, 0.076, 1.054, 0.074, 192.0, 0.0, 0.0, 0.0, 0.0, 0.0, 0.0, 0.0, 0.0, 0.0, 1.7074745096594973E9, 0.0, 2024-02-09 11:28:29.659
36.0, -9471.194085025083, -15986.92875944719, 19244.85197601938, -459.37305204547073, 47212.82985363363, 19260.05116224899, 35637.844876986135, 10858.097476732431, 32726.552513426843, 3085.144231932668, 39082.74043592697, 28418.611397577693, 40558.51436358862, 35638.78365025326, 30222.21836116533, 24806.72595581126, 0.076, 1.054, 0.074, 192.0, 0.0, 0.0, 0.0, 0.0, 0.0, 0.0, 0.0, 0.0, 0.0, 1.7074745096665325E9, 0.0, 2024-02-09 11:28:29.666
38.0, -9420.165052433616, -15974.389430807762, 19285.085116038932, -462.97168290277517, 47521.39568583914, 19330.90619217231, 35780.71722754445, 10947.727971998213, 33013.235987810614, 3302.336132804887, 39416.362573666884, 28533.946398967077, 40923.94303368843, 35872.67230423359, 30372.735008327367, 24927.06774795863, 0.064, 1.036, 0.074, 192.0, 1.0, 0.0, 16.0, 48.0, 1.0, 40.0, 0.0, 0.0, 0.0, 1.7074745096755006E9, 0.0, 2024-02-09 11:28:29.675
40.0, -9556.063658721883, -16066.255100519074, 19182.289443288977, -513.3972183939479, 47171.34501592458, 19213.42542331522, 35596.53885323273, 10812.09758664341, 32838.02066302546, 3279.0903185713673, 39274.36194114231, 28431.86598203969, 40813.59247131258, 35695.84765384765, 30301.14237083702, 24883.861825926524, 0.064, 1.036, 0.074, 192.0, 0.0, 0.0, 0.0, 0.0, 0.0, 0.0, 0.0, 0.0, 0.0, 1.7074745096835291E9, 0.0, 2024-02-09 11:28:29.683
42.0, -9442.025058510908, -16001.524448576505, 19249.18821444371, -512.1231689599954, 47397.32115236773, 19273.484560666628, 35712.142075555574, 10900.49873596415, 32765.86923192373, 3402.4942997091175, 39129.70145102757, 28437.543325131337, 40533.56981677649, 35651.65825505951, 30236.456422383362, 24798.589920829527, 0.064, 1.036, 0.074, 192.0, 0.0, 0.0, 0.0, 0.0, 0.0, 0.0, 0.0, 0.0, 0.0, 1.707474509690587E9, 0.0, 2024-02-09 11:28:29.690
44.0, -9488.15905906666, -16037.466053660639, 19236.447720104185, -482.3282936010711, 47391.30853310925, 19252.026885989533, 35690.81851134521, 10902.599799942947, 32983.105836284856, 3287.092243086367, 39448.48203044916, 28429.8096215498, 41012.12066556462, 35766.41211109306, 30368.53288036977, 24942.781024310712, 0.064, 1.036, 0.074, 192.0, 0.0, 0.0, 0.0, 0.0, 0.0, 0.0, 0.0, 0.0, 0.0, 1.7074745096985593E9, 0.0, 2024-02-09 11:28:29.698
46.0, -9491.377710268225, -16042.741065352091, 19230.345693867886, -503.96478223380836, 47231.76178118727, 19234.57017356994, 35592.58259446414, 10821.015932681077, 32752.793461417376, 3592.059444434577, 39088.48483425198, 28424.04287148033, 40541.705851758226, 35632.56986529468, 30226.621654823026, 24796.935891739835, 0.064, 1.036, 0.074, 192.0, 0.0, 0.0, 0.0, 0.0, 0.0, 0.0, 0.0, 0.0, 0.0, 1.7074745097075348E9, 0.0, 2024-02-09 11:28:29.707
48.0, -9444.975488779008, -15986.347614091352, 19216.532315794506, -489.2126308933057, 47473.71941491597, 19275.563272900974, 35694.5736044137, 10899.269390019106, 32972.51110941304, 3588.1031856659874, 39359.56679100595, 28465.237136511463, 40781.338904063574, 35756.465584810445, 30313.949920409912, 24865.30987802862, 0.048, 1.044, 0.074, 192.0, 0.5, 64.0, 16.0, 80.0, 1.0, 40.0, 0.0, 0.0, 0.0, 1.7074745097155652E9, 0.0, 2024-02-09 11:28:29.715
50.0, -9529.755655497987, -16027.139547722287, 19210.810269213947, -423.4761504502476, 47205.87846110803, 19271.67406936575, 35576.28817275622, 10819.496014058115, 32848.41422419718, 3614.3217819120628, 39281.24627843455, 28467.67347665709, 40793.94528793637, 35814.93774830553, 30283.37273399505, 24885.35939280503, 0.048, 1.044, 0.074, 192.0, 0.0, 0.0, 0.0, 0.0, 0.0, 0.0, 0.0, 0.0, 0.0, 1.7074745097227232E9, 0.0, 2024-02-09 11:28:29.722
52.0, -9468.15424777916, -16026.781919811003, 19189.106725347847, -566.4602597308469, 47376.66814049103, 19274.57979614494, 35662.588258098156, 10836.326877632962, 32726.19488551556, 3319.2116998686433, 39107.81909320582, 28392.48220830944, 40482.96546732968, 35683.68830486397, 30214.7305267728, 24785.491798578718, 0.048, 1.044, 0.074, 192.0, 0.0, 0.0, 0.0, 0.0, 0.0, 0.0, 0.0, 0.0, 0.0, 1.7074745097305942E9, 0.0, 2024-02-09 11:28:29.730
54.0, -9491.601227712777, -16063.88581560681, 19260.18527271572, -521.19797720885, 47443.7457256014, 19263.649793106295, 35684.44826417545, 10837.489168344639, 33057.51479357658, 3410.2056515461986, 39485.45181577824, 28451.15553750462, 41081.03109372033, 35807.38285867964, 30373.942002527954, 24924.69846304637, 0.048, 1.044, 0.074, 192.0, 0.0, 0.0, 0.0, 0.0, 0.0, 0.0, 0.0, 0.0, 0.0, 1.7074745097396388E9, 0.0, 2024-02-09 11:28:29.739
56.0, -9512.678922734132, -16000.384509609285, 19177.930853120193, -533.6255471260008, 47205.3420192411, 19181.55183572195, 35576.668152411956, 10732.45832114915, 32694.85773978922, 3360.517723622051, 39057.25944724792, 28361.32387653874, 40467.27454272205, 35618.60002501011, 30190.009497405234, 24743.13524283591, 0.048, 1.044, 0.074, 192.0, 0.0, 0.0, 0.0, 0.0, 0.0, 0.0, 0.0, 0.0, 0.0, 1.7074745097466664E9, 0.0, 2024-02-09 11:28:29.746
58.0, -9407.737482516466, -15958.787913177957, 19320.1102996004, -507.3845991354703, 47623.81137893336, 19339.690427743248, 35802.8007510663, 10919.788291429079, 32999.9366998597, 3232.3751726597757, 39401.16338743727, 28459.00099980843, 40951.12275494609, 35818.826951840754, 30347.656351048514, 24857.978505847277, 0.046, 1.002, 0.078, 192.0, 0.5, 56.0, 15.5, 40.0, 1.0, 56.0, 0.0, 0.0, 0.0, 1.7074745097546601E9, 0.0, 2024-02-09 11:28:29.754
60.0, -9460.509951175447, -15913.0562440224, 19286.58268291744, -325.888434158377, 47304.00261926682, 19302.921808114268, 35672.53478438077, 10829.554299063004, 32993.588804434396, 3468.9013324858347, 39379.795119738, 28571.45262616308, 40981.29760996075, 35930.20569446155, 30380.759284586824, 24934.242657928786, 0.046, 1.002, 0.078, 192.0, 0.0, 0.0, 0.0, 0.0, 0.0, 0.0, 0.0, 0.0, 0.0, 1.7074745097636447E9, 0.0, 2024-02-09 11:28:29.763
62.0, -9461.985166309496, -16064.198740029186, 19248.316496409952, -538.9676140508192, 47467.63974042413, 19291.9023980978, 35728.436497263494, 10875.978872296677, 32860.55122143641, 3113.150967735168, 39192.71101864708, 28504.64326198617, 40645.35089079748, 35782.5947740787, 30290.838216643122, 24827.714243854793, 0.046, 1.002, 0.078, 192.0, 0.0, 0.0, 0.0, 0.0, 0.0, 0.0, 0.0, 0.0, 0.0, 1.7074745097716718E9, 0.0, 2024-02-09 11:28:29.771
64.0, -9871.871456130917, -16432.35432295255, 18799.873447403126, -853.3001963258024, 47134.24112012877, 19038.120691552245, 35489.921032180915, 10691.755794496035, 32715.890731321662, 2553.329176107547, 39285.96249651462, 28280.142340677066, 40886.68267568143, 35772.916468729556, 30276.778969380735, 24850.468319710293, 0.046, 1.002, 0.078, 192.0, 0.0, 0.0, 0.0, 0.0, 0.0, 0.0, 0.0, 0.0, 0.0, 1.7074745097786996E9, 0.0, 2024-02-09 11:28:29.778
66.0, -9599.224877265082, -16062.857635361868, 18960.51543480342, -634.4095628749803, 47013.38523785892, 19085.34992758631, 35483.9754681558, 10703.803384757446, 31944.487326680104, 2058.4392021225935, 38577.30043855911, 27946.63196165943, 39890.93481194196, 35203.081095585956, 29827.62066455134, 24472.4779692266, 0.046, 1.002, 0.078, 192.0, 0.0, 0.0, 0.0, 0.0, 0.0, 0.0, 0.0, 0.0, 0.0, 1.7074745097866735E9, 0.0, 2024-02-09 11:28:29.786
68.0, -9302.930152765532, -15889.519857110961, 19446.732931939714, -368.80378351256655, 47657.94249271661, 19379.968271251713, 35835.747222393424, 10987.201152706284, 33135.432974747775, 3118.8730143157263, 39439.13900126684, 28619.441821508626, 41086.574326345246, 36138.166324873724, 30336.68164452096, 24918.015291454234, 0.042, 1.006, 0.07200000000000001, 192.0, 0.5, 40.0, 15.5, 56.0, 1.0, 32.0, 0.0, 0.0, 0.0, 1.7074745097959256E9, 0.0, 2024-02-09 11:28:29.795
70.0, -9515.495242535502, -16018.467070873628, 19279.072496780456, -453.5392467426356, 47321.928718319985, 19259.0453337485, 35632.07812691666, 10824.212232138185, 33208.14319946089, 2808.4519873204217, 39472.219583060694, 28573.866614564256, 41324.70981177209, 35886.798606729346, 30453.44715755548, 24962.27174547574, 0.042, 1.006, 0.07200000000000001, 192.0, 0.0, 0.0, 0.0, 0.0, 0.0, 0.0, 0.0, 0.0, 0.0, 1.7074745098027503E9, 0.0, 2024-02-09 11:28:29.802
72.0, -9449.512892903434, -16035.163823981742, 19235.084263692414, -511.6761340708893, 47440.25885346638, 19294.76342138808, 35698.663973649025, 10868.267520459596, 32850.51528817598, 2505.6082016954665, 39136.69754704208, 28424.04287148033, 40714.998926520224, 35745.580285260716, 30239.563314862648, 24772.170158883353, 0.042, 1.006, 0.07200000000000001, 192.0, 0.0, 0.0, 0.0, 0.0, 0.0, 0.0, 0.0, 0.0, 0.0, 1.7074745098107212E9, 0.0, 2024-02-09 11:28:29.810
74.0, -9431.653849083645, -15891.598569345304, 19231.172708412734, -451.25936880819427, 47427.58541436022, 19255.67022033575, 35692.07020903471, 10869.832142571468, 33010.084391842414, 2486.497460186179, 39438.401393699816, 28486.515997232917, 41150.58972246524, 35950.746947615975, 30332.34540609663, 24910.482753572793, 0.042, 1.006, 0.07200000000000001, 192.0, 0.0, 0.0, 0.0, 0.0, 0.0, 0.0, 0.0, 0.0, 0.0, 1.7074745098187232E9, 0.0, 2024-02-09 11:28:29.818
76.0, -9353.199226045517, -15857.959193940067, 19402.990568040677, -326.78250393658925, 47420.41050439006, 19348.1170354029, 35690.751456111844, 10879.890427576354, 33031.43030779723, 2911.7170467039405, 39268.014045717006, 28653.52823180297, 41049.29161659379, 36042.29969290492, 30341.24140038984, 24898.88219820049, 0.042, 1.006, 0.07200000000000001, 192.0, 0.0, 0.0, 0.0, 0.0, 0.0, 0.0, 0.0, 0.0, 0.0, 1.7074745098267653E9, 0.0, 2024-02-09 11:28:29.826
78.0, -9551.727420297555, -16066.635080174814, 19091.787229989437, -642.2326734343378, 47458.56493217527, 19205.110574377846, 35694.70771488044, 10844.351153892418, 32999.467313226145, 2443.492703854168, 39371.3908638228, 28504.486799774983, 41090.977620002945, 35850.789946411845, 30351.322037139184, 24895.998823165755, 0.044, 1.0, 0.064, 192.0, 0.5, 48.0, 15.5, 32.0, 1.0, 0.0, 0.0, 0.0, 0.0, 1.7074745098357334E9, 0.0, 2024-02-09 11:28:29.835
80.0, -9544.060771949384, -16038.248364716574, 19117.715253557595, -523.1202272320065, 47156.011719228234, 19185.03870785698, 35571.013161064766, 10745.064705021943, 32735.828487375795, 2271.1607541037506, 39160.23393395352, 28356.361789269664, 40817.54873008117, 35795.8493585407, 30157.979447600777, 24772.214862372264, 0.044, 1.0, 0.064, 192.0, 0.0, 0.0, 0.0, 0.0, 0.0, 0.0, 0.0, 0.0, 0.0, 1.7074745098427403E9, 0.0, 2024-02-09 11:28:29.842
82.0, -9367.414935519093, -15917.213668491087, 19326.569953747985, -455.86382816598757, 47525.37429635219, 19316.846944909925, 35761.7405965019, 10920.123567595909, 32902.79601845694, 2395.525860253079, 39162.98319852152, 28463.58310742177, 40911.11313237109, 35811.56263489278, 30243.877201542524, 24793.694888793816, 0.044, 1.0, 0.064, 192.0, 0.0, 0.0, 0.0, 0.0, 0.0, 0.0, 0.0, 0.0, 0.0, 1.7074745098507514E9, 0.0, 2024-02-09 11:28:29.850
84.0, -9434.760741562932, -15939.051322823922, 19231.28446713501, -445.0008803607083, 47427.45130389349, 19299.68080516825, 35724.681404195, 10912.971009370209, 33198.73311504521, 2485.603390407967, 39558.1843922358, 28590.205739761084, 41443.82225797442, 36038.902227747705, 30436.459831769447, 24994.346498769108, 0.044, 1.0, 0.064, 192.0, 0.0, 0.0, 0.0, 0.0, 0.0, 0.0, 0.0, 0.0, 0.0, 1.7074745098589773E9, 0.0, 2024-02-09 11:28:29.858
86.0, -9406.016398193407, -15914.687921367637, 19300.686633668738, -457.5849124890462, 47345.28629127578, 19270.66824086526, 35697.65814514853, 10869.474514660182, 32942.827992776394, 2322.6815250732334, 39152.50023037198, 28484.526691976393, 40860.70994862437, 35763.48403256942, 30233.014253737245, 24811.665691335882, 0.044, 1.0, 0.064, 192.0, 0.0, 0.0, 0.0, 0.0, 0.0, 0.0, 0.0, 0.0, 0.0, 1.7074745098678212E9, 0.0, 2024-02-09 11:28:29.867
88.0, -9379.417822291593, -15932.122282042776, 19285.19687476121, -475.80158422012147, 47561.762936325424, 19312.39894776332, 35807.80754182429, 10965.385850117904, 33150.16277434382, 2395.2129358307047, 39456.52865845307, 28564.23301270402, 41288.87996541023, 35975.222107794536, 30410.01771807882, 24931.202820682865, 0.038, 0.992, 0.056, 192.0, 0.5, 24.0, 15.5, 0.0, 0.5, 96.0, 0.0, 0.0, 0.0, 1.707474509874773E9, 0.0, 2024-02-09 11:28:29.874
90.0, -9438.024096253408, -15957.983250377567, 19280.637118892326, -438.3847640019374, 47317.97245955139, 19252.80919704547, 35685.2752787203, 10876.604721141424, 33094.752799839116, 2258.219094064128, 39370.586201022415, 28496.931910149087, 41153.51780098889, 35898.4215138461, 30353.601915073625, 24924.40789036845, 0.038, 0.992, 0.056, 192.0, 0.0, 0.0, 0.0, 0.0, 0.0, 0.0, 0.0, 0.0, 0.0, 1.7074745098848407E9, 0.0, 2024-02-09 11:28:29.884
92.0, -9319.537498895825, -15887.485848365528, 19396.88854180438, -418.7822841146331, 47591.71427389554, 19346.194785379743, 35823.14083852063, 10972.113725198953, 33079.88888977634, 2289.153908390273, 39257.8663537343, 28522.904637206157, 40987.55609840824, 35838.18356253905, 30321.169533868975, 24852.30116275563, 0.038, 0.992, 0.056, 192.0, 0.0, 0.0, 0.0, 0.0, 0.0, 0.0, 0.0, 0.0, 0.0, 1.707474509890828E9, 0.0, 2024-02-09 11:28:29.890
94.0, -9428.032866481884, -15970.544930761449, 19273.641022877815, -446.3196332835714, 47481.319008030776, 19296.283340011043, 35778.638515310115, 10964.201207661774, 33255.28302851713, 2302.2296788966273, 39589.27566877314, 28575.408884931672, 41445.16336264174, 36015.94698619211, 30488.047657972296, 25027.00239741831, 0.038, 0.992, 0.056, 192.0, 0.0, 0.0, 0.0, 0.0, 0.0, 0.0, 0.0, 0.0, 0.0, 1.707474509898876E9, 0.0, 2024-02-09 11:28:29.898
96.0, -9439.76753232092, -15976.579901764382, 19275.742086856615, -444.3303280270491, 47307.02010476829, 19282.179389259745, 35684.85059557564, 10896.9224568513, 32888.93793689465, 2195.857727033821, 39138.64214880969, 28458.799834108337, 40842.9403117824, 35777.76679727636, 30269.760521621767, 24844.34394172954, 0.038, 0.992, 0.056, 192.0, 0.0, 0.0, 0.0, 0.0, 0.0, 0.0, 0.0, 0.0, 0.0, 1.7074745099068696E9, 0.0, 2024-02-09 11:28:29.906
98.0, -9388.604389262724, -15963.168855091199, 19309.850848895414, -446.14081932792897, 47588.763843627436, 19348.87699471438, 35851.61696095669, 11026.406112480892, 33146.832364419985, 2240.6059194333457, 39444.83869610295, 28544.585829327803, 41182.01627516941, 35952.7362528725, 30396.74078187237, 24952.280515704217, 0.04, 1.0, 0.051000000000000004, 192.0, 0.5, 40.0, 15.5, 64.0, 0.5, 56.0, 0.0, 0.0, 0.0, 1.7074745099148784E9, 0.0, 2024-02-09 11:28:29.914
100.0, -9506.241620331004, -16029.687646590191, 19228.825775244924, -449.9629676297865, 47250.179618618444, 19248.405903387775, 35684.738836853365, 10887.266503246607, 32989.29726949898, 2180.3679681262934, 39332.52118021502, 28476.792988394856, 41137.7598211479, 35869.27483907638, 30349.44449060494, 24943.853908044566, 0.04, 1.0, 0.051000000000000004, 192.0, 0.0, 0.0, 0.0, 0.0, 0.0, 0.0, 0.0, 0.0, 0.0, 1.7074745099238608E9, 0.0, 2024-02-09 11:28:29.923
102.0, -9408.00570344993, -15986.794648980458, 19297.91501735628, -464.96098815929753, 47466.72331890146, 19308.91207562829, 35797.235166696926, 10939.189605616284, 32912.340213339354, 2176.47876459107, 39167.27473345694, 28470.91447960311, 40837.620596602035, 35781.723056044946, 30272.80035886769, 24837.43725269285, 0.04, 1.0, 0.051000000000000004, 192.0, 0.0, 0.0, 0.0, 0.0, 0.0, 0.0, 0.0, 0.0, 0.0, 1.7074745099310565E9, 0.0, 2024-02-09 11:28:29.931
104.0, -9477.519628705935, -16032.392207669283, 19242.415635873753, -463.105793369507, 47414.822568276235, 19278.826627591447, 35758.63370402261, 10942.430608562305, 33129.86739037841, 2191.566192098402, 39507.02124917761, 28521.898808705668, 41336.66799505568, 35940.7333661, 30419.07017458322, 24991.03844058972, 0.04, 1.0, 0.051000000000000004, 192.0, 0.0, 0.0, 0.0, 0.0, 0.0, 0.0, 0.0, 0.0, 0.0, 1.7074745099389107E9, 0.0, 2024-02-09 11:28:29.938
106.0, -9485.678015432122, -16042.964582796645, 19246.148377197787, -474.7287004862667, 47265.647025781516, 19242.795615529492, 35690.93027006749, 10855.281156931062, 32803.844845753294, 2123.773351165456, 39095.54798549986, 28429.83197329426, 40817.97341322582, 35701.01090681683, 30242.26787594174, 24826.39549093193, 0.04, 1.0, 0.051000000000000004, 192.0, 0.0, 0.0, 0.0, 0.0, 0.0, 0.0, 0.0, 0.0, 0.0, 1.7074745099469247E9, 0.0, 2024-02-09 11:28:29.946
108.0, -9425.663581569623, -16028.41359715624, 19282.514665426574, -486.7762907476772, 47555.638558344675, 19307.190991305233, 35824.10196353221, 10982.283768926116, 33067.84129951493, 2168.745061009534, 39395.75426527909, 28513.785125468392, 41149.203914309015, 35855.37205402518, 30377.63004036308, 24935.27083817373, 0.047, 1.012, 0.0425, 192.0, 0.5, 88.0, 16.0, 0.0, 0.5, 8.0, 0.0, 0.0, 0.0, 1.707474509954945E9, 0.0, 2024-02-09 11:28:29.954
110.0, -9525.240603118016, -16078.168580313753, 19215.83941171639, -476.494488298236, 47234.600452733095, 19217.336978594896, 35658.050853973735, 10833.823482253967, 32925.12541116779, 2111.166967292663, 39299.552357143446, 28445.25467696842, 41120.10194302821, 35774.05640769678, 30324.8575717041, 24917.45649784285, 0.047, 1.012, 0.0425, 192.0, 0.0, 0.0, 0.0, 0.0, 0.0, 0.0, 0.0, 0.0, 0.0, 1.707474509962948E9, 0.0, 2024-02-09 11:28:29.962
112.0, -9427.429369381593, -16031.36402742434, 19288.706098640694, -487.26802912569394, 47450.16067626008, 19282.62642414885, 35747.56959051724, 10889.456974203227, 32872.04001808644, 2139.6877932176344, 39151.36029140476, 28459.112758530708, 40840.146343725486, 35699.088656793676, 30262.764425607256, 24819.39939491742, 0.047, 1.012, 0.0425, 192.0, 0.0, 0.0, 0.0, 0.0, 0.0, 0.0, 0.0, 0.0, 0.0, 1.7074745099709475E9, 0.0, 2024-02-09 11:28:29.970
114.0, -9494.59636146979, -16065.718658652147, 19247.064798720457, -475.4663080532918, 47403.60199255967, 19263.046296006, 35749.24597135138, 10912.59102971447, 33078.30191592001, 2178.825697758877, 39484.13306285537, 28498.25066307195, 41304.01209640648, 35849.67235918908, 30403.602767420147, 24974.118170037054, 0.047, 1.012, 0.0425, 192.0, 0.0, 0.0, 0.0, 0.0, 0.0, 0.0, 0.0, 0.0, 0.0, 1.7074745099799428E9, 0.0, 2024-02-09 11:28:29.979
116.0, -9476.647910672178, -16039.701228106169, 19276.47969442364, -451.48288625274733, 47261.91428445748, 19265.1473599848, 35678.5697553837, 10859.840912799944, 32783.72827574352, 2249.412506748737, 39101.851177436256, 28437.364511175696, 40808.831549743605, 35639.56596130919, 30252.482623157815, 24833.279828224164, 0.047, 1.012, 0.0425, 192.0, 0.0, 0.0, 0.0, 0.0, 0.0, 0.0, 0.0, 0.0, 0.0, 1.7074745099859786E9, 0.0, 2024-02-09 11:28:29.985
118.0, -9427.33996240377, -16027.340713422385, 19299.9043226128, -471.8453254515321, 47532.45979934452, 19320.44557576723, 35797.50338763039, 10951.706582511257, 33043.41084282528, 2461.262340696137, 39404.35968689438, 28525.296273862874, 41140.44203048254, 35819.0057657964, 30385.900185811544, 24940.8364225431, 0.051500000000000004, 1.025, 0.03325, 192.0, 0.5, 96.0, 16.0, 56.0, 0.0, 96.0, 0.0, 0.0, 0.0, 1.7074745099949517E9, 0.0, 2024-02-09 11:28:29.994
120.0, -9534.717742767065, -16085.23173156163, 19224.154260653766, -476.5615435316019, 47206.12433029703, 19228.57990605592, 35657.35794989562, 10820.010104180588, 32899.08562887736, 2590.5895341145438, 39299.909985054735, 28451.40140669363, 41080.494651853405, 35706.710601652936, 30332.501868307816, 24918.46232634334, 0.051500000000000004, 1.025, 0.03325, 192.0, 0.0, 0.0, 0.0, 0.0, 0.0, 0.0, 0.0, 0.0, 0.0, 1.7074745100033095E9, 0.0, 2024-02-09 11:28:30.003
122.0, -9416.566421576312, -16007.201791668153, 19324.982979891658, -453.71806069827807, 47455.72626062945, 19319.43974726674, 35783.600602579194, 10911.808718658534, 32849.9564945646, 2822.310068882712, 39157.52937287443, 28466.15355803413, 40815.62648005802, 35661.58242959767, 30279.37177173755, 24842.48874693975, 0.051500000000000004, 1.025, 0.03325, 192.0, 0.0, 0.0, 0.0, 0.0, 0.0, 0.0, 0.0, 0.0, 0.0, 1.7074745100099947E9, 0.0, 2024-02-09 11:28:30.009
124.0, -9500.296056305893, -16068.803199386979, 19247.75770279857, -478.5732005325795, 47395.66712327804, 19259.402961659787, 35739.12063111313, 10860.95850002271, 33074.07743621796, 3025.8674056371938, 39502.349734586445, 28520.378890082706, 41291.56217474487, 35849.22532429997, 30429.508439243848, 24991.03844058972, 0.051500000000000004, 1.025, 0.03325, 192.0, 0.0, 0.0, 0.0, 0.0, 0.0, 0.0, 0.0, 0.0, 0.0, 1.7074745100192795E9, 0.0, 2024-02-09 11:28:30.019
126.0, -9565.98783326004, -16130.784586761545, 19133.719102587595, -563.7333469072994, 47132.52003580571, 19180.434248499187, 35602.50676900229, 10739.74498984158, 32702.61379511521, 3037.244443564945, 39050.62097914469, 28382.893309938114, 40659.65600724888, 35568.53211743023, 30206.616843535525, 24792.979632971244, 0.051500000000000004, 1.025, 0.03325, 192.0, 0.0, 0.0, 0.0, 0.0, 0.0, 0.0, 0.0, 0.0, 0.0, 1.70747451002705E9, 0.0, 2024-02-09 11:28:30.027
128.0, -9424.098959457751, -16012.78972778198, 19303.39119474783, -491.44780533883636, 47536.751334279936, 19288.974319574158, 35806.44408541251, 10914.580334970991, 32934.17786767219, 3109.462929900042, 39313.96923231712, 28444.45001416803, 40928.54749304623, 35685.25292697584, 30304.964519138877, 24870.294317042153, 0.059750000000000004, 1.0314999999999999, 0.028625, 192.0, 1.0, 16.0, 16.0, 56.0, 0.0, 96.0, 0.0, 0.0, 0.0, 1.7074745100361454E9, 0.0, 2024-02-09 11:28:30.036
130.0, -9552.621490075766, -16088.56214148547, 19175.382754252285, -476.5391917871466, 47160.370309397025, 19210.251475602567, 35630.02176642678, 10808.633066252836, 32875.32572452137, 3292.188440822177, 39292.757426829034, 28441.879563555667, 40969.607647610625, 35707.00117433086, 30327.47272580537, 24915.154268163955, 0.059750000000000004, 1.0314999999999999, 0.028625, 192.0, 0.0, 0.0, 0.0, 0.0, 0.0, 0.0, 0.0, 0.0, 0.0, 1.707474510042077E9, 0.0, 2024-02-09 11:28:30.042
132.0, -9422.735503045977, -16026.826623299912, 19336.136500374854, -460.334177057049, 47424.702039325486, 19297.1550580448, 35750.63177950761, 10923.677494964302, 32862.31700924838, 3401.734340397637, 39175.29900971639, 28496.373116537707, 40759.747118919746, 35727.69888969647, 30278.52240544825, 24860.660715181915, 0.059750000000000004, 1.0314999999999999, 0.028625, 192.0, 0.0, 0.0, 0.0, 0.0, 0.0, 0.0, 0.0, 0.0, 0.0, 1.7074745100510907E9, 0.0, 2024-02-09 11:28:30.051
134.0, -9518.423321059146, -16088.316272296463, 19210.005606413557, -482.23888662324987, 47331.137637035565, 19234.27960089202, 35663.996417998846, 10872.335537950461, 33013.61596746635, 3295.0271123680013, 39456.975693342174, 28456.184680007063, 41102.645230608614, 35718.244101791875, 30381.04985726474, 24951.65466685947, 0.059750000000000004, 1.0314999999999999, 0.028625, 192.0, 0.0, 0.0, 0.0, 0.0, 0.0, 0.0, 0.0, 0.0, 0.0, 1.7074745100591235E9, 0.0, 2024-02-09 11:28:30.059
136.0, -9481.006500840962, -16041.288201962496, 19303.547656959017, -422.73854288322246, 47258.47211581137, 19273.283394966533, 35632.6592722725, 10832.616488053382, 32766.3833220462, 3410.406817246296, 39107.34970657226, 28464.857156855724, 40723.64905162442, 35691.958450312435, 30245.866506799044, 24830.821136334078, 0.059750000000000004, 1.0314999999999999, 0.028625, 192.0, 0.0, 0.0, 0.0, 0.0, 0.0, 0.0, 0.0, 0.0, 0.0, 1.7074745100660748E9, 0.0, 2024-02-09 11:28:30.066
138.0, -9447.098904502262, -16061.270661505541, 19301.513648213586, -503.47304385579156, 47497.56872624978, 19295.56808418847, 35746.16143061655, 10889.904009092334, 33053.580886552445, 3423.348477285919, 39417.36840216737, 28529.677215776115, 41029.62208147313, 35798.5986231087, 30391.8233980922, 24934.64498932898, 0.05487500000000001, 1.03175, 0.026312500000000003, 192.0, 0.5, 72.0, 16.0, 32.0, 0.0, 96.0, 0.0, 0.0, 0.0, 1.7074745100741215E9, 0.0, 2024-02-09 11:28:30.074
140.0, -9536.79645500141, -16068.870254620346, 19235.553650325972, -471.6888632403449, 47235.00278413329, 19218.1863448842, 35628.56890303718, 10761.359126729862, 32896.89515792074, 3228.0165824909905, 39299.15002574325, 28409.111906184186, 40969.02650225479, 35597.81290266668, 30319.537856523737, 24882.945404403854, 0.05487500000000001, 1.03175, 0.026312500000000003, 192.0, 0.0, 0.0, 0.0, 0.0, 0.0, 0.0, 0.0, 0.0, 0.0, 1.7074745100833423E9, 0.0, 2024-02-09 11:28:30.083
142.0, -9474.993881582484, -16052.17350151223, 19247.869461520848, -487.849174481532, 47394.6389430331, 19285.1521712723, 35708.69990690946, 10800.80995569348, 32810.77388653444, 3411.412645746785, 39131.69075628409, 28484.861968143225, 40666.965027685765, 35742.20517184796, 30263.94906806339, 24824.182668230853, 0.05487500000000001, 1.03175, 0.026312500000000003, 192.0, 0.0, 0.0, 0.0, 0.0, 0.0, 0.0, 0.0, 0.0, 0.0, 1.7074745100901687E9, 0.0, 2024-02-09 11:28:30.090
144.0, -9589.837144593852, -16146.38610439135, 19112.68611105515, -598.0432746461958, 47308.987058280356, 19191.74423119357, 35665.78455755527, 10761.98497557461, 32883.193538569634, 2999.7158646244843, 39372.6425615123, 28374.243184833907, 41084.29444841081, 35737.19838108998, 30338.7603567553, 24899.575102278603, 0.05487500000000001, 1.03175, 0.026312500000000003, 192.0, 0.0, 0.0, 0.0, 0.0, 0.0, 0.0, 0.0, 0.0, 0.0, 1.7074745100981402E9, 0.0, 2024-02-09 11:28:30.098
146.0, -9446.495407401968, -16007.961750979634, 19400.26365521713, -407.56170839806896, 47322.08518053117, 19274.848017078402, 35704.54248244077, 10826.983848450644, 32869.73778840754, 3412.5525847140057, 39152.120250716245, 28491.187511824075, 40901.300716555204, 35702.30730799524, 30302.70699294889, 24843.1145957845, 0.05487500000000001, 1.03175, 0.026312500000000003, 192.0, 0.0, 0.0, 0.0, 0.0, 0.0, 0.0, 0.0, 0.0, 0.0, 1.707474510107156E9, 0.0, 2024-02-09 11:28:30.107
148.0, -9596.654426652722, -16235.860137445945, 19112.373186632776, -730.253843099337, 47376.71284397994, 19141.36339919131, 35687.10812176563, 10825.933316461244, 32874.252840787514, 2863.5043339138433, 39304.06740952342, 28331.19372501299, 40943.16553391999, 35574.67884715544, 30328.6573682615, 24854.804558134623, 0.0584375, 1.038875, 0.02815625, 192.0, 0.5, 120.0, 16.0, 88.0, 0.0, 120.0, 0.0, 0.0, 0.0, 1.7074745101151783E9, 0.0, 2024-02-09 11:28:30.115
150.0, -9663.843770485375, -16234.87666068991, 19089.64146252173, -599.518489780246, 47088.75532016222, 19119.97277974758, 35558.89851556999, 10747.433989934205, 32659.094948660728, 2879.441127710477, 39146.33114890232, 28280.142340677066, 40840.906303036965, 35617.68360348744, 30220.340814631083, 24805.742479055225, 0.0584375, 1.038875, 0.02815625, 192.0, 0.0, 0.0, 0.0, 0.0, 0.0, 0.0, 0.0, 0.0, 0.0, 1.7074745101222749E9, 0.0, 2024-02-09 11:28:30.122
152.0, -9556.84596977782, -16110.66801675177, 19142.346875947344, -551.0822595455957, 47249.978452918345, 19194.113516105834, 35623.76327797929, 10793.23271432313, 32586.49648266989, 3064.5806270337853, 38988.37137083666, 28309.445477657973, 40707.28757468314, 35669.62905760158, 30172.575136730095, 24732.071129330532, 0.0584375, 1.038875, 0.02815625, 192.0, 0.0, 0.0, 0.0, 0.0, 0.0, 0.0, 0.0, 0.0, 0.0, 1.707474510130212E9, 0.0, 2024-02-09 11:28:30.130
154.0, -9614.4687669836, -16127.275362882063, 19194.538199250484, -507.8092822801212, 47307.19891872394, 19240.0910544504, 35657.5144121068, 10803.916848172767, 33011.134923831814, 3026.6720684375846, 39401.23044267064, 28494.853197914745, 41152.422565510584, 35898.68973477957, 30322.063603647188, 24929.951122993367, 0.0584375, 1.038875, 0.02815625, 192.0, 0.0, 0.0, 0.0, 0.0, 0.0, 0.0, 0.0, 0.0, 0.0, 1.707474510139223E9, 0.0, 2024-02-09 11:28:30.139
156.0, -9401.344883602249, -16005.950093978656, 19425.52112645163, -416.86003409147673, 47346.98502385438, 19295.679842910748, 35720.38986925958, 10824.435749582739, 32728.653577405643, 2625.61471767601, 39060.58985717176, 28393.644499021113, 40862.98982655881, 35618.64472849903, 30249.33102718962, 24814.839639048536, 0.0584375, 1.038875, 0.02815625, 192.0, 0.0, 0.0, 0.0, 0.0, 0.0, 0.0, 0.0, 0.0, 0.0, 1.7074745101461973E9, 0.0, 2024-02-09 11:28:30.146
158.0, -9415.6723517981, -16020.12109996332, 19357.92945121878, -451.6393484639345, 47566.63561661668, 19304.48643022614, 35801.45964639898, 10874.861285073912, 33253.20431628279, 2633.683697424376, 39472.800728416536, 28517.473163303515, 41287.87413690974, 36037.874047502766, 30455.972904678933, 24936.500184118773, 0.05721875, 1.0404375, 0.033078125, 192.0, 0.5, 96.0, 16.0, 72.0, 0.5, 24.0, 0.0, 0.0, 0.0, 1.707474510154488E9, 0.0, 2024-02-09 11:28:30.154
160.0, -9701.998198270583, -16249.762922497146, 19086.221645620066, -619.2774318787375, 47110.727084961785, 19093.798886990415, 35532.09877396808, 10644.951241606623, 33046.87536321585, 2574.295112406625, 39351.83308742441, 28489.891110645665, 41253.92183708213, 35908.0774674508, 30387.554214901236, 24933.952085250865, 0.05721875, 1.0404375, 0.033078125, 192.0, 0.0, 0.0, 0.0, 0.0, 0.0, 0.0, 0.0, 0.0, 0.0, 1.7074745101632645E9, 0.0, 2024-02-09 11:28:30.163
162.0, -9458.610052896745, -16049.692457877693, 19230.323342123433, -551.8645706015313, 47336.59146268266, 19219.214525129144, 35691.75728461234, 10809.773005220057, 32482.605574441623, 2062.0378329798978, 38856.2725611058, 28158.414740373464, 40442.01707148756, 35347.20514383377, 30043.024425867134, 24634.39400606084, 0.05721875, 1.0404375, 0.033078125, 192.0, 0.0, 0.0, 0.0, 0.0, 0.0, 0.0, 0.0, 0.0, 0.0, 1.7074745101712935E9, 0.0, 2024-02-09 11:28:30.171
164.0, -9443.58968062278, -16004.988968967078, 19306.028700593557, -426.87361560745427, 47392.582582543204, 19258.732409326127, 35690.95262181194, 10844.082932958954, 33255.30538026159, 2503.462434227757, 39590.996753096195, 28616.066708095874, 41571.49542230313, 36172.990342735095, 30476.8941374891, 25031.94213294293, 0.05721875, 1.0404375, 0.033078125, 192.0, 0.0, 0.0, 0.0, 0.0, 0.0, 0.0, 0.0, 0.0, 0.0, 1.707474510178262E9, 0.0, 2024-02-09 11:28:30.178
166.0, -9366.163237829594, -15911.379863188251, 19411.283065233598, -359.8407339859884, 47336.61381442712, 19301.938331358237, 35743.8368491932, 10866.546436136538, 32863.72516914906, 2506.882251129419, 39145.90646575767, 28490.24873855695, 40873.338684241615, 35809.394515680615, 30280.399951982494, 24844.746273129735, 0.05721875, 1.0404375, 0.033078125, 192.0, 0.0, 0.0, 0.0, 0.0, 0.0, 0.0, 0.0, 0.0, 0.0, 1.7074745101864064E9, 0.0, 2024-02-09 11:28:30.186
168.0, -9342.04570556232, -15920.588781903838, 19421.967199083236, -409.34984795449355, 47578.973779556014, 19340.293924843543, 35842.94448410803, 10935.523919525614, 33291.58226151255, 2349.2577492305936, 39530.75880178915, 28575.587698887313, 41347.1062597163, 36045.272474917474, 30496.004878998385, 25004.13656284053, 0.058609375, 1.03821875, 0.0345390625, 192.0, 0.5, 112.0, 16.0, 48.0, 0.5, 16.0, 0.0, 0.0, 0.0, 1.7074745101952574E9, 0.0, 2024-02-09 11:28:30.195
170.0, -9466.097887289274, -15971.21548309511, 19303.21238079219, -354.0516321720639, 47219.15539731448, 19306.43103199375, 35667.617400600604, 10818.803109980001, 33200.56595809054, 2655.9236831574062, 39452.639454917844, 28638.41845255118, 41261.633188919215, 36098.91666161021, 30439.07498587072, 25018.039347891732, 0.058609375, 1.03821875, 0.0345390625, 192.0, 0.0, 0.0, 0.0, 0.0, 0.0, 0.0, 0.0, 0.0, 0.0, 1.7074745102043304E9, 0.0, 2024-02-09 11:28:30.204
172.0, -9329.238155989427, -15944.482796726561, 19409.89725707737, -381.723091807734, 47478.61444695169, 19354.755503506127, 35764.66867502555, 10891.803907371033, 33036.70531948868, 2332.4268856557474, 39223.131742850754, 28520.356538338252, 40935.90121697202, 35900.5225778249, 30309.7030889634, 24879.9726223913, 0.058609375, 1.03821875, 0.0345390625, 192.0, 0.0, 0.0, 0.0, 0.0, 0.0, 0.0, 0.0, 0.0, 0.0, 1.7074745102103362E9, 0.0, 2024-02-09 11:28:30.210
174.0, -9415.135909931172, -15966.54396850395, 19352.833253482968, -364.35578636596045, 47448.01490879237, 19299.01025283459, 35755.12448014313, 10862.567825623491, 33307.58611054255, 2349.436563186236, 39621.52923602214, 28629.14247860223, 41492.14672948679, 36160.02633095102, 30510.309995449785, 25054.62915356507, 0.058609375, 1.03821875, 0.0345390625, 192.0, 0.0, 0.0, 0.0, 0.0, 0.0, 0.0, 0.0, 0.0, 0.0, 1.7074745102183273E9, 0.0, 2024-02-09 11:28:30.218
176.0, -9438.024096253408, -15990.527390304494, 19326.43584328125, -394.6200483584462, 47257.30982509969, 19261.03463900502, 35682.1236827521, 10804.743862717613, 32945.26433292202, 2302.542603319002, 39182.65273364219, 28521.205904627554, 40903.17826308945, 35932.217351462525, 30315.447487288417, 24884.621785238003, 0.058609375, 1.03821875, 0.0345390625, 192.0, 0.0, 0.0, 0.0, 0.0, 0.0, 0.0, 0.0, 0.0, 0.0, 1.7074745102273557E9, 0.0, 2024-02-09 11:28:30.227
178.0, -9386.704490984022, -15982.59252102286, 19348.944049947746, -421.03981030461915, 47533.48797958947, 19315.841116409436, 35795.37997190714, 10899.828183630489, 33173.542699044076, 2259.7837161759994, 39449.62196941638, 28568.099864494787, 41197.55073756585, 36019.478561816046, 30418.332567016194, 24960.282440219216, 0.0653046875, 1.0341093749999999, 0.03626953125, 192.0, 1.0, 32.0, 16.0, 24.0, 0.5, 24.0, 0.0, 0.0, 0.0, 1.7074745102344217E9, 0.0, 2024-02-09 11:28:30.234
180.0, -9501.659512717666, -16045.289164219996, 19272.43402867723, -425.48780745122525, 47222.865786894065, 19231.37387411283, 35645.95856022341, 10797.144269602808, 33040.61687476836, 2183.4972123500365, 39360.28204682851, 28496.35076479325, 41189.07942641729, 35950.07639528232, 30378.613517119113, 24952.436977915404, 0.0653046875, 1.0341093749999999, 0.03626953125, 192.0, 0.0, 0.0, 0.0, 0.0, 0.0, 0.0, 0.0, 0.0, 0.0, 1.7074745102423165E9, 0.0, 2024-02-09 11:28:30.242
182.0, -9400.651979524133, -15995.467125829116, 19344.45134931223, -436.6189761899682, 47419.650545078584, 19300.708985413192, 35746.25083759437, 10868.96042453771, 32946.51603061152, 2181.2620379045056, 39183.23387899803, 28489.488779245472, 40871.30467549618, 35865.966780897, 30310.775972697258, 24862.940593116356, 0.0653046875, 1.0341093749999999, 0.03626953125, 192.0, 0.0, 0.0, 0.0, 0.0, 0.0, 0.0, 0.0, 0.0, 0.0, 1.7074745102513883E9, 0.0, 2024-02-09 11:28:30.251
184.0, -9472.334023992304, -16044.08217001941, 19291.209494019688, -438.78709540213293, 47398.97518145743, 19270.310612953977, 35732.30334905426, 10860.667927344792, 33182.88572822639, 2191.834413031866, 39526.51197034263, 28535.89100073469, 41364.78648958045, 36049.76517555299, 30457.246954112885, 25016.251208335307, 0.0653046875, 1.0341093749999999, 0.03626953125, 192.0, 0.0, 0.0, 0.0, 0.0, 0.0, 0.0, 0.0, 0.0, 0.0, 1.7074745102583816E9, 0.0, 2024-02-09 11:28:30.258
186.0, -9483.509896219957, -16045.22210898663, 19297.557389444995, -437.89302562392066, 47238.44495277941, 19258.307726181476, 35658.78846154075, 10805.526173773549, 32846.64843638521, 2132.4681797585704, 39123.666480024636, 28444.62882812367, 40859.05591953468, 35814.4013064386, 30290.502940476294, 24858.582002947573, 0.0653046875, 1.0341093749999999, 0.03626953125, 192.0, 0.0, 0.0, 0.0, 0.0, 0.0, 0.0, 0.0, 0.0, 0.0, 1.7074745102664063E9, 0.0, 2024-02-09 11:28:30.266
188.0, -9425.998857736453, -16029.285315189996, 19333.54369801804, -453.8074676760993, 47520.322802105286, 19319.86443041139, 35774.52579433034, 10900.543439453058, 33093.74697133863, 2180.9044099932207, 39402.9515269937, 28525.855067474255, 41159.03868186935, 35989.43781726812, 30415.8291716372, 24956.32618145063, 0.06565234375000001, 1.0320546875, 0.036134765625, 192.0, 1.0, 8.0, 16.0, 24.0, 0.5, 16.0, 0.0, 0.0, 0.0, 1.7074745102743883E9, 0.0, 2024-02-09 11:28:30.274
190.0, -9541.93735622613, -16095.580589244437, 19247.265964420552, -465.2068573483059, 47198.748254626786, 19209.960902924646, 35606.97711789335, 10751.323193469429, 32969.15834774475, 2128.310755289883, 39324.49690395557, 28463.33723823276, 41153.09311784424, 35915.386487887685, 30371.77388331579, 24941.976361510322, 0.06565234375000001, 1.0320546875, 0.036134765625, 192.0, 0.0, 0.0, 0.0, 0.0, 0.0, 0.0, 0.0, 0.0, 0.0, 1.7074745102823684E9, 0.0, 2024-02-09 11:28:30.282
192.0, -9453.044468527374, -16055.79448411399, 19309.515572728586, -487.4244913368811, 47392.47082382093, 19264.745028584603, 35704.386020229584, 10812.477566299149, 32877.44914024462, 2124.153330821196, 39137.993948220486, 28448.272162469886, 40825.50595110726, 35805.840588312225, 30286.300812518697, 24821.67927285186, 0.06565234375000001, 1.0320546875, 0.036134765625, 192.0, 0.0, 0.0, 0.0, 0.0, 0.0, 0.0, 0.0, 0.0, 0.0, 1.7074745102905056E9, 0.0, 2024-02-09 11:28:30.290
194.0, -9514.847041946297, -16093.233656076629, 19263.202758217187, -486.32925585857106, 47369.180306098504, 19239.28639165001, 35689.94679331146, 10818.333723346439, 33109.34848896843, 2137.2738048164615, 39483.88719366636, 28488.63941295617, 41320.12770415875, 35978.06077934036, 30429.508439243848, 24958.51665240725, 0.06565234375000001, 1.0320546875, 0.036134765625, 192.0, 0.0, 0.0, 0.0, 0.0, 0.0, 0.0, 0.0, 0.0, 0.0, 1.7074745102985675E9, 0.0, 2024-02-09 11:28:30.298
196.0, -9519.540908281911, -16092.250179320596, 19266.779037330038, -487.9162297148979, 47201.78809187271, 19215.101804149366, 35615.94016741993, 10757.000536561078, 32798.77099976194, 2083.3166937013502, 39086.473177251006, 28399.925339213056, 40803.22126188532, 35749.11186088465, 30262.384445951517, 24804.513133110184, 0.06565234375000001, 1.0320546875, 0.036134765625, 192.0, 0.0, 0.0, 0.0, 0.0, 0.0, 0.0, 0.0, 0.0, 0.0, 1.7074745103075075E9, 0.0, 2024-02-09 11:28:30.307
198.0, -9461.471076187025, -16070.971318599144, 19296.14922954431, -499.8744129984872, 47492.919563403084, 19278.468999680164, 35757.44906156648, 10850.587290595447, 33042.98615968063, 2129.2271768125506, 39371.23440161162, 28478.82699714029, 41089.010666490874, 35895.29226962236, 30383.799121832744, 24895.283567343184, 0.06565234375000001, 1.0320546875, 0.036134765625, 192.0, 0.0, 0.0, 0.0, 0.0, 0.0, 0.0, 0.0, 0.0, 0.0, 1.7074745103144948E9, 0.0, 2024-02-09 11:28:30.314
200.0, -9566.725440827066, -16115.89832495431, 19225.47301357663, -478.1932208768393, 47181.15743174046, 19198.270940574523, 35594.88482414303, 10727.607992602349, 32916.98937618606, 2099.991095065009, 39297.58540363138, 28424.601665091715, 41067.88826798061, 35833.5567514368, 30343.968313213387, 24896.088230143578, 0.074, 1.028, 0.036000000000000004, 192.0, 1.0, 40.0, 16.0, 16.0, 0.5, 16.0, 0.0, 0.0, 0.0, 1.7074745103224676E9, 0.0, 2024-02-09 11:28:30.322
202.0, -9464.935596577598, -16058.342582981895, 19299.85961912389, -480.89778195593146, 47385.742948739884, 19273.95394730019, 35696.562909670225, 10801.32404581595, 32840.345244448814, 2167.8509912313216, 39116.938604943585, 28431.642464595137, 40715.9600515318, 35743.50157302637, 30274.879071102034, 24803.484952865238, 0.074, 1.028, 0.036000000000000004, 192.0, 0.0, 0.0, 0.0, 0.0, 0.0, 0.0, 0.0, 0.0, 0.0, 1.7074745103304896E9, 0.0, 2024-02-09 11:28:30.330
204.0, -9532.951954955097, -16104.834211448933, 19257.659525592273, -479.5119737997024, 47368.17447759801, 19243.66733356325, 35671.10427273563, 10798.150098103297, 33073.04925597301, 2268.8808761693094, 39471.593734215945, 28479.16227330712, 41190.08525491777, 35913.03955471987, 30434.850506168666, 24965.84802458859, 0.074, 1.028, 0.036000000000000004, 192.0, 0.0, 0.0, 0.0, 0.0, 0.0, 0.0, 0.0, 0.0, 0.0, 1.7074745103385327E9, 0.0, 2024-02-09 11:28:30.338
206.0, -9538.852815491296, -16101.436746291727, 19257.77128431455, -483.44588082383643, 47203.39741747349, 19218.678083262217, 35610.70985921739, 10744.17063524373, 32742.086975823284, 2324.2684989295603, 39072.59274394426, 28371.8962516661, 40663.16523112837, 35640.705900276414, 30267.74886462079, 24805.8542377775, 0.074, 1.028, 0.036000000000000004, 192.0, 0.0, 0.0, 0.0, 0.0, 0.0, 0.0, 0.0, 0.0, 0.0, 1.7074745103464854E9, 0.0, 2024-02-09 11:28:30.346
208.0, -9475.664433916145, -16065.13751329631, 19307.950950616712, -472.0688428960852, 47504.74363621994, 19305.380500004354, 35762.52290755784, 10866.926415792277, 33006.39635400729, 2609.2532407347253, 39366.83110795392, 28477.329430261783, 40958.09649921614, 35816.5023704174, 30403.513360442324, 24918.484678087792, 0.074, 1.028, 0.036000000000000004, 192.0, 0.0, 0.0, 0.0, 0.0, 0.0, 0.0, 0.0, 0.0, 0.0, 1.7074745103545125E9, 0.0, 2024-02-09 11:28:30.354
210.0, -9602.734101144564, -16140.172319432775, 19198.047423129967, -501.84136651055417, 47167.969902511824, 19200.349652808865, 35594.79541716521, 10719.337847153885, 32875.75040766602, 2732.5231114057437, 39286.275420936996, 28414.364566131186, 40949.20050492293, 35733.39858453257, 30368.510528625317, 24918.30586413215, 0.07, 1.014, 0.032, 192.0, 1.0, 24.0, 15.5, 88.0, 0.5, 0.0, 0.0, 0.0, 0.0, 1.7074745103625145E9, 0.0, 2024-02-09 11:28:30.362
212.0, -9485.610960198755, -16067.70796390867, 19282.268796237564, -525.3106981886266, 47381.965503926935, 19265.929671040736, 35688.69509562196, 10791.645740466804, 32799.799180006885, 2814.777531001274, 39081.98047661549, 28362.62027771715, 40586.31993369102, 35543.20759096237, 30261.378617451028, 24780.172083398353, 0.07, 1.014, 0.032, 192.0, 0.0, 0.0, 0.0, 0.0, 0.0, 0.0, 0.0, 0.0, 0.0, 1.707474510369738E9, 0.0, 2024-02-09 11:28:30.369
214.0, -9561.092801224328, -16110.802127218501, 19214.94534193818, -493.4147588509034, 47336.30089000474, 19247.623592331838, 35674.68055184848, 10793.90326665679, 33040.214543368165, 3129.9371278211033, 39447.8114781155, 28476.904747117133, 41117.50914067139, 35878.99784791444, 30415.53859895928, 24956.37088493954, 0.07, 1.014, 0.032, 192.0, 0.0, 0.0, 0.0, 0.0, 0.0, 0.0, 0.0, 0.0, 0.0, 1.7074745103785815E9, 0.0, 2024-02-09 11:28:30.378
216.0, -9526.73816999652, -16078.973243114144, 19282.87229333786, -459.90949391239815, 47221.07764733764, 19243.75674054107, 35617.01305115379, 10765.538902943004, 32739.024786832906, 3151.238340287011, 39047.84936283223, 28388.32478384075, 40591.617297126926, 35606.19480683742, 30238.84805904008, 24798.791086529625, 0.07, 1.014, 0.032, 192.0, 0.0, 0.0, 0.0, 0.0, 0.0, 0.0, 0.0, 0.0, 0.0, 1.7074745103866343E9, 0.0, 2024-02-09 11:28:30.386
218.0, -9458.475942430014, -16063.014097573056, 19325.87704966987, -485.56929654709063, 47506.464720542994, 19290.04720330801, 35731.05165136477, 10871.53087515007, 33042.87440095835, 3288.969789620613, 39380.018637182555, 28486.49364548846, 40953.53674334726, 35747.390776561595, 30396.517264427814, 24916.897704231465, 0.07, 1.014, 0.032, 192.0, 0.0, 0.0, 0.0, 0.0, 0.0, 0.0, 0.0, 0.0, 0.0, 1.707474510394604E9, 0.0, 2024-02-09 11:28:30.394
220.0, -9578.817734577386, -16126.425996592761, 19239.107577694365, -470.9065521844092, 47181.71622535184, 19207.681024990205, 35552.70708235587, 10737.398056673772, 32910.015631916, 3252.3352804583647, 39294.56791812991, 28420.421888878573, 40924.524179044274, 35709.88454936559, 30348.840993504644, 24895.64119525447, 0.064, 1.024, 0.032, 192.0, 1.0, 0.0, 16.0, 0.0, 0.5, 0.0, 0.0, 0.0, 0.0, 1.7074745104016223E9, 0.0, 2024-02-09 11:28:30.401
222.0, -9485.186277054105, -16068.42321973124, 19300.708985413192, -503.92007874489775, 47381.630227760106, 19265.125008240346, 35665.024598243785, 10807.448423796704, 32810.148037689694, 3255.039841537457, 39101.65001173616, 28407.703746283503, 40572.104224217444, 35599.399876523006, 30274.275574001742, 24782.67547877735, 0.064, 1.024, 0.032, 192.0, 0.0, 0.0, 0.0, 0.0, 0.0, 0.0, 0.0, 0.0, 0.0, 1.7074745104106374E9, 0.0, 2024-02-09 11:28:30.410
224.0, -9572.067507751884, -16129.979923961155, 19212.173725625722, -521.7344190757775, 47345.688622675974, 19219.482746062607, 35645.53387707876, 10769.383402989317, 33026.49057227261, 3313.288487587987, 39449.17493452728, 28445.411139179607, 41069.452890092485, 35770.07779718373, 30416.611482693137, 24926.397195624973, 0.064, 1.024, 0.032, 192.0, 0.0, 0.0, 0.0, 0.0, 0.0, 0.0, 0.0, 0.0, 0.0, 1.7074745104186208E9, 0.0, 2024-02-09 11:28:30.418
226.0, -9611.764205904508, -16167.508502901615, 19147.93481206117, -576.295027291182, 47107.88841341596, 19160.18356802268, 35556.328064957626, 10672.153314608731, 32626.394346522615, 3225.133207456256, 38985.04096091282, 28321.917751064033, 40427.71195503616, 35508.584738801095, 30194.770418974214, 24745.99626612619, 0.064, 1.024, 0.032, 192.0, 0.0, 0.0, 0.0, 0.0, 0.0, 0.0, 0.0, 0.0, 0.0, 1.7074745104256961E9, 0.0, 2024-02-09 11:28:30.425
228.0, -9454.318517961327, -16043.679838619215, 19330.034474138556, -447.526627484158, 47528.34707836474, 19316.846944909925, 35760.46654706795, 10847.994488238632, 32954.026216748505, 3245.942681544147, 39307.531929913996, 28405.28975788233, 40871.01410281826, 35667.259772689315, 30337.0616241767, 24861.77830240468, 0.064, 1.024, 0.032, 192.0, 0.0, 0.0, 0.0, 0.0, 0.0, 0.0, 0.0, 0.0, 0.0, 1.7074745104346497E9, 0.0, 2024-02-09 11:28:30.434
230.0, -9577.141353743238, -16125.353112858906, 19243.175595185232, -471.3088835846047, 47209.298278009686, 19222.299065863976, 35600.495112001314, 10728.07737923591, 32983.86579559634, 3384.2999797224975, 39347.854476911365, 28463.627810910682, 41007.94088935148, 35776.29158214231, 30398.640680151067, 24936.36607365204, 0.062, 1.024, 0.034, 192.0, 0.5, 120.0, 16.0, 0.0, 0.5, 8.0, 0.0, 0.0, 0.0, 1.7074745104429648E9, 0.0, 2024-02-09 11:28:30.442
232.0, -9490.416585256648, -16051.36883871184, 19265.929671040736, -504.61298282301226, 47378.74685272537, 19268.969508286656, 35680.268487962305, 10812.52226978806, 32729.949978584053, 3245.6968123551387, 39074.47029047851, 28374.198481344996, 40512.53682524405, 35554.718739356846, 30250.35920743456, 24773.243042617207, 0.062, 1.024, 0.034, 192.0, 0.0, 0.0, 0.0, 0.0, 0.0, 0.0, 0.0, 0.0, 0.0, 1.707474510450693E9, 0.0, 2024-02-09 11:28:30.450
234.0, -9493.322312035836, -16052.285260234506, 19314.589418719937, -423.8114266170772, 47449.221902992955, 19315.170564075775, 35727.36361352964, 10866.904064047822, 33121.28432050757, 3419.0345906060447, 39512.4750748247, 28513.136924879185, 41140.106754315704, 35934.96661603053, 30457.381064579615, 24977.71680089436, 0.062, 1.024, 0.034, 192.0, 0.0, 0.0, 0.0, 0.0, 0.0, 0.0, 0.0, 0.0, 0.0, 1.7074745104576824E9, 0.0, 2024-02-09 11:28:30.457
236.0, -9563.663251836688, -16100.967359658165, 19244.114368452356, -501.50609034372457, 47222.664621193966, 19232.625571802328, 35611.8050946957, 10753.111333025854, 32793.27247062593, 3215.052570706913, 39109.6295845067, 28400.595891546716, 40718.17287423288, 35650.071281203185, 30311.781801197747, 24827.893057810434, 0.062, 1.024, 0.034, 192.0, 0.0, 0.0, 0.0, 0.0, 0.0, 0.0, 0.0, 0.0, 0.0, 1.7074745104667392E9, 0.0, 2024-02-09 11:28:30.466
238.0, -9588.049005037428, -16184.696994387747, 19151.287573729467, -616.4834638218241, 47430.66995509505, 19222.880211219814, 35692.18196775699, 10810.220040109163, 32874.69987567662, 3022.6487544356296, 39267.589362572355, 28352.494937478896, 40838.9393495249, 35699.6250986606, 30341.53197306776, 24848.300200498128, 0.062, 1.024, 0.034, 192.0, 0.0, 0.0, 0.0, 0.0, 0.0, 0.0, 0.0, 0.0, 0.0, 1.7074745104747348E9, 0.0, 2024-02-09 11:28:30.474
240.0, -9801.306998885513, -16364.449723297326, 18924.640884952652, -660.8516765656086, 46964.56902796853, 19084.657023508196, 35443.7646798807, 10622.755959362503, 32535.713319267434, 2760.999233841805, 39084.439168505574, 28249.9674856624, 40735.85310409703, 35625.752583235815, 30206.97447144681, 24802.032089475644, 0.08, 1.034, 0.034, 192.0, 1.0, 64.0, 16.0, 40.0, 0.5, 8.0, 0.0, 0.0, 0.0, 1.7074745104838133E9, 0.0, 2024-02-09 11:28:30.483
242.0, -9421.796729778855, -15985.721765246602, 19355.895442473346, -482.104776156518, 47416.923632255035, 19289.86838935237, 35688.71744736641, 10812.43286281024, 32541.480069336903, 2823.5170630832986, 38910.54259664328, 28198.849046093113, 40370.1785648082, 35519.894721495475, 30110.39258365543, 24677.64463158186, 0.08, 1.034, 0.034, 192.0, 0.0, 0.0, 0.0, 0.0, 0.0, 0.0, 0.0, 0.0, 0.0, 1.7074745104907424E9, 0.0, 2024-02-09 11:28:30.490
244.0, -9481.788811896899, -16106.264723094075, 19367.674811801295, -520.8850527864757, 47462.54354268832, 19252.988011001115, 35717.86412213613, 10861.539645378549, 33410.1359141035, 3260.9854055625688, 39676.626286104474, 28619.866504653277, 41561.28067508706, 36022.51839906197, 30579.24277534995, 25038.893525468535, 0.08, 1.034, 0.034, 192.0, 0.0, 0.0, 0.0, 0.0, 0.0, 0.0, 0.0, 0.0, 0.0, 1.7074745104987612E9, 0.0, 2024-02-09 11:28:30.498
246.0, -9490.505992234468, -16037.644867616282, 19279.631290391837, -398.4869001492143, 47231.85118816509, 19281.57589215945, 35620.47757154436, 10793.500935256594, 32844.97205555106, 2410.6803429937772, 39075.766691656914, 28287.339602391676, 40695.39644663292, 35447.65388341593, 30260.17162325044, 24750.041931872598, 0.08, 1.034, 0.034, 192.0, 0.0, 0.0, 0.0, 0.0, 0.0, 0.0, 0.0, 0.0, 0.0, 1.7074745105057573E9, 0.0, 2024-02-09 11:28:30.505
248.0, -9564.177341959161, -16114.266647609074, 19210.02795815801, -563.4651259738357, 47441.48819941142, 19243.57792658543, 35667.01390350031, 10805.414415051273, 33075.48559611864, 3031.723562684484, 39380.80094823849, 28569.97741102903, 41074.03499770582, 36091.3170684954, 30387.844787579157, 24914.394308852472, 0.08, 1.034, 0.034, 192.0, 0.0, 0.0, 0.0, 0.0, 0.0, 0.0, 0.0, 0.0, 0.0, 1.7074745105137713E9, 0.0, 2024-02-09 11:28:30.513
250.0, -9691.24700918758, -16258.390695856893, 19094.894122468726, -589.4378530309026, 47127.4238380699, 19115.994169234535, 35512.09396268058, 10669.895788418746, 32640.721814718465, 2235.3309077418935, 39163.363178177264, 28244.69247397095, 41024.011793614845, 35675.8204908157, 30271.45925420037, 24798.791086529625, 0.084, 1.032, 0.044, 192.0, 1.0, 80.0, 16.0, 32.0, 0.5, 48.0, 0.0, 0.0, 0.0, 1.7074745105227919E9, 0.0, 2024-02-09 11:28:30.522
252.0, -9463.616843654734, -16035.879079804312, 19260.207624460178, -445.8949501389206, 47357.06566060372, 19279.34071771392, 35667.95267676743, 10789.075289854443, 32775.324019828324, 2287.1198996448397, 39019.417943885084, 28354.931277624524, 40646.87080942045, 35741.78048870331, 30194.524549785205, 24740.31892303454, 0.084, 1.032, 0.044, 192.0, 0.0, 0.0, 0.0, 0.0, 0.0, 0.0, 0.0, 0.0, 0.0, 1.7074745105298116E9, 0.0, 2024-02-09 11:28:30.529
254.0, -9502.151251095684, -16069.876083120835, 19228.80342350047, -471.33123532906, 47348.14731456606, 19265.10265649589, 35653.73696729386, 10795.445537024205, 33131.856695634924, 2517.655791956877, 39468.10686208092, 28494.696735703557, 41314.964451189575, 35987.537918989416, 30389.834092835677, 24946.379655168017, 0.084, 1.032, 0.044, 192.0, 0.0, 0.0, 0.0, 0.0, 0.0, 0.0, 0.0, 0.0, 0.0, 1.7074745105381308E9, 0.0, 2024-02-09 11:28:30.538
0.0, -9536.662344534678, -16147.347229402929, 19277.552578157494, -529.781047079688, 47213.76862690075, 19199.634396986294, 35594.929527631946, 10711.715902294625, 32936.63655956228, 2288.6174665233452, 39148.3875093922, 28401.86994098067, 40966.880734787075, 35703.22372951791, 30302.639937715525, 24813.275016936663, 0.084, 1.032, 0.044, 192.0, 0.0, 0.0, 0.0, 0.0, 0.0, 0.0, 0.0, 0.0, 0.0, 1.7074745105468216E9, 0.0, 2024-02-09 11:28:30.546
2.0, -9402.23895338046, -16003.424346855207, 19305.604017448906, -458.9260171563646, 47492.33841804724, 19285.800371861504, 35741.06523288074, 10842.786531780546, 33006.91044412976, 2151.578921267858, 39323.06639231043, 28411.928225985557, 41042.809610701755, 35864.491565762946, 30357.178194186476, 24851.161223788407, 0.084, 1.032, 0.044, 192.0, 0.0, 0.0, 0.0, 0.0, 0.0, 0.0, 0.0, 0.0, 0.0, 1.7074745105549192E9, 0.0, 2024-02-09 11:28:30.554
4.0, -9446.987145779985, -16000.116288675821, 19370.915814747314, -367.37327186742687, 47301.38746516556, 19279.16190375828, 35648.05962420221, 10800.206458593186, 33066.50019484761, 2529.233995584726, 39422.933986536744, 28556.521660866936, 41242.72361311002, 35956.31253198535, 30447.725110974923, 24964.261050732264, 0.076, 1.026, 0.042, 192.0, 1.0, 48.0, 16.0, 8.0, 0.5, 40.0, 0.0, 0.0, 0.0, 1.7074745105618296E9, 0.0, 2024-02-09 11:28:30.561
6.0, -9368.823095419777, -15979.910311688223, 19410.94778906677, -415.8765573354432, 47459.9507403315, 19315.036453609046, 35750.251799851874, 10849.357944650406, 33106.80039010053, 2306.767083021055, 39241.19195237064, 28496.954261893545, 40967.417176654, 35843.14564980813, 30379.284069452773, 24857.598526191538, 0.076, 1.026, 0.042, 192.0, 0.0, 0.0, 0.0, 0.0, 0.0, 0.0, 0.0, 0.0, 0.0, 1.7074745105700006E9, 0.0, 2024-02-09 11:28:30.570
8.0, -9481.49823921898, -16071.08307732142, 19269.170673986755, -473.65581675241197, 47388.87219296362, 19262.04046750551, 35681.98957228536, 10819.048979169009, 33227.924493303835, 2313.2267371686385, 39551.434165410305, 28527.240875630487, 41383.830175856376, 36030.117992176776, 30487.824140527744, 24988.311527766175, 0.076, 1.026, 0.042, 192.0, 0.0, 0.0, 0.0, 0.0, 0.0, 0.0, 0.0, 0.0, 0.0, 1.7074745105789163E9, 0.0, 2024-02-09 11:28:30.578
10.0, -9457.44776218507, -16016.880097017302, 19354.867262228403, -406.93585955332037, 47255.87931345455, 19269.19302573121, 35618.04123139873, 10759.772152873535, 32934.98253047258, 2207.190061472662, 39144.56536109035, 28416.48798185444, 40881.742940156815, 35811.339117448224, 30294.839178900624, 24816.71718558278, 0.076, 1.026, 0.042, 192.0, 0.0, 0.0, 0.0, 0.0, 0.0, 0.0, 0.0, 0.0, 0.0, 1.707474510585913E9, 0.0, 2024-02-09 11:28:30.585
12.0, -9390.459584052514, -16006.039500956476, 19363.249166399142, -435.68020292284524, 47537.84656975825, 19322.166660090286, 35753.06811965324, 10871.352061194428, 33193.07812369801, 2282.8060129649657, 39450.94072233924, 28546.038692717397, 41202.557528323836, 35981.68176194212, 30446.249895840872, 24934.488527117795, 0.076, 1.026, 0.042, 192.0, 0.0, 0.0, 0.0, 0.0, 0.0, 0.0, 0.0, 0.0, 0.0, 1.7074745105939054E9, 0.0, 2024-02-09 11:28:30.593
14.0, -9521.619620516256, -16082.258949549074, 19271.942290299212, -441.4693047367698, 47219.82594964814, 19235.307781136966, 35605.09957135911, 10765.181275031719, 33054.49730807511, 2190.29214266445, 39378.23049762613, 28463.001962065933, 41199.56239456683, 35910.22323491851, 30410.352994245648, 24934.64498932898, 0.07, 1.024, 0.052000000000000005, 192.0, 1.0, 24.0, 16.0, 0.0, 0.5, 80.0, 0.0, 0.0, 0.0, 1.7074745106019917E9, 0.0, 2024-02-09 11:28:30.601
16.0, -9438.33702067578, -16043.724542108124, 19333.54369801804, -466.01152014869695, 47407.424140861534, 19293.71288939868, 35700.899148094555, 10818.065502412976, 32931.40625135973, 2169.080337176363, 39159.20575370857, 28435.688130341547, 40840.41456465895, 35789.65792532658, 30318.15204836751, 24813.72205182577, 0.07, 1.024, 0.052000000000000005, 192.0, 0.0, 0.0, 0.0, 0.0, 0.0, 0.0, 0.0, 0.0, 0.0, 1.7074745106109617E9, 0.0, 2024-02-09 11:28:30.610
18.0, -9502.531230751423, -16090.842019419912, 19280.167732258768, -474.7734039751773, 47397.11998666763, 19258.911223281768, 35685.25292697584, 10824.636915282836, 33161.62921924939, 2188.9063345082204, 39519.20294990575, 28481.866834386212, 41353.632969097256, 35987.62732596723, 30471.775588008833, 24970.854815346578, 0.07, 1.024, 0.052000000000000005, 192.0, 0.0, 0.0, 0.0, 0.0, 0.0, 0.0, 0.0, 0.0, 0.0, 1.7074745106179435E9, 0.0, 2024-02-09 11:28:30.617
20.0, -9522.960725183573, -16099.268627079562, 19271.428200176742, -474.6839969973561, 47203.75504538477, 19229.831603745413, 35603.62435622506, 10758.095772039387, 32837.908904303185, 2117.2019382955955, 39107.61792750572, 28378.71353372497, 40843.83438156061, 35739.23238983541, 30288.156007308487, 24804.557836599095, 0.07, 1.024, 0.052000000000000005, 192.0, 0.0, 0.0, 0.0, 0.0, 0.0, 0.0, 0.0, 0.0, 0.0, 1.7074745106262405E9, 0.0, 2024-02-09 11:28:30.626
22.0, -9452.843302827276, -16066.32215575244, 19321.361997289896, -478.37203483248175, 47508.83400545526, 19304.732299415147, 35745.24500909389, 10858.76802906609, 33074.72563680716, 2169.728537765567, 39375.83886096941, 28459.53744167536, 41120.414867450585, 35889.90549920863, 30405.010927320833, 24900.40211682345, 0.07, 1.024, 0.052000000000000005, 192.0, 0.0, 0.0, 0.0, 0.0, 0.0, 0.0, 0.0, 0.0, 0.0, 1.7074745106339433E9, 0.0, 2024-02-09 11:28:30.633
24.0, -9563.350327414313, -16125.196650647718, 19245.030789975022, -474.3487208305265, 47194.52377492473, 19216.487612305595, 35585.29592577171, 10723.74114081158, 32973.606344891356, 2132.08820010283, 39329.883674369295, 28412.844647508224, 41149.47213524248, 35842.43039398556, 30381.96627878741, 24905.095983159066, 0.068, 1.022, 0.056, 192.0, 1.0, 16.0, 15.5, 120.0, 0.5, 96.0, 0.0, 0.0, 0.0, 1.707474510641997E9, 0.0, 2024-02-09 11:28:30.641
26.0, -9468.176599523616, -16075.776943657034, 19306.654549438306, -492.20776465031685, 47379.6856259925, 19278.558406657983, 35676.73691233837, 10799.178278348241, 32875.81746289939, 2132.2670140584723, 39119.039668922385, 28399.43360083504, 40781.338904063574, 35731.87866590961, 30286.121998563052, 24779.233310131232, 0.068, 1.022, 0.056, 192.0, 0.0, 0.0, 0.0, 0.0, 0.0, 0.0, 0.0, 0.0, 0.0, 1.707474510650042E9, 0.0, 2024-02-09 11:28:30.650
28.0, -9531.543795054413, -16113.841964464424, 19258.82181630395, -496.63341005246764, 47379.35034982567, 19244.13672019681, 35659.034330729766, 10795.691406213213, 33112.67889889227, 2160.5196190499805, 39489.16220535782, 28453.033084038867, 41302.42512255015, 35916.01233673243, 30434.671692213025, 24939.785890553703, 0.068, 1.022, 0.056, 192.0, 0.0, 0.0, 0.0, 0.0, 0.0, 0.0, 0.0, 0.0, 0.0, 1.7074745106580229E9, 0.0, 2024-02-09 11:28:30.658
30.0, -9553.493208109523, -16119.027569178053, 19250.015228988555, -499.136805431462, 47188.24293473279, 19203.300083076963, 35568.12978603003, 10720.388379143284, 32782.16365363165, 2097.3312374748275, 39077.107796324235, 28352.159661312064, 40782.79176745317, 35674.92642103749, 30251.722663846336, 24768.727990237236, 0.068, 1.022, 0.056, 192.0, 0.0, 0.0, 0.0, 0.0, 0.0, 0.0, 0.0, 0.0, 0.0, 1.707474510667068E9, 0.0, 2024-02-09 11:28:30.667
32.0, -9479.77715489592, -16088.763307185569, 19302.742994158627, -499.76265427621064, 47504.095435630734, 19284.749839872104, 35723.22854080541, 10836.95272647771, 33024.50126701609, 2157.725650993067, 39347.18392457771, 28434.05645299631, 41043.16723861304, 35827.94646357852, 30374.701961839433, 24859.58783144806, 0.068, 1.022, 0.056, 192.0, 0.0, 0.0, 0.0, 0.0, 0.0, 0.0, 0.0, 0.0, 0.0, 1.7074745106740408E9, 0.0, 2024-02-09 11:28:30.674
34.0, -9588.943074815641, -16143.413322378794, 19228.17757465572, -486.4857180697582, 47194.881402836014, 19209.066833146433, 35577.76338789027, 10720.321323909919, 32921.19150414366, 2156.2951393479275, 39311.376429960306, 28388.972984429955, 41058.65699752057, 35778.68321879902, 30365.515394868304, 24882.699535214848, 0.07, 1.03, 0.058, 192.0, 1.0, 24.0, 16.0, 24.0, 0.5, 104.0, 0.0, 0.0, 0.0, 1.707474510682035E9, 0.0, 2024-02-09 11:28:30.682
36.0, -9490.30482653437, -16091.177295586742, 19308.1074128279, -489.14557565993977, 47388.84984121917, 19283.63225264934, 35688.69509562196, 10807.694292985714, 32817.79233429341, 2240.9411956001754, 39106.63445074969, 28379.965231414466, 40656.61617000296, 35656.083900461665, 30277.114245547564, 24772.013696672166, 0.07, 1.03, 0.058, 192.0, 0.0, 0.0, 0.0, 0.0, 0.0, 0.0, 0.0, 0.0, 0.0, 1.7074745106903512E9, 0.0, 2024-02-09 11:28:30.690
38.0, -9548.017030717972, -16127.90121172681, 19262.95688902818, -488.72089251528894, 47388.60397203016, 19258.24067094811, 35681.58724088517, 10819.205441380196, 33076.580831596955, 2399.9291539107744, 39486.50234776764, 28440.002017021423, 41151.34968177673, 35839.81523988429, 30445.26641908484, 24951.721722092836, 0.07, 1.03, 0.058, 192.0, 0.0, 0.0, 0.0, 0.0, 0.0, 0.0, 0.0, 0.0, 0.0, 1.7074745106980677E9, 0.0, 2024-02-09 11:28:30.698
40.0, -9558.835275034342, -16123.073234924464, 19258.79946455949, -489.2573343822163, 47197.49655693729, 19234.838394503404, 35605.94893764841, 10751.770228358535, 32754.91687714063, 2496.1534137908716, 39076.66076143512, 28341.520230951337, 40633.72798368073, 35600.62922246805, 30270.162853021964, 24795.81830451707, 0.07, 1.03, 0.058, 192.0, 0.0, 0.0, 0.0, 0.0, 0.0, 0.0, 0.0, 0.0, 0.0, 1.7074745107060997E9, 0.0, 2024-02-09 11:28:30.706
42.0, -9517.149271625194, -16122.29092386853, 19259.872348293346, -543.3709077085147, 47483.57653422076, 19278.066668279967, 35736.93016015651, 10835.164586921286, 32991.15246428877, 2755.321890750157, 39338.51144772905, 28421.986510990446, 40895.8021874192, 35736.63958747859, 30388.53769165727, 24879.726753202292, 0.07, 1.03, 0.058, 192.0, 0.0, 0.0, 0.0, 0.0, 0.0, 0.0, 0.0, 0.0, 0.0, 1.707474510714088E9, 0.0, 2024-02-09 11:28:30.714
44.0, -9625.823453166897, -16167.262633712608, 19161.390562223263, -531.0774482580958, 47155.45292561685, 19193.688832961183, 35577.85279486809, 10701.076471933899, 32837.417165925166, 2859.928054800994, 39249.61856003029, 28331.014911057344, 40826.712945307845, 35650.697130047934, 30321.504810035804, 24845.886212096957, 0.07200000000000001, 1.024, 0.065, 192.0, 1.0, 40.0, 15.5, 104.0, 1.0, 32.0, 0.0, 0.0, 0.0, 1.7074745107231314E9, 0.0, 2024-02-09 11:28:30.723
46.0, -9527.229908374538, -16145.335572401951, 19256.452531391686, -563.7333469072994, 47383.66423650554, 19250.52931911103, 35699.11100853813, 10790.505801499583, 32786.030505422415, 3068.782754991383, 39071.74337765496, 28354.685408435515, 40575.322875419006, 35528.07545996612, 30263.971419807844, 24756.881565675925, 0.07200000000000001, 1.024, 0.065, 192.0, 0.0, 0.0, 0.0, 0.0, 0.0, 0.0, 0.0, 0.0, 0.0, 1.7074745107301164E9, 0.0, 2024-02-09 11:28:30.730
48.0, -9566.524275126967, -16135.836081008445, 19225.785937999004, -505.97643923478597, 47375.01411140134, 19244.784920786016, 35696.272336992304, 10833.018819453577, 33006.798685407484, 3121.3540579502655, 39415.96024226669, 28364.47547250694, 41021.39663951357, 35751.79407021929, 30407.693136655467, 24914.997805952768, 0.07200000000000001, 1.024, 0.065, 192.0, 0.0, 0.0, 0.0, 0.0, 0.0, 0.0, 0.0, 0.0, 0.0, 1.7074745107381735E9, 0.0, 2024-02-09 11:28:30.738
50.0, -9554.789609287931, -16118.75934824459, 19274.512740911574, -452.4216595198703, 47201.1398912835, 19255.29024068001, 35598.03642011123, 10780.022833350044, 32762.404711533156, 3363.9151887792577, 39084.103892338746, 28378.66883023606, 40627.13421906641, 35638.91776071999, 30279.841158371113, 24819.757022828704, 0.07200000000000001, 1.024, 0.065, 192.0, 0.0, 0.0, 0.0, 0.0, 0.0, 0.0, 0.0, 0.0, 0.0, 1.7074745107461126E9, 0.0, 2024-02-09 11:28:30.746
52.0, -9497.16681208215, -16108.231676606141, 19290.80716261949, -499.5167850872022, 47478.9050196296, 19295.72454639966, 35709.48221796539, 10879.53279966507, 32999.40025799278, 3435.5301780140617, 39343.74175593159, 28439.398519921127, 40841.48744839281, 35750.16239287405, 30385.095523011154, 24888.712154473324, 0.07200000000000001, 1.024, 0.065, 192.0, 0.0, 0.0, 0.0, 0.0, 0.0, 0.0, 0.0, 0.0, 0.0, 1.7074745107543757E9, 0.0, 2024-02-09 11:28:30.754
54.0, -9609.372569247791, -16163.06050575501, 19191.028975371002, -498.8909362424536, 47144.4782190893, 19215.2359146161, 35544.168715973945, 10775.776001903534, 32901.41021030071, 3365.837438802414, 39282.63208659078, 28360.89919339409, 40820.94619523838, 35669.74081632386, 30340.280275378263, 24868.327363530087, 0.07, 1.026, 0.0665, 192.0, 1.0, 16.0, 16.0, 16.0, 1.0, 16.0, 0.0, 0.0, 0.0, 1.7074745107621684E9, 0.0, 2024-02-09 11:28:30.762
56.0, -9489.5895707118, -16095.37942354434, 19311.057843096, -496.4322443523699, 47401.63503904761, 19288.236712007132, 35675.529918137785, 10816.634990767836, 32814.551331347386, 3441.743962972637, 39096.41970353362, 28382.08864713772, 40539.89536045735, 35597.72349568886, 30277.360114736573, 24768.23625185922, 0.07, 1.026, 0.0665, 192.0, 0.0, 0.0, 0.0, 0.0, 0.0, 0.0, 0.0, 0.0, 0.0, 1.7074745107703767E9, 0.0, 2024-02-09 11:28:30.770
58.0, -9554.029649976452, -16143.189804934242, 19246.215432431156, -519.4321893968809, 47392.671989521026, 19265.639098362815, 35694.171273013504, 10811.136461631831, 33032.1455636198, 3408.2834015230424, 39450.985425828156, 28414.8563045092, 41018.200340056464, 35772.0447506958, 30434.895209657578, 24924.810221768646, 0.07, 1.026, 0.0665, 192.0, 0.0, 0.0, 0.0, 0.0, 0.0, 0.0, 0.0, 0.0, 0.0, 1.7074745107792225E9, 0.0, 2024-02-09 11:28:30.779
60.0, -9598.04023480895, -16167.173226734785, 19178.377888009298, -587.0462163741847, 47172.104975236056, 19190.693699204174, 35585.51944321626, 10692.292236362962, 32718.014147044916, 3276.9221993592028, 39052.02913904538, 28301.331794420697, 40591.30437270455, 35555.36693994605, 30267.41358845396, 24775.61232752947, 0.07, 1.026, 0.0665, 192.0, 0.0, 0.0, 0.0, 0.0, 0.0, 0.0, 0.0, 0.0, 0.0, 1.707474510785198E9, 0.0, 2024-02-09 11:28:30.785
62.0, -9479.35247175127, -16079.822609403445, 19318.880953655356, -472.4711742962807, 47545.2226454285, 19303.01121509209, 35774.592849563705, 10850.788456295546, 32954.786176059984, 3497.288047944075, 39315.15387477325, 28421.83004877926, 40851.90336130898, 35707.98465108689, 30370.835110048665, 24851.87647961098, 0.07, 1.026, 0.0665, 192.0, 0.0, 0.0, 0.0, 0.0, 0.0, 0.0, 0.0, 0.0, 0.0, 1.7074745107942116E9, 0.0, 2024-02-09 11:28:30.794
64.0, -9600.14129878775, -16162.121732487885, 19222.343769352887, -482.57416279007947, 47206.28079250822, 19217.85106871737, 35607.58061499365, 10755.324155726928, 32918.55399829793, 3458.328957358475, 39325.65919466725, 28414.029289964354, 40941.98089146386, 35721.172180315516, 30381.385133431573, 24906.951177948857, 0.07, 1.03, 0.06725, 192.0, 1.0, 24.0, 16.0, 40.0, 1.0, 16.0, 0.0, 0.0, 0.0, 1.7074745108022735E9, 0.0, 2024-02-09 11:28:30.802
66.0, -9536.237661390027, -16131.052807695009, 19236.268906148543, -571.7576231667547, 47350.06956458921, 19248.96469699916, 35681.34137169616, 10813.773967477557, 32766.80800519085, 3334.0532581869675, 39078.918287625114, 28346.66113217606, 40551.45121234074, 35597.2541090553, 30270.27461174424, 24769.152673381886, 0.07, 1.03, 0.06725, 192.0, 0.0, 0.0, 0.0, 0.0, 0.0, 0.0, 0.0, 0.0, 0.0, 1.7074745108102453E9, 0.0, 2024-02-09 11:28:30.810
68.0, -9622.493043243056, -16193.660043914324, 19118.363454146798, -596.2551350897712, 47299.822843053684, 19185.03870785698, 35653.356987638115, 10790.774022433046, 32883.50646299201, 3204.4354920906417, 39350.76020369056, 28324.108222020655, 40880.35713200059, 35723.74263092788, 30340.459089333905, 24866.04748559564, 0.07, 1.03, 0.06725, 192.0, 0.0, 0.0, 0.0, 0.0, 0.0, 0.0, 0.0, 0.0, 0.0, 1.7074745108182473E9, 0.0, 2024-02-09 11:28:30.818
70.0, -9552.42032437567, -16119.765176745079, 19267.2484239636, -463.6645869808897, 47230.97947013134, 19247.71299930966, 35638.58248455316, 10780.380461261328, 32791.57373804733, 3383.9870553001233, 39086.07084585081, 28402.451086336507, 40690.21084191929, 35626.24432161383, 30273.35915247907, 24794.656013805394, 0.07, 1.03, 0.06725, 192.0, 0.0, 0.0, 0.0, 0.0, 0.0, 0.0, 0.0, 0.0, 0.0, 1.7074745108266287E9, 0.0, 2024-02-09 11:28:30.826
72.0, -9520.144405382205, -16142.251031667118, 19266.130836740835, -552.3786607240035, 47499.915659417595, 19270.847054820904, 35758.41018657806, 10863.10426749042, 32908.69687899314, 3080.9644557195256, 39296.80309257544, 28370.488091765415, 40855.166715999454, 35691.57847065669, 30377.004191518332, 24864.415808250407, 0.07, 1.03, 0.06725, 192.0, 0.0, 0.0, 0.0, 0.0, 0.0, 0.0, 0.0, 0.0, 0.0, 1.7074745108332605E9, 0.0, 2024-02-09 11:28:30.833
74.0, -9621.71073218712, -16201.036119584576, 19146.97368704959, -601.1054636365728, 47163.94658850987, 19127.415910651198, 35583.105454815086, 10726.557460612948, 32818.30642441588, 3158.3461950237984, 39250.11029840831, 28349.142175810597, 40873.38338773053, 35615.24726334182, 30314.553417510204, 24851.764720888703, 0.066, 1.032, 0.067625, 192.0, 0.5, 120.0, 16.0, 40.0, 1.0, 16.0, 0.0, 0.0, 0.0, 1.7074745108412907E9, 0.0, 2024-02-09 11:28:30.841
76.0, -9554.879016265753, -16208.345140021462, 19254.396170901797, -524.1260557324953, 47349.84604714466, 19260.922880282746, 35672.60183961414, 10801.860487682878, 32826.017776252964, 2787.351940554612, 39093.670438965615, 28338.07806230522, 40671.88241146594, 35693.88070033559, 30273.537966434717, 24758.84851918799, 0.066, 1.032, 0.067625, 192.0, 0.0, 0.0, 0.0, 0.0, 0.0, 0.0, 0.0, 0.0, 0.0, 1.7074745108503492E9, 0.0, 2024-02-09 11:28:30.850
78.0, -9531.476739821046, -16111.830307463446, 19197.80155394096, -550.8363903565872, 47331.98700332487, 19204.305911577452, 35663.079996476175, 10799.312388814973, 32855.946762078616, 2910.286535058801, 39347.07216585543, 28362.910850395067, 40889.81191990518, 35817.99993729591, 30327.137449638543, 24881.403134036438, 0.066, 1.032, 0.067625, 192.0, 0.0, 0.0, 0.0, 0.0, 0.0, 0.0, 0.0, 0.0, 0.0, 1.7074745108583117E9, 0.0, 2024-02-09 11:28:30.858
80.0, -9504.11820460775, -16058.052010303976, 19357.92945121878, -407.3605426979712, 47289.71985455989, 19273.1492844998, 35663.705845320925, 10773.540827458004, 32964.10685349785, 3045.760458202417, 39171.14158524771, 28470.221575524996, 40907.49214976933, 35707.35880224214, 30320.767202468778, 24813.09620298102, 0.066, 1.032, 0.067625, 192.0, 0.0, 0.0, 0.0, 0.0, 0.0, 0.0, 0.0, 0.0, 0.0, 1.7074745108653495E9, 0.0, 2024-02-09 11:28:30.865
82.0, -9571.396955418224, -16196.454011971238, 19194.337033550386, -598.4009025574807, 47455.41333620708, 19237.162975926756, 35720.92631112651, 10821.708836759191, 32972.399350690765, 2681.1140991585376, 39316.539682929484, 28415.68331905405, 41020.726087179915, 35765.60744829267, 30398.52892142879, 24876.619860723004, 0.066, 1.032, 0.067625, 192.0, 0.0, 0.0, 0.0, 0.0, 0.0, 0.0, 0.0, 0.0, 0.0, 1.7074745108733716E9, 0.0, 2024-02-09 11:28:30.873
84.0, -9690.375291153823, -16219.185736082285, 19129.628733352274, -598.2891438352042, 47135.06813467362, 19112.59670407733, 35550.65072186598, 10675.997814655044, 32673.780044767864, 2418.3916948308583, 39183.345637720304, 28300.88475953159, 40914.309431828195, 35757.22554412193, 30280.645821171503, 24827.356615943507, 0.065, 1.028, 0.0688125, 192.0, 1.0, 0.0, 16.0, 0.0, 1.0, 24.0, 0.0, 0.0, 0.0, 1.7074745108823037E9, 0.0, 2024-02-09 11:28:30.882
86.0, -9618.80500540793, -16224.7289687072, 19075.716325726073, -637.7846762877317, 47192.06508303465, 19148.292439972454, 35581.29496351421, 10706.686759792181, 32698.65753634662, 2456.5014191271566, 38972.47928052894, 28314.251102715865, 40576.1275382194, 35615.78370520875, 30180.755875200735, 24690.005146265645, 0.065, 1.028, 0.0688125, 192.0, 0.0, 0.0, 0.0, 0.0, 0.0, 0.0, 0.0, 0.0, 0.0, 1.707474510889364E9, 0.0, 2024-02-09 11:28:30.889
88.0, -9462.096925031772, -16035.432044915206, 19343.222003367187, -407.0923217645075, 47430.267623694854, 19289.19783701871, 35715.31602326823, 10846.496921360127, 32917.74933549754, 2421.2527181211376, 39361.22082009564, 28400.528836313348, 41231.212464715536, 35886.1727578846, 30319.873132690565, 24881.984279392276, 0.065, 1.028, 0.0688125, 192.0, 0.0, 0.0, 0.0, 0.0, 0.0, 0.0, 0.0, 0.0, 0.0, 1.7074745108976686E9, 0.0, 2024-02-09 11:28:30.897
90.0, -9450.339907448282, -16020.74694880807, 19364.679678044282, -399.24685946069474, 47284.534249846256, 19271.808179832482, 35677.42981641648, 10796.071385868954, 33072.82573852846, 2634.9130433694177, 39243.42712681617, 28532.69470127758, 41059.1934393875, 35868.24665883144, 30378.9711450304, 24883.92888115989, 0.065, 1.028, 0.0688125, 192.0, 0.0, 0.0, 0.0, 0.0, 0.0, 0.0, 0.0, 0.0, 0.0, 1.7074745109063864E9, 0.0, 2024-02-09 11:28:30.906
92.0, -9423.920145502108, -16033.241573958585, 19335.600058507927, -436.79779014561063, 47550.944692009056, 19338.39402656484, 35798.151588219596, 10909.752358168646, 33171.28517285409, 2524.629536226933, 39396.98361122413, 28531.577114054813, 41144.93473111805, 35941.85095332276, 30426.245084553375, 24929.660550315446, 0.065, 1.028, 0.0688125, 192.0, 0.0, 0.0, 0.0, 0.0, 0.0, 0.0, 0.0, 0.0, 0.0, 1.7074745109144115E9, 0.0, 2024-02-09 11:28:30.914
94.0, -9570.36877517328, -16139.166490932286, 19224.355426353864, -498.8238810090877, 47189.96401905585, 19182.222388055612, 35615.98487090884, 10755.547673171483, 33007.20101680768, 2225.786712859477, 39342.199485564175, 28410.27419689586, 41164.40310053863, 35852.33221677926, 30388.180063745986, 24914.081384430097, 0.0635, 1.024, 0.07140625, 192.0, 0.5, 120.0, 15.5, 112.0, 1.0, 40.0, 0.0, 0.0, 0.0, 1.7074745109216144E9, 0.0, 2024-02-09 11:28:30.921
96.0, -9397.85801146722, -16000.093936931366, 19387.992547511167, -403.80661532957737, 47430.066457994755, 19333.096663128934, 35752.06229115275, 10862.925453534777, 32915.715326752106, 2366.8709238613756, 39135.959939475055, 28458.710427130514, 40834.536055867204, 35831.634501413646, 30287.53015846374, 24808.11176396749, 0.0635, 1.024, 0.07140625, 192.0, 0.0, 0.0, 0.0, 0.0, 0.0, 0.0, 0.0, 0.0, 0.0, 1.7074745109295049E9, 0.0, 2024-02-09 11:28:30.929
98.0, -9475.619730427234, -16065.629251674325, 19314.276494297566, -441.0669733365743, 47443.47750466794, 19285.53215092804, 35742.60750324816, 10852.28602317405, 33286.35195331001, 2450.2652824241263, 39585.609982682465, 28574.961850042564, 41449.186676643694, 36028.86629448728, 30516.36731819717, 25016.407670546494, 0.0635, 1.024, 0.07140625, 192.0, 0.0, 0.0, 0.0, 0.0, 0.0, 0.0, 0.0, 0.0, 0.0, 1.7074745109384956E9, 0.0, 2024-02-09 11:28:30.938
100.0, -9520.83730946032, -16091.46786826466, 19276.300880468, -461.6529299799121, 47206.28079250822, 19230.23393514561, 35639.230685142364, 10762.141437785798, 32881.49480599103, 2247.534960214491, 39126.05811668136, 28416.018595220878, 40872.62342841905, 35774.570497819244, 30293.31926027766, 24814.079679737053, 0.0635, 1.024, 0.07140625, 192.0, 0.0, 0.0, 0.0, 0.0, 0.0, 0.0, 0.0, 0.0, 0.0, 1.7074745109454784E9, 0.0, 2024-02-09 11:28:30.945
102.0, -9451.524549904412, -16069.674917420736, 19312.19778206322, -483.3788255904705, 47505.235374597956, 19292.952930087202, 35771.776529762334, 10877.118811263897, 33084.71686657868, 2278.3580158183595, 39371.770843478545, 28491.343974035262, 41127.209797765, 35929.222217705516, 30398.73008712889, 24902.21260812433, 0.0635, 1.024, 0.07140625, 192.0, 0.0, 0.0, 0.0, 0.0, 0.0, 0.0, 0.0, 0.0, 0.0, 1.7074745109534976E9, 0.0, 2024-02-09 11:28:30.953
104.0, -9564.914949526185, -16129.823461749967, 19229.76454851205, -476.74035748724435, 47191.394530700985, 19204.50707727755, 35625.260844857796, 10762.856693608368, 32984.62575490782, 2213.8061778314327, 39334.68929942719, 28432.53653437335, 41189.81703398431, 35875.84625194624, 30374.09846473914, 24909.767497750225, 0.06075, 1.024, 0.070703125, 192.0, 0.5, 104.0, 16.0, 0.0, 1.0, 24.0, 0.0, 0.0, 0.0, 1.7074745109625833E9, 0.0, 2024-02-09 11:28:30.962
106.0, -9473.250445514972, -16079.196760558698, 19305.559313959995, -480.24958136672757, 47364.03940487378, 19275.339755456418, 35711.315061010726, 10831.52125257507, 32857.5560876794, 2211.0122097745193, 39106.41093330514, 28421.71829005698, 40802.14837815146, 35760.77947149032, 30277.248356014297, 24788.66574629137, 0.06075, 1.024, 0.070703125, 192.0, 0.0, 0.0, 0.0, 0.0, 0.0, 0.0, 0.0, 0.0, 0.0, 1.7074745109706738E9, 0.0, 2024-02-09 11:28:30.970
108.0, -9531.655553776689, -16120.033397678542, 19261.61578436086, -482.21653487879456, 47386.860535962645, 19256.877214536336, 35712.52205521132, 10833.309392131496, 33111.49425643614, 2239.7118496551334, 39488.4693012797, 28484.213767554018, 41342.63591082524, 35959.66529365365, 30449.401491809072, 24971.52536768024, 0.06075, 1.024, 0.070703125, 192.0, 0.0, 0.0, 0.0, 0.0, 0.0, 0.0, 0.0, 0.0, 0.0, 1.7074745109774852E9, 0.0, 2024-02-09 11:28:30.977
110.0, -9553.247338920515, -16126.38129310385, 19251.222223189143, -481.4342238228588, 47174.65307410396, 19212.15137388127, 35613.436772040935, 10731.050161248466, 32790.65731652467, 2176.1658401686955, 39080.21468880352, 28385.754333228393, 40836.435954145905, 35723.474409994415, 30263.591440152104, 24801.607406330993, 0.06075, 1.024, 0.070703125, 192.0, 0.0, 0.0, 0.0, 0.0, 0.0, 0.0, 0.0, 0.0, 0.0, 1.7074745109855175E9, 0.0, 2024-02-09 11:28:30.985
112.0, -9473.719832148532, -16089.61267347487, 19305.559313959995, -482.77532849017723, 47494.394778537135, 19302.094793569424, 35773.98935246341, 10880.426869443283, 33027.92108391775, 2237.9684135876196, 39343.85351465386, 28473.931965104577, 41083.08745421022, 35876.76267346891, 30381.63100262058, 24892.690764986368, 0.06075, 1.024, 0.070703125, 192.0, 0.0, 0.0, 0.0, 0.0, 0.0, 0.0, 0.0, 0.0, 0.0, 1.7074745109945E9, 0.0, 2024-02-09 11:28:30.994
114.0, -9596.162688274704, -16152.979869005665, 19218.253400117566, -482.55181104562416, 47176.06123400465, 19205.84818194487, 35620.09759188862, 10743.097751509877, 32935.921303739706, 2193.7566630550223, 39321.12179054282, 28418.119659199678, 41155.8647341567, 35834.18260028155, 30363.503737867326, 24912.49441057377, 0.064375, 1.024, 0.07135156250000001, 192.0, 1.0, 16.0, 16.0, 0.0, 1.0, 32.0, 0.0, 0.0, 0.0, 1.7074745110016086E9, 0.0, 2024-02-09 11:28:31.001
116.0, -9501.391291784203, -16100.609731746881, 19290.67305215276, -490.9784187052749, 47352.99764311286, 19272.925767055247, 35717.14886631356, 10822.535851304037, 32802.36963061924, 2196.081244478374, 39083.12041558271, 28398.248958378907, 40758.87540088599, 35712.700869166954, 30264.574916908135, 24789.17983641384, 0.064375, 1.024, 0.07135156250000001, 192.0, 0.0, 0.0, 0.0, 0.0, 0.0, 0.0, 0.0, 0.0, 0.0, 1.7074745110095673E9, 0.0, 2024-02-09 11:28:31.009
118.0, -9553.426152876158, -16133.623258307369, 19248.227089432134, -494.84527049604304, 47374.74589046787, 19243.510871352064, 35711.046840077266, 10821.775891992556, 33062.16395642328, 2232.7381053850777, 39464.82115564599, 28456.385845707162, 41279.00049436098, 35903.76358077092, 30427.228561309406, 24959.142501251998, 0.064375, 1.024, 0.07135156250000001, 192.0, 0.0, 0.0, 0.0, 0.0, 0.0, 0.0, 0.0, 0.0, 0.0, 1.7074745110175917E9, 0.0, 2024-02-09 11:28:31.017
120.0, -9573.363908930292, -16132.170394917775, 19248.227089432134, -488.944409959842, 47164.684196076894, 19213.246609359576, 35612.02861214025, 10740.259079964051, 32744.165688057627, 2208.2852969509718, 39068.88235436468, 28371.628030732638, 40775.52745050519, 35667.416234900506, 30244.659512598457, 24782.831940988537, 0.064375, 1.024, 0.07135156250000001, 192.0, 0.0, 0.0, 0.0, 0.0, 0.0, 0.0, 0.0, 0.0, 0.0, 1.7074745110265672E9, 0.0, 2024-02-09 11:28:31.026
122.0, -9509.25910583247, -16112.009121419087, 19283.833418349437, -538.5652826506237, 47482.59305746473, 19254.172653457244, 35759.058387167264, 10848.933261505756, 32976.55677515946, 2294.495975315091, 39321.6805841542, 28445.34408394624, 41015.607537699645, 35784.47232061295, 30359.636886076558, 24868.081494341077, 0.064375, 1.024, 0.07135156250000001, 192.0, 0.0, 0.0, 0.0, 0.0, 0.0, 0.0, 0.0, 0.0, 0.0, 1.707474511033571E9, 0.0, 2024-02-09 11:28:31.033
124.0, -9619.184985063672, -16156.332630673962, 19205.155277866757, -519.7898173081658, 47162.314911164634, 19178.132018820288, 35595.93535613243, 10722.087111721887, 32896.1128468648, 2321.407475639281, 39289.71758958311, 28362.933202139524, 41058.63464577611, 35573.51655644376, 30333.01595843029, 24854.223412778785, 0.06718750000000001, 1.016, 0.07067578125000001, 192.0, 1.0, 24.0, 15.5, 64.0, 1.0, 24.0, 0.0, 0.0, 0.0, 1.7074745110415719E9, 0.0, 2024-02-09 11:28:31.041
126.0, -9559.170551201172, -16136.819557764478, 19219.169821640233, -522.8296545540875, 47276.7111392869, 19243.019132974045, 35654.98866498336, 10760.8897400963, 32749.351292771258, 2599.932563296862, 39043.62488313018, 28392.705725753993, 40581.201384210755, 35764.22164013644, 30219.26793089723, 24759.675533732836, 0.06718750000000001, 1.016, 0.07067578125000001, 192.0, 0.0, 0.0, 0.0, 0.0, 0.0, 0.0, 0.0, 0.0, 0.0, 1.7074745110508628E9, 0.0, 2024-02-09 11:28:31.050
128.0, -9571.553417629411, -16134.38321761885, 19231.150356668277, -534.5419686486684, 47374.6788352345, 19217.873420461827, 35703.8272266182, 10789.634083465826, 32964.26331570903, 2751.0750593036487, 39404.91848050577, 28407.61433930568, 41069.51994532585, 35743.30040732627, 30376.35599092913, 24914.662529785935, 0.06718750000000001, 1.016, 0.07067578125000001, 192.0, 0.0, 0.0, 0.0, 0.0, 0.0, 0.0, 0.0, 0.0, 0.0, 1.707474511057636E9, 0.0, 2024-02-09 11:28:31.057
130.0, -9582.75164160152, -16130.404607105806, 19226.970580455134, -468.44786029432544, 47171.90380953596, 19237.945286982693, 35635.36383335159, 10748.8868533238, 32770.3842843037, 2911.3370670482004, 39073.330351511286, 28378.04298139131, 40682.0524551931, 35633.2627693728, 30257.71293136036, 24800.46746736377, 0.06718750000000001, 1.016, 0.07067578125000001, 192.0, 0.0, 0.0, 0.0, 0.0, 0.0, 0.0, 0.0, 0.0, 0.0, 1.707474511065628E9, 0.0, 2024-02-09 11:28:31.065
132.0, -9520.524385037945, -16136.640743808835, 19252.67508657874, -527.9929075232634, 47452.39585070561, 19273.104581010888, 35755.97384643243, 10886.39478521285, 32952.46159463663, 3033.2211295629895, 39293.115054740316, 28421.226551678963, 40810.709096277846, 35736.281959567306, 30337.66512127699, 24893.562483020127, 0.06718750000000001, 1.016, 0.07067578125000001, 192.0, 0.0, 0.0, 0.0, 0.0, 0.0, 0.0, 0.0, 0.0, 0.0, 1.7074745110736327E9, 0.0, 2024-02-09 11:28:31.073
134.0, -9604.924572101185, -16158.34428767494, 19235.352484625877, -470.3254068285712, 47196.848356348084, 19198.963844652637, 35609.0558301277, 10776.379499003828, 32917.05643141943, 3064.7594409894277, 39308.20248224765, 28375.94191741251, 40997.61438341312, 35659.503717363325, 30350.71854003889, 24910.527457061704, 0.06559375, 1.0230000000000001, 0.07233789062500001, 192.0, 1.0, 0.0, 16.0, 24.0, 1.0, 40.0, 0.0, 0.0, 0.0, 1.707474511082661E9, 0.0, 2024-02-09 11:28:31.082
136.0, -9492.092966090795, -16075.598129701393, 19324.223020580175, -455.9308833993535, 47390.10153890867, 19296.082174310945, 35709.19164528747, 10868.334575692961, 32773.11119712725, 3256.2691874824986, 39071.698674166044, 28400.640595035627, 40558.80493626653, 35656.59799058414, 30257.109434260066, 24783.837769489026, 0.06559375, 1.0230000000000001, 0.07233789062500001, 192.0, 0.0, 0.0, 0.0, 0.0, 0.0, 0.0, 0.0, 0.0, 0.0, 1.7074745110896225E9, 0.0, 2024-02-09 11:28:31.089
138.0, -9549.089914451828, -16118.804051733501, 19264.38740067332, -480.9871889337527, 47418.17532994453, 19276.077363023443, 35715.8301133907, 10866.76995358109, 33077.273735675066, 3298.156356591744, 39487.57523150149, 28482.984421608977, 41143.750088661924, 35877.72379848049, 30460.42090182554, 24976.308640993673, 0.06559375, 1.0230000000000001, 0.07233789062500001, 192.0, 0.0, 0.0, 0.0, 0.0, 0.0, 0.0, 0.0, 0.0, 0.0, 1.7074745110976343E9, 0.0, 2024-02-09 11:28:31.097
140.0, -9635.211185838127, -16171.10713375892, 19153.478044686086, -543.5944251530677, 47102.09931160204, 19188.03384161399, 35563.97236156135, 10692.292236362962, 32707.70999285102, 3204.234326390544, 39048.00582504342, 28354.461890990962, 40601.72028562073, 35600.09278060112, 30240.971474763333, 24782.966051455267, 0.06559375, 1.0230000000000001, 0.07233789062500001, 192.0, 0.0, 0.0, 0.0, 0.0, 0.0, 0.0, 0.0, 0.0, 0.0, 1.707474511105661E9, 0.0, 2024-02-09 11:28:31.105
142.0, -9508.230925587526, -16099.290978824018, 19261.81695006096, -525.7577330777327, 47498.2616303279, 19296.05982256649, 35789.99320149341, 10846.04988647102, 32871.43652098614, 3214.650239306717, 39246.19874312863, 28391.409324575583, 40772.956999892835, 35720.54633147077, 30294.1015713336, 24830.23999097824, 0.06559375, 1.0230000000000001, 0.07233789062500001, 192.0, 0.0, 0.0, 0.0, 0.0, 0.0, 0.0, 0.0, 0.0, 0.0, 1.7074745111126795E9, 0.0, 2024-02-09 11:28:31.112
144.0, -9649.918633689718, -16238.810567714045, 19131.50627988652, -662.1704294884718, 47138.10797191953, 19125.82893679487, 35599.042248611724, 10684.245608359053, 32855.387968467236, 3005.348504227222, 39251.69727226463, 28308.75257357986, 40892.96351587338, 35599.399876523006, 30320.14135362403, 24862.02417159369, 0.064796875, 1.0185, 0.0801689453125, 192.0, 1.0, 0.0, 15.5, 88.0, 1.0, 96.0, 0.0, 0.0, 0.0, 1.70747451112163E9, 0.0, 2024-02-09 11:28:31.121
146.0, -9479.218361284538, -16029.352370423363, 19325.96645664769, -424.593737673013, 47427.272489937845, 19306.945122116224, 35752.66578825305, 10842.875938758367, 32833.19268622311, 3185.034177903435, 39077.89010738017, 28355.75829216937, 40672.7988329886, 35637.95663570841, 30255.254239470272, 24762.29068783411, 0.064796875, 1.0185, 0.0801689453125, 192.0, 0.0, 0.0, 0.0, 0.0, 0.0, 0.0, 0.0, 0.0, 0.0, 1.7074745111298277E9, 0.0, 2024-02-09 11:28:31.129
148.0, -9542.607908559788, -16106.287074838528, 19286.493275939618, -471.8229737070768, 47443.142228501114, 19243.265002163054, 35748.59777076218, 10862.321956434484, 33076.17850019676, 3473.349329632441, 39499.10873164043, 28519.529523793404, 41229.64784260367, 35763.34992210268, 30469.07102692974, 24976.532158438225, 0.064796875, 1.0185, 0.0801689453125, 192.0, 0.0, 0.0, 0.0, 0.0, 0.0, 0.0, 0.0, 0.0, 0.0, 1.707474511137668E9, 0.0, 2024-02-09 11:28:31.137
150.0, -9627.253964812036, -16168.380220935373, 19165.927966347692, -512.3019829156378, 47138.5773585531, 19212.55370528146, 35599.8022079232, 10746.204643989164, 32676.37284712468, 3210.8951462382256, 39038.84160981674, 28368.61054523117, 40629.25763478966, 35775.75514027538, 30241.865544541546, 24793.76194402718, 0.064796875, 1.0185, 0.0801689453125, 192.0, 0.0, 0.0, 0.0, 0.0, 0.0, 0.0, 0.0, 0.0, 0.0, 1.707474511144692E9, 0.0, 2024-02-09 11:28:31.144
152.0, -9488.606093955766, -16078.839132647412, 19299.09965981241, -472.60528476301255, 47514.73486599146, 19327.553430504016, 35801.12437023215, 10910.713483180223, 32877.98558211155, 3178.552172011396, 39243.49418204954, 28414.18575217554, 40805.814064242135, 35798.01747775287, 30310.597158741613, 24853.97754358978, 0.064796875, 1.0185, 0.0801689453125, 192.0, 0.0, 0.0, 0.0, 0.0, 0.0, 0.0, 0.0, 0.0, 0.0, 1.7074745111537187E9, 0.0, 2024-02-09 11:28:31.153
154.0, -9685.368500395834, -16256.423742344827, 19119.346930902833, -662.9527405444074, 47112.55992800712, 19131.014541508503, 35594.5495479762, 10709.905410993744, 32924.67837627869, 3029.98012661697, 39323.960462088646, 28393.555092043294, 41046.36353807015, 35754.1410033871, 30377.026543262786, 24924.22907641281, 0.064796875, 1.0185, 0.0801689453125, 192.0, 0.0, 0.0, 0.0, 0.0, 0.0, 0.0, 0.0, 0.0, 0.0, 1.707474511161769E9, 0.0, 2024-02-09 11:28:31.161
156.0, -9602.175307533182, -16215.363587780428, 19156.339067976365, -648.4464583929132, 47274.18539216345, 19141.20693698012, 35664.599915099134, 10762.253196508074, 32556.254572421858, 2352.8116765989876, 38866.01792168831, 28036.374215647487, 40431.37764112683, 35079.00656211455, 30091.99709796871, 24594.96552884168, 0.056, 1.024, 0.08600000000000001, 192.0, 0.5, 96.0, 16.0, 0.0, 1.0, 88.0, 0.0, 0.0, 0.0, 1.7074745111687348E9, 0.0, 2024-02-09 11:28:31.168
158.0, -9511.561335511367, -16091.490220009116, 19295.14340104382, -385.8358127875105, 47418.64471657809, 19324.20066883572, 35716.12068606862, 10844.753485292613, 32926.28770187947, 3354.482752619118, 39461.468393977695, 28567.585774372314, 41215.141560452175, 36243.01835811357, 30417.617311193626, 24991.016088845266, 0.056, 1.024, 0.08600000000000001, 192.0, 0.0, 0.0, 0.0, 0.0, 0.0, 0.0, 0.0, 0.0, 0.0, 1.7074745111779044E9, 0.0, 2024-02-09 11:28:31.177
160.0, -9525.754693240488, -16094.373595043851, 19314.276494297566, -433.5567871995911, 47242.96000515938, 19249.47878712163, 35662.230630186874, 10774.434897236217, 32921.54913205494, 2994.6420186331297, 39141.480820355515, 28445.232325223962, 40838.76053556926, 35711.27035752182, 30296.157931823487, 24845.841508608046, 0.056, 1.024, 0.08600000000000001, 192.0, 0.0, 0.0, 0.0, 0.0, 0.0, 0.0, 0.0, 0.0, 0.0, 1.7074745111857848E9, 0.0, 2024-02-09 11:28:31.185
162.0, -9502.061844117861, -16109.684539995736, 19303.502953470106, -548.780029866699, 47533.040944700355, 19302.25125578061, 35800.20794870948, 10917.26254430563, 32982.85996709585, 2760.149867552503, 39323.26755801053, 28440.449051910527, 41022.69304069198, 35813.61899538267, 30389.54352015776, 24890.7238114743, 0.056, 1.024, 0.08600000000000001, 192.0, 0.0, 0.0, 0.0, 0.0, 0.0, 0.0, 0.0, 0.0, 0.0, 1.7074745111938007E9, 0.0, 2024-02-09 11:28:31.193
164.0, -9649.940985434174, -16170.905968058822, 19147.666591127705, -530.9209860469086, 47149.75323078075, 19203.121269121322, 35604.630184725545, 10758.296937739486, 32937.70944329613, 2665.0208431507162, 39295.61845011931, 28358.03817010381, 41115.49748367041, 35760.533602301315, 30347.633999304056, 24887.348698061553, 0.056, 1.024, 0.08600000000000001, 192.0, 0.0, 0.0, 0.0, 0.0, 0.0, 0.0, 0.0, 0.0, 0.0, 1.70747451120079E9, 0.0, 2024-02-09 11:28:31.200
166.0, -9509.527326765934, -16090.931426397734, 19251.266926678054, -500.2767443986827, 47349.91310237803, 19266.220243718653, 35711.00213658835, 10817.059673912487, 32630.08238435774, 2556.7713447536644, 38990.09245515972, 28363.38023702863, 40613.27613750412, 35690.86321483412, 30186.723790970304, 24755.920440664344, 0.06, 1.022, 0.08600000000000001, 192.0, 0.5, 112.0, 15.5, 120.0, 1.0, 88.0, 0.0, 0.0, 0.0, 1.7074745112098672E9, 0.0, 2024-02-09 11:28:31.209
168.0, -9640.843825440863, -16204.075956830498, 19165.145655291755, -599.7196554803438, 47328.500131189845, 19180.590710710374, 35677.45216816094, 10779.75461241658, 33080.201814198714, 2475.9250850588187, 39447.00681531511, 28408.083725939243, 41266.1929447881, 35786.21575668046, 30409.078944811696, 24928.654721814957, 0.06, 1.022, 0.08600000000000001, 192.0, 0.0, 0.0, 0.0, 0.0, 0.0, 0.0, 0.0, 0.0, 0.0, 1.7074745112178738E9, 0.0, 2024-02-09 11:28:31.217
170.0, -9622.291877542959, -16169.9671947917, 19199.701452219662, -496.1640234189062, 47140.52196032071, 19207.099879634367, 35593.83429215363, 10721.26009717704, 32625.45557325549, 2408.534575526068, 38990.964173193475, 28333.518306436337, 40688.377998873955, 35692.49489217936, 30166.048427349142, 24752.724141207236, 0.06, 1.022, 0.08600000000000001, 192.0, 0.0, 0.0, 0.0, 0.0, 0.0, 0.0, 0.0, 0.0, 0.0, 1.707474511224862E9, 0.0, 2024-02-09 11:28:31.224
172.0, -9462.29809073187, -16072.93827211121, 19323.39600603533, -531.3233174471042, 47530.470494088, 19277.66433687977, 35794.865881784666, 10882.125602021886, 32989.49843519908, 2313.8749377578424, 39313.07516253891, 28402.47343808096, 41125.04167855283, 35819.72102161897, 30359.636886076558, 24870.9201658869, 0.06, 1.022, 0.08600000000000001, 192.0, 0.0, 0.0, 0.0, 0.0, 0.0, 0.0, 0.0, 0.0, 0.0, 1.707474511233858E9, 0.0, 2024-02-09 11:28:31.233
174.0, -9586.551438158922, -16146.34140090244, 19189.37494628131, -498.1533286754285, 47162.00198674226, 19147.73364636107, 35592.269670041765, 10713.481690106593, 33026.49057227261, 2408.2663545926043, 39347.161572833254, 28405.96031021599, 41163.08434761576, 35812.14378024862, 30362.54261285575, 24888.86861668451, 0.06, 1.022, 0.08600000000000001, 192.0, 0.0, 0.0, 0.0, 0.0, 0.0, 0.0, 0.0, 0.0, 0.0, 1.7074745112419155E9, 0.0, 2024-02-09 11:28:31.241
176.0, -9417.549898332345, -16006.26301840103, 19370.044096713555, -424.7278481397448, 47408.251155406375, 19311.415471007287, 35754.05159640928, 10857.62809009887, 32856.282038245445, 2368.9272843512636, 39083.478043494, 28432.134202973153, 40745.95609259082, 35672.378322169585, 30241.731434074813, 24767.208071614277, 0.064, 1.024, 0.082, 192.0, 1.0, 0.0, 16.0, 0.0, 1.0, 72.0, 0.0, 0.0, 0.0, 1.707474511249152E9, 0.0, 2024-02-09 11:28:31.249
178.0, -9488.516686977946, -16073.452362233684, 19305.402851748808, -466.63736899344553, 47412.47563510843, 19283.185217760234, 35735.76786944483, 10865.987642525155, 33217.95561527677, 2484.7093206297545, 39552.21647646624, 28529.36429135374, 41391.921507349194, 36032.21905615557, 30471.30620137527, 25005.947054141412, 0.064, 1.024, 0.082, 192.0, 0.0, 0.0, 0.0, 0.0, 0.0, 0.0, 0.0, 0.0, 0.0, 1.7074745112569473E9, 0.0, 2024-02-09 11:28:31.256
180.0, -9514.824690201842, -16088.204513574186, 19288.81785736297, -444.8667698939765, 47172.64141710298, 19235.553650325972, 35625.66317625799, 10764.801295375979, 32903.399515557234, 2374.7163861651884, 39141.99491047799, 28422.902932513112, 40856.776041600235, 35728.95058738597, 30260.37278895054, 24817.43244140535, 0.064, 1.024, 0.082, 192.0, 0.0, 0.0, 0.0, 0.0, 0.0, 0.0, 0.0, 0.0, 0.0, 1.7074745112659156E9, 0.0, 2024-02-09 11:28:31.265
182.0, -9468.400116968169, -16086.394022273305, 19292.930578342748, -501.75195953273294, 47483.73299643195, 19288.840209107424, 35774.63755305261, 10882.080898532975, 33052.48565107413, 2251.7147364276334, 39326.41915397873, 28452.58604914976, 41020.74843892437, 35826.49360018892, 30347.00815045931, 24878.698572957346, 0.064, 1.024, 0.082, 192.0, 0.0, 0.0, 0.0, 0.0, 0.0, 0.0, 0.0, 0.0, 0.0, 1.7074745112739723E9, 0.0, 2024-02-09 11:28:31.273
184.0, -9529.867414220264, -16101.839077691922, 19285.33098522794, -463.19520034732824, 47235.852150422594, 19218.90160070677, 35650.831240514664, 10779.776964161036, 33061.56045932299, 2306.78943476551, 39379.34808484889, 28444.58412463476, 41225.04338324587, 35816.524722161856, 30383.933232299478, 24919.222285654818, 0.064, 1.024, 0.082, 192.0, 0.0, 0.0, 0.0, 0.0, 0.0, 0.0, 0.0, 0.0, 0.0, 1.707474511280943E9, 0.0, 2024-02-09 11:28:31.280
186.0, -9450.094038259273, -16053.313440479451, 19338.483433542664, -449.3594705294932, 47378.27746609181, 19320.82555542297, 35735.298482811275, 10856.711668576201, 32912.139047639255, 2293.825422981432, 39131.44488709508, 28441.00784552191, 40798.14741589397, 35775.285753641816, 30283.976231095345, 24812.29154018063, 0.068, 1.024, 0.084, 192.0, 1.0, 16.0, 16.0, 0.0, 1.0, 80.0, 0.0, 0.0, 0.0, 1.7074745112899904E9, 0.0, 2024-02-09 11:28:31.289
188.0, -9519.473853048547, -16110.42214756276, 19274.982127545136, -475.0863283975516, 47399.91395472455, 19273.506912411085, 35728.19062807449, 10850.654345828814, 33149.626332476895, 2298.5863445504124, 39503.02028692011, 28486.247776299453, 41317.78077099095, 35938.98993003248, 30446.004026651866, 24985.6963736649, 0.068, 1.024, 0.084, 192.0, 0.0, 0.0, 0.0, 0.0, 0.0, 0.0, 0.0, 0.0, 0.0, 1.7074745112979643E9, 0.0, 2024-02-09 11:28:31.297
190.0, -9552.84500752032, -16121.195688390218, 19252.317458667454, -482.86473546799846, 47166.1817629554, 19220.80149898547, 35617.86241744309, 10749.22212949063, 32800.02269745144, 2214.968468543109, 39092.128168598196, 28374.57846100074, 40817.74989578127, 35693.99245905787, 30254.918963303444, 24809.542275612628, 0.068, 1.024, 0.084, 192.0, 0.0, 0.0, 0.0, 0.0, 0.0, 0.0, 0.0, 0.0, 0.0, 1.7074745113049724E9, 0.0, 2024-02-09 11:28:31.304
192.0, -9461.001689553463, -16072.42418198874, 19306.54279071603, -491.2913431276492, 47487.08575810025, 19295.545732444018, 35772.42473035154, 10863.663061101803, 33024.23304608263, 2285.4882222996025, 39325.838008622886, 28453.48011892797, 41030.53850299579, 35834.562579937294, 30354.831261018666, 24875.54697698915, 0.068, 1.024, 0.084, 192.0, 0.0, 0.0, 0.0, 0.0, 0.0, 0.0, 0.0, 0.0, 0.0, 1.7074745113130012E9, 0.0, 2024-02-09 11:28:31.313
194.0, -9588.853667837819, -16153.315145172495, 19232.89379273579, -487.26802912569394, 47190.52281266723, 19205.669367989227, 35634.000376939824, 10734.358219427852, 32972.46640592413, 2241.9693758451194, 39341.05954659695, 28416.66679581008, 41143.50421947292, 35804.03009701134, 30363.079054722675, 24910.88508497299, 0.068, 1.024, 0.084, 192.0, 0.0, 0.0, 0.0, 0.0, 0.0, 0.0, 0.0, 0.0, 0.0, 1.7074745113219929E9, 0.0, 2024-02-09 11:28:31.321
196.0, -9500.966608639552, -16107.628179505848, 19298.227941778656, -500.6790757988782, 47348.43788724398, 19267.67310710825, 35710.28688076579, 10809.080101141943, 32820.45219188359, 2219.4388174341702, 39083.388636516174, 28382.55803377128, 40729.885188327455, 35658.877868518575, 30252.817899324647, 24770.627888515937, 0.07200000000000001, 1.024, 0.084, 192.0, 1.0, 32.0, 16.0, 0.0, 1.0, 80.0, 0.0, 0.0, 0.0, 1.707474511330345E9, 0.0, 2024-02-09 11:28:31.330
198.0, -9544.79837951641, -16143.189804934242, 19260.744066327105, -497.39336936394807, 47385.29591385078, 19260.498197138095, 35717.10416282465, 10834.09170318743, 33091.75766608211, 2262.6447394662787, 39482.12140585439, 28449.076825270276, 41273.63607569171, 35876.04741764634, 30428.480258998905, 24953.55456513817, 0.07200000000000001, 1.024, 0.084, 192.0, 0.0, 0.0, 0.0, 0.0, 0.0, 0.0, 0.0, 0.0, 0.0, 1.7074745113372123E9, 0.0, 2024-02-09 11:28:31.337
200.0, -9577.253112465514, -16166.301508701028, 19252.697438323194, -501.5954973215458, 47153.82124827162, 19211.302007591967, 35608.38527779404, 10742.270736965029, 32781.02371466443, 2196.6176863453015, 39086.24965980645, 28342.973094340934, 40785.38456980998, 35613.88380693005, 30248.168736477943, 24791.124438181454, 0.07200000000000001, 1.024, 0.084, 192.0, 0.0, 0.0, 0.0, 0.0, 0.0, 0.0, 0.0, 0.0, 0.0, 1.7074745113450356E9, 0.0, 2024-02-09 11:28:31.345
202.0, -9506.465137775558, -16155.684430084757, 19275.85384557889, -565.879114375009, 47450.94298731601, 19233.27377239153, 35747.48018353942, 10845.021706226076, 33004.96584236215, 2267.6515302242674, 39317.41140096324, 28419.013728977887, 40989.053665286745, 35755.906791199064, 30350.405615616517, 24859.07374132559, 0.07200000000000001, 1.024, 0.084, 192.0, 0.0, 0.0, 0.0, 0.0, 0.0, 0.0, 0.0, 0.0, 0.0, 1.7074745113540685E9, 0.0, 2024-02-09 11:28:31.354
204.0, -9615.09461582835, -16192.63186366938, 19190.872513159815, -545.3378612205818, 47154.491800605276, 19151.73460861857, 35593.655478197994, 10723.204698944654, 32923.337271611366, 2222.9927448025637, 39291.39397041726, 28314.005233526856, 41013.46177023194, 35541.710024083855, 30312.56411225368, 24833.39158694644, 0.07200000000000001, 1.024, 0.084, 192.0, 0.0, 0.0, 0.0, 0.0, 0.0, 0.0, 0.0, 0.0, 0.0, 1.7074745113611343E9, 0.0, 2024-02-09 11:28:31.361
206.0, -9529.532138053435, -16134.964362974688, 19271.919938554758, -502.08723569956254, 47314.82086358319, 19261.705191338682, 35667.684455833965, 10782.526228729037, 32802.05670619687, 2466.9620355322404, 39067.96593284201, 28374.109074367178, 40639.226512816735, 35732.21394207644, 30231.293169414184, 24759.161443610366, 0.074, 1.02, 0.082, 192.0, 1.0, 40.0, 15.5, 112.0, 1.0, 72.0, 0.0, 0.0, 0.0, 1.707474511369142E9, 0.0, 2024-02-09 11:28:31.369
208.0, -9590.150069016227, -16200.007939339632, 19205.356443566852, -602.6253822595337, 47345.956843609434, 19170.510073961028, 35672.26656344731, 10800.295865571006, 33012.07369709894, 2461.262340696137, 39424.49860864862, 28372.9467836555, 41105.32743994325, 35700.63092716109, 30380.15578748653, 24901.69851800186, 0.074, 1.02, 0.082, 192.0, 0.0, 0.0, 0.0, 0.0, 0.0, 0.0, 0.0, 0.0, 0.0, 1.7074745113781302E9, 0.0, 2024-02-09 11:28:31.378
210.0, -9569.541760628434, -16133.377389118361, 19255.51375812456, -461.0270811351635, 47133.74938175075, 19225.674179276728, 35584.13363506003, 10735.229937461609, 32780.8896041977, 2607.3086389671134, 39067.317732252806, 28304.773963066815, 40684.08646393853, 35629.35121409312, 30221.860733254045, 24754.22170808574, 0.074, 1.02, 0.082, 192.0, 0.0, 0.0, 0.0, 0.0, 0.0, 0.0, 0.0, 0.0, 0.0, 1.7074745113851943E9, 0.0, 2024-02-09 11:28:31.385
212.0, -9478.346643250781, -16088.249217063096, 19324.78181419156, -443.0339268486413, 47493.25483956991, 19354.889613972857, 35756.13030864362, 10874.816581585, 33019.78504893602, 2914.5780699942197, 39333.86228488234, 28474.893090116155, 40895.71278044138, 35856.735510436956, 30359.25690642082, 24893.718945231314, 0.074, 1.02, 0.082, 192.0, 0.0, 0.0, 0.0, 0.0, 0.0, 0.0, 0.0, 0.0, 0.0, 1.7074745113931124E9, 0.0, 2024-02-09 11:28:31.393
214.0, -9596.296798741436, -16151.616412593892, 19238.749949783083, -465.9221131708757, 47191.64039989, 19235.084263692414, 35617.61654825408, 10768.087001810909, 32956.93194352769, 2834.6258800775863, 39348.010939122556, 28411.660005052094, 41040.79795370078, 35833.26617875888, 30375.14899672854, 24928.095928203576, 0.074, 1.02, 0.082, 192.0, 0.0, 0.0, 0.0, 0.0, 0.0, 0.0, 0.0, 0.0, 0.0, 1.7074745114014175E9, 0.0, 2024-02-09 11:28:31.401
216.0, -9500.519573750445, -16102.107298625388, 19313.717700686182, -487.0668634255962, 47356.68568094799, 19277.440819435218, 35709.19164528747, 10824.61456353838, 32804.38128762022, 2824.7687607727958, 39085.10972083923, 28378.534719769326, 40597.94284080778, 35641.5105630768, 30254.337817947606, 24780.440304331816, 0.068, 1.022, 0.08, 192.0, 1.0, 16.0, 15.5, 120.0, 1.0, 64.0, 0.0, 0.0, 0.0, 1.7074745114101856E9, 0.0, 2024-02-09 11:28:31.410
218.0, -9545.401876616703, -16132.729188529158, 19268.209548975177, -499.00269496473015, 47402.61851580364, 19241.409807373264, 35719.67461343701, 10831.722418275169, 33080.760607810094, 2864.353700203145, 39482.993123888155, 28442.326598444775, 41147.885161386155, 35845.7608039094, 30432.280055556304, 24951.878184304023, 0.068, 1.022, 0.08, 192.0, 0.0, 0.0, 0.0, 0.0, 0.0, 0.0, 0.0, 0.0, 0.0, 1.7074745114171824E9, 0.0, 2024-02-09 11:28:31.417
220.0, -9567.686565838643, -16132.282153640052, 19259.358258170876, -492.49833732823583, 47165.19828619937, 19210.27382734702, 35603.69141145842, 10742.069571264932, 32767.344447057778, 2814.3751996010783, 39092.21757557602, 28348.449271732483, 40672.9999986887, 35619.71761223288, 30249.84511731209, 24785.46944683426, 0.068, 1.022, 0.08, 192.0, 0.0, 0.0, 0.0, 0.0, 0.0, 0.0, 0.0, 0.0, 0.0, 1.7074745114251976E9, 0.0, 2024-02-09 11:28:31.425
222.0, -9487.846134644287, -16101.392042802818, 19310.499049484617, -503.5400990891575, 47490.617333724185, 19296.43980222223, 35754.31981734274, 10863.618357612891, 32992.35945848936, 2877.720043387418, 39316.539682929484, 28417.449106866017, 40872.936352841425, 35750.76588997435, 30346.29289463674, 24854.82690987908, 0.068, 1.022, 0.08, 192.0, 0.0, 0.0, 0.0, 0.0, 0.0, 0.0, 0.0, 0.0, 0.0, 1.7074745114332545E9, 0.0, 2024-02-09 11:28:31.433
224.0, -9612.52416521599, -16174.102267515931, 19208.150411623767, -515.8335585395764, 47168.64045484549, 19187.877379402802, 35585.49709147181, 10729.709056581147, 32946.00194048905, 2857.0223280218042, 39340.523104730026, 28382.535682026828, 41020.234348801896, 35758.857221467166, 30353.78072902927, 24898.323404589108, 0.068, 1.022, 0.08, 192.0, 0.0, 0.0, 0.0, 0.0, 0.0, 0.0, 0.0, 0.0, 0.0, 1.7074745114412076E9, 0.0, 2024-02-09 11:28:31.441
226.0, -9516.590478013812, -16120.592191289925, 19271.53995889902, -536.7994948386544, 47323.20276775394, 19235.933629981715, 35668.53382212327, 10780.55927521697, 32768.23851683599, 2853.513104142321, 39050.665682633604, 28327.79625985578, 40538.420145323296, 35538.021986248736, 30207.510913313738, 24726.8855246169, 0.064, 1.01, 0.084, 192.0, 1.0, 0.0, 15.5, 72.0, 1.0, 80.0, 0.0, 0.0, 0.0, 1.7074745114492316E9, 0.0, 2024-02-09 11:28:31.449
228.0, -9606.511545957512, -16207.562828965525, 19158.08250404388, -628.7098680388771, 47308.20474722442, 19148.44890218364, 35643.18694391095, 10753.51366442605, 33039.47693580114, 2917.014410139848, 39443.43053620226, 28386.447237306507, 41082.90864025458, 35777.31976238725, 30378.881738052576, 24901.69851800186, 0.064, 1.01, 0.084, 192.0, 0.0, 0.0, 0.0, 0.0, 0.0, 0.0, 0.0, 0.0, 0.0, 1.7074745114572537E9, 0.0, 2024-02-09 11:28:31.457
230.0, -9576.85078106532, -16148.084836969952, 19227.12704266632, -538.7664483507215, 47154.1788761829, 19162.105818045835, 35583.53013795974, 10709.614838315825, 32667.56625980929, 2712.7865210517075, 38989.935992948536, 28188.254319221298, 40502.43383675025, 35303.61924214593, 30151.028055075178, 24665.26176515362, 0.064, 1.01, 0.084, 192.0, 0.0, 0.0, 0.0, 0.0, 0.0, 0.0, 0.0, 0.0, 0.0, 1.7074745114672348E9, 0.0, 2024-02-09 11:28:31.467
232.0, -9475.597378682778, -16097.793411945513, 19355.11313141741, -447.95131062880887, 47531.34221212175, 19321.361997289896, 35764.42280583654, 10853.805941797013, 33045.73542424863, 3300.346827548364, 39357.17515434923, 28493.69090720307, 41038.92040716653, 35972.58460194881, 30385.274336966795, 24893.607186509038, 0.064, 1.01, 0.084, 192.0, 0.0, 0.0, 0.0, 0.0, 0.0, 0.0, 0.0, 0.0, 0.0, 1.7074745114733474E9, 0.0, 2024-02-09 11:28:31.473
234.0, -9596.475612697079, -16164.9157005448, 19244.62845857483, -485.63635178045655, 47210.57232744364, 19198.42740278571, 35588.38046650654, 10744.751780599569, 32960.82114706292, 3209.866965993281, 39335.60572094986, 28392.90689145409, 41022.06719184723, 35781.27602115584, 30362.34144715565, 24905.11833490352, 0.064, 1.01, 0.084, 192.0, 0.0, 0.0, 0.0, 0.0, 0.0, 0.0, 0.0, 0.0, 0.0, 1.707474511481235E9, 0.0, 2024-02-09 11:28:31.481
236.0, -9522.40193157219, -16137.154833931309, 19290.650700408307, -535.5701488936126, 47342.067640074216, 19255.022019746546, 35665.449281388435, 10821.462967570182, 32802.168464919145, 3191.940866940125, 39061.506278694425, 28348.695140921493, 40605.96711706724, 35637.46489733039, 30238.26691368424, 24748.745530694192, 0.068, 1.024, 0.076, 192.0, 1.0, 16.0, 16.0, 0.0, 1.0, 48.0, 0.0, 0.0, 0.0, 1.7074745114892743E9, 0.0, 2024-02-09 11:28:31.489
238.0, -9571.173437973672, -16164.043982511042, 19222.544935052985, -547.6400908994783, 47378.053948647255, 19213.023091915024, 35694.23832824687, 10830.738941519136, 33018.46629601315, 3145.404534984176, 39422.576358625454, 28367.917641153057, 41092.877518281646, 35747.61429400615, 30393.186854503972, 24902.59258778007, 0.068, 1.024, 0.076, 192.0, 0.0, 0.0, 0.0, 0.0, 0.0, 0.0, 0.0, 0.0, 0.0, 1.7074745114972937E9, 0.0, 2024-02-09 11:28:31.497
240.0, -9635.904089916241, -16214.8271459135, 19140.044646268445, -611.4319695749247, 47097.38309352197, 19164.40804772473, 35572.15310003199, 10684.335015336874, 32731.805173373843, 3176.071128376857, 39028.89508353413, 28308.37259392412, 40644.747393697195, 35604.54077774772, 30211.154247659953, 24746.80092892658, 0.068, 1.024, 0.076, 192.0, 0.0, 0.0, 0.0, 0.0, 0.0, 0.0, 0.0, 0.0, 0.0, 1.70747451150529E9, 0.0, 2024-02-09 11:28:31.505
242.0, -9515.785815213421, -16104.320121326462, 19268.61188037537, -532.7538290922438, 47482.0566155978, 19271.741124599117, 35772.22356465144, 10823.251107126607, 32888.91558515019, 3035.366897030699, 39223.39996378421, 28267.46890157091, 40863.52626842574, 35539.45249789387, 30293.27455678875, 24769.264432104163, 0.068, 1.024, 0.076, 192.0, 0.0, 0.0, 0.0, 0.0, 0.0, 0.0, 0.0, 0.0, 0.0, 1.7074745115133252E9, 0.0, 2024-02-09 11:28:31.513
244.0, -9624.817624666408, -16189.480267701181, 19163.961012835625, -526.1824162223836, 47137.70564051934, 19193.308853305443, 35609.65932722799, 10708.921934237711, 32925.05835593442, 3393.6206571603607, 39325.25686326705, 28429.720214571982, 40995.893299090065, 35865.20682158552, 30351.456147605917, 24909.611035539037, 0.068, 1.024, 0.076, 192.0, 0.0, 0.0, 0.0, 0.0, 0.0, 0.0, 0.0, 0.0, 0.0, 1.707474511522328E9, 0.0, 2024-02-09 11:28:31.522
246.0, -9577.096650254327, -16157.740790574646, 19164.139826791266, -627.0781906936396, 47291.88797377205, 19203.2330278436, 35683.21891823041, 10785.163734574764, 32728.60887391673, 3123.790398095894, 38980.45885329948, 28258.572907277696, 40464.12294675386, 35439.24962750073, 30152.369159742495, 24688.50757938714, 0.07, 1.016, 0.082, 192.0, 1.0, 24.0, 15.5, 96.0, 1.0, 72.0, 0.0, 0.0, 0.0, 1.7074745115293636E9, 0.0, 2024-02-09 11:28:31.529
248.0, -9604.544592445445, -16259.910614479855, 19207.27869359001, -635.8847780090306, 47401.34446636969, 19200.573170253418, 35720.613386704135, 10835.566918321481, 32877.963230367095, 3037.914995898604, 39382.92436396174, 28333.674768647525, 41186.03958917136, 35841.53632420734, 30389.05178177974, 24895.194160365365, 0.07, 1.016, 0.082, 192.0, 0.0, 0.0, 0.0, 0.0, 0.0, 0.0, 0.0, 0.0, 0.0, 1.7074745115373747E9, 0.0, 2024-02-09 11:28:31.537
250.0, -9695.538544123, -16292.521809640148, 19068.988450645025, -722.09545637315, 47026.23749092072, 19067.781456444438, 35523.113372697044, 10678.9705966676, 32660.525460305867, 2613.902403581429, 38960.87872515663, 28052.288657699664, 40665.04277766261, 35479.147491353455, 30159.432310990374, 24657.46100633872, 0.07, 1.016, 0.082, 192.0, 0.0, 0.0, 0.0, 0.0, 0.0, 0.0, 0.0, 0.0, 0.0, 1.7074745115456965E9, 0.0, 2024-02-09 11:28:31.545
252.0, -9504.274666818937, -16109.52807778455, 19278.446647935707, -505.0823694565737, 47500.608563495705, 19304.464078481684, 35767.395587849096, 10887.087689290964, 32893.65415497472, 3206.357742113798, 39225.14339985173, 28367.93999289751, 40807.51279682074, 35720.25575879285, 30285.317335762662, 24790.945624225813, 0.07, 1.016, 0.082, 192.0, 0.0, 0.0, 0.0, 0.0, 0.0, 0.0, 0.0, 0.0, 0.0, 1.707474511553527E9, 0.0, 2024-02-09 11:28:31.553
254.0, -9795.093213926937, -16361.566348262591, 18956.961507435026, -692.8370228811531, 46991.68169399282, 19094.49179106853, 35477.26994481921, 10646.560567207405, 32791.260813624955, 2904.8103576672506, 39197.89662336071, 28311.27832070331, 40959.057624227724, 35739.43355553551, 30266.541870420206, 24835.179726502865, 0.07, 1.016, 0.082, 192.0, 0.0, 0.0, 0.0, 0.0, 0.0, 0.0, 0.0, 0.0, 0.0, 1.7074745115613573E9, 0.0, 2024-02-09 11:28:31.561
0.0, -9429.86570952722, -16065.472789463138, 19405.404556441852, -448.3312902845491, 47435.92261504205, 19317.38338677685, 35756.51028829936, 10867.395802425839, 32751.519411983423, 2645.865398152518, 38989.46660631497, 28274.241480140863, 40741.17281927739, 35669.83022330168, 30159.789938901657, 24684.84189329647, 0.07200000000000001, 1.018, 0.086, 192.0, 1.0, 40.0, 15.5, 112.0, 1.0, 104.0, 0.0, 0.0, 0.0, 1.7074745115698009E9, 0.0, 2024-02-09 11:28:31.569
2.0, -9611.943019860151, -16200.522029462103, 19198.51680976353, -569.4777452323134, 47373.04715788927, 19186.26805380202, 35672.49008089186, 10779.732260672125, 33231.836048583515, 2742.3802307105343, 39512.855054480446, 28429.876676783166, 41374.97888505207, 35867.17377509758, 30466.724093761935, 24946.580820868116, 0.07200000000000001, 1.018, 0.086, 192.0, 0.0, 0.0, 0.0, 0.0, 0.0, 0.0, 0.0, 0.0, 0.0, 1.7074745115774891E9, 0.0, 2024-02-09 11:28:31.577
4.0, -9820.194222950247, -16381.392345594448, 18893.281387481857, -773.1915441979819, 46906.879175529386, 18974.14999892116, 35422.32935694807, 10565.736659257014, 32385.35313431658, 2388.865040405398, 38850.68462499197, 28165.746112554803, 40627.44714348878, 35487.70820947984, 30092.064153202078, 24636.584477017463, 0.07200000000000001, 1.018, 0.086, 192.0, 0.0, 0.0, 0.0, 0.0, 0.0, 0.0, 0.0, 0.0, 0.0, 1.7074745115844665E9, 0.0, 2024-02-09 11:28:31.584
6.0, -9464.041526799385, -16124.19082214723, 19194.89582716177, -581.0559488601624, 47368.219181086926, 19248.875290021337, 35725.240197806386, 10838.137368933842, 32857.60079116831, 2127.9531273785983, 39074.17971780059, 28195.831560591647, 40613.1867305263, 35586.34645776111, 30116.405202913906, 24655.069369682, 0.07200000000000001, 1.018, 0.086, 192.0, 0.0, 0.0, 0.0, 0.0, 0.0, 0.0, 0.0, 0.0, 0.0, 1.7074745115934973E9, 0.0, 2024-02-09 11:28:31.593
8.0, -9609.640790181254, -16165.161569733807, 19260.498197138095, -498.93563973136423, 47260.34966234561, 19230.077472934423, 35646.495002090334, 10766.231807021119, 33161.785681460584, 2683.841011982085, 39436.68030937676, 28465.57241267829, 41489.464520152156, 35891.42541783159, 30429.083756099197, 24950.872355803534, 0.07200000000000001, 1.018, 0.086, 192.0, 0.0, 0.0, 0.0, 0.0, 0.0, 0.0, 0.0, 0.0, 0.0, 1.70747451160151E9, 0.0, 2024-02-09 11:28:31.601
10.0, -9382.748232215434, -16025.999608755066, 19290.91892134177, -491.5148605722023, 47353.84700940216, 19283.364031715875, 35741.33345381421, 10841.28896490204, 32773.58058376081, 2177.350482624827, 38988.61724002567, 28290.60295708215, 40667.747338741705, 35670.59018261316, 30175.30204955364, 24694.140218989876, 0.07300000000000001, 1.02, 0.088, 192.0, 1.0, 40.0, 15.5, 120.0, 1.0, 104.0, 0.0, 0.0, 0.0, 1.7074745116095054E9, 0.0, 2024-02-09 11:28:31.609
