%OpenBCI Raw EXG Data
%Number of channels = 16
%Sample Rate = 125 Hz
%Board = OpenBCI_GUI$BoardCytonSerialDaisy
Sample Index, EXG Channel 0, EXG Channel 1, EXG Channel 2, EXG Channel 3, EXG Channel 4, EXG Channel 5, EXG Channel 6, EXG Channel 7, EXG Channel 8, EXG Channel 9, EXG Channel 10, EXG Channel 11, EXG Channel 12, EXG Channel 13, EXG Channel 14, EXG Channel 15, Accel Channel 0, Accel Channel 1, Accel Channel 2, Other, Other, Other, Other, Other, Other, Other, Analog Channel 0, Analog Channel 1, Analog Channel 2, Timestamp, Other, Timestamp (Formatted)
122.0, -7927.783778641675, -14493.54165715476, 20927.558353848264, 738.3898780810688, 47451.92646407205, 20292.321776428435, 36798.01217293885, 11997.388243363886, 34238.82683978401, 5958.908016551497, 39432.20996048569, 28814.438440136724, 41480.88145028132, 36532.540504043165, 30936.82598314595, 24798.835790018536, 0.0, 0.0, 0.0, 192.0, 0.0, 0.0, 0.0, 0.0, 0.0, 0.0, 0.0, 0.0, 0.0, 1.70747471390153E9, 0.0, 2024-02-09 11:31:53.901
124.0, -8024.924460044439, -14556.685335241002, 20865.30874554023, 746.5929682961665, 47356.81979141472, 20237.537650768478, 36739.607064677126, 11942.157082814823, 34412.70105990184, 5976.454135948913, 39742.96626364783, 28861.46651047069, 41914.03590608072, 36705.31948868269, 31072.456368500756, 24960.774178597236, 0.0, 0.0, 0.0, 192.0, 0.0, 0.0, 0.0, 0.0, 0.0, 0.0, 0.0, 0.0, 0.0, 1.7074747139015913E9, 0.0, 2024-02-09 11:31:53.901
0.0, -3548.3170805355408, -6897.189545296377, 10857.382220909862, 591.293047820693, 23658.62860186441, 10317.56524056974, 18560.419209053423, 6149.791914199819, 17064.528711381998, 2956.6887565480183, 19680.912158597966, 14383.816943623657, 20736.808566666674, 18243.784397099542, 15452.699715220895, 12394.936370245978, 0.124, 1.006, 0.156, 192.0, 1.5, 112.0, 15.5, 56.0, 2.0, 112.0, 0.0, 0.0, 0.0, 1.7074747139904952E9, 0.0, 2024-02-09 11:31:53.990
2.0, -7016.480805454351, -13754.503578484486, 21758.529157463214, 1179.94858979566, 47589.05441630536, 20695.90487431346, 37279.580507228435, 12417.064597256733, 35168.3017812135, 7563.092716108885, 39866.19143082994, 29056.485480843246, 41938.30990055918, 36925.93120645657, 31102.16183688186, 24750.645428972894, 0.124, 1.006, 0.156, 192.0, 0.0, 0.0, 0.0, 0.0, 0.0, 0.0, 0.0, 0.0, 0.0, 1.7074747139975398E9, 0.0, 2024-02-09 11:31:53.997
4.0, -7152.714687909447, -13828.107872975812, 21670.53033954267, 1184.5977526423637, 47306.416607668, 20608.330739537567, 37110.3107464684, 12305.216468002376, 35152.23087695013, 7541.120951309318, 39924.529483858285, 29029.21635260777, 42088.62538202112, 36938.20231416253, 31124.334767381522, 24801.875627264457, 0.124, 1.006, 0.156, 192.0, 0.0, 0.0, 0.0, 0.0, 0.0, 0.0, 0.0, 0.0, 0.0, 1.7074747140035355E9, 0.0, 2024-02-09 11:31:54.003
6.0, -7041.91709064449, -13759.800941920394, 21747.30858174665, 1187.1458515102688, 47436.30259469779, 20674.156626958447, 37196.968459721626, 12375.78092524778, 34990.5607093049, 7513.8071195849325, 39636.75077399621, 28988.335011999014, 41666.132708326906, 36785.115216388134, 31001.37782113288, 24660.59025056246, 0.124, 1.006, 0.156, 192.0, 0.0, 0.0, 0.0, 0.0, 0.0, 0.0, 0.0, 0.0, 0.0, 1.7074747140115285E9, 0.0, 2024-02-09 11:31:54.011
8.0, -7072.49427705935, -13787.718270745072, 21716.709043587332, 1181.5132119075313, 47505.861223442706, 20670.46858912332, 37215.36394540834, 12402.73712906088, 35279.25584068964, 7582.292864595994, 40045.631235317145, 29074.523338618677, 42182.86033664469, 37000.74249514848, 31180.772922131175, 24845.90856384141, 0.11, 1.022, 0.152, 192.0, 1.5, 56.0, 15.5, 120.0, 2.0, 96.0, 0.0, 0.0, 0.0, 1.707474714019578E9, 0.0, 2024-02-09 11:31:54.019
10.0, -7130.8546818321565, -13808.550096577419, 21691.965662475308, 1190.5433166674754, 47273.26897064078, 20624.491050778754, 37097.63730736224, 12291.581903884638, 34970.95822941759, 7495.501040876036, 39683.421216418894, 28970.006581545662, 41767.67668338736, 36788.535033289794, 31017.716946329707, 24697.73884984718, 0.11, 1.022, 0.152, 192.0, 0.0, 0.0, 0.0, 0.0, 0.0, 0.0, 0.0, 0.0, 0.0, 1.7074747140285985E9, 0.0, 2024-02-09 11:31:54.028
12.0, -7012.032808307745, -13750.793188904905, 21754.952878350363, 1183.6142758863302, 47589.56850642783, 20711.685205898906, 37245.114117278354, 12423.859527571145, 35157.03650200802, 7559.516436996036, 39865.967913385386, 29049.93641971784, 41925.3458887751, 36913.07895339477, 31104.240549116203, 24762.29068783411, 0.11, 1.022, 0.152, 192.0, 0.0, 0.0, 0.0, 0.0, 0.0, 0.0, 0.0, 0.0, 0.0, 1.7074747140355616E9, 0.0, 2024-02-09 11:31:54.035
14.0, -7152.669984420537, -13828.487852631552, 21672.251423865728, 1187.0340927879922, 47320.453503185934, 20619.596018743043, 37100.699496352616, 12290.19609572841, 35155.114251984865, 7531.844977360365, 39930.76562056132, 29018.73338445823, 42084.19973661897, 36935.900084483634, 31120.78084001313, 24809.251702934707, 0.11, 1.022, 0.152, 192.0, 0.0, 0.0, 0.0, 0.0, 0.0, 0.0, 0.0, 0.0, 0.0, 1.7074747140437598E9, 0.0, 2024-02-09 11:31:54.043
16.0, -7048.756724447814, -13761.611433221273, 21744.961648578843, 1187.168203254724, 47439.029507521336, 20685.95834803085, 37173.16385187672, 12353.004497647822, 34980.971810933566, 7506.788671825966, 39643.81392524409, 28987.753866643176, 41661.23767629119, 36795.24055662639, 31000.640213565854, 24669.73211404468, 0.11, 1.022, 0.152, 192.0, 0.0, 0.0, 0.0, 0.0, 0.0, 0.0, 0.0, 0.0, 0.0, 1.7074747140515945E9, 0.0, 2024-02-09 11:31:54.051
18.0, -7076.2046666389315, -13783.896122443215, 21712.59632260756, 1182.2731712190118, 47509.43750255555, 20678.537568871685, 37194.241546898076, 12375.468000825405, 35277.91473602232, 7566.803105688466, 40047.66524406258, 29071.75172230622, 42176.7583104084, 37011.47133248703, 31176.436683706845, 24847.40613071992, 0.1, 1.02, 0.158, 192.0, 1.5, 16.0, 15.5, 112.0, 2.0, 120.0, 0.0, 0.0, 0.0, 1.7074747140596287E9, 0.0, 2024-02-09 11:31:54.059
20.0, -7131.07819927671, -13802.984512208048, 21693.373822375994, 1195.7065696366512, 47273.26897064078, 20639.690237008363, 37079.26417341998, 12296.655749875994, 34984.97277319107, 7487.879096016776, 39687.6680478654, 28973.627564147424, 41765.59797115302, 36802.92955671901, 31017.24755969615, 24698.275291714108, 0.1, 1.02, 0.158, 192.0, 0.0, 0.0, 0.0, 0.0, 0.0, 0.0, 0.0, 0.0, 0.0, 1.7074747140676293E9, 0.0, 2024-02-09 11:31:54.067
22.0, -7018.671276410971, -13744.62410743524, 21750.951916092865, 1179.3674444398218, 47585.6345994037, 20711.81931636564, 37229.06556475945, 12402.155983705043, 35164.345522444906, 7553.727335182111, 39871.7123117104, 29052.909201730396, 41909.02911532272, 36923.83014247777, 31104.419363071844, 24758.490891276706, 0.1, 1.02, 0.158, 192.0, 0.0, 0.0, 0.0, 0.0, 0.0, 0.0, 0.0, 0.0, 0.0, 1.707474714075684E9, 0.0, 2024-02-09 11:31:54.075
24.0, -7153.184074543009, -13819.390692638242, 21671.42440932088, 1196.421825459221, 47324.230947998876, 20639.08673990807, 37125.934615842656, 12311.139680283033, 35158.10938574188, 7531.5320529379915, 39939.10282124315, 29022.913160671374, 42078.47769003841, 36946.51716309991, 31129.900351750894, 24806.457734877797, 0.1, 1.02, 0.158, 192.0, 0.0, 0.0, 0.0, 0.0, 0.0, 0.0, 0.0, 0.0, 0.0, 1.7074747140846667E9, 0.0, 2024-02-09 11:31:54.084
26.0, -7054.948157661934, -13754.883558140225, 21738.099663031062, 1191.5714969124194, 47437.062554009266, 20691.99331903378, 37182.99861943706, 12349.830549935168, 34985.91154645819, 7512.600125384346, 39649.67008229138, 28994.057058579572, 41645.636158661386, 36799.42033283953, 31015.012385250615, 24676.661154825826, 0.1, 1.02, 0.158, 192.0, 0.0, 0.0, 0.0, 0.0, 0.0, 0.0, 0.0, 0.0, 0.0, 1.7074747140918827E9, 0.0, 2024-02-09 11:31:54.091
28.0, -7069.007404924322, -13773.346099060309, 21718.96656977732, 1194.3207614804223, 47536.1701889241, 20695.301377213167, 37232.261864216554, 12410.470832642417, 35281.04398024607, 7581.443498306692, 40050.59332258622, 29081.742952077744, 42164.66601665807, 37028.45865827306, 31187.478445467765, 24849.82011912109, 0.094, 1.024, 0.162, 192.0, 1.0, 120.0, 16.0, 0.0, 2.5, 8.0, 0.0, 0.0, 0.0, 1.707474714099684E9, 0.0, 2024-02-09 11:31:54.099
30.0, -7124.842062573679, -13797.485983072042, 21703.052127725143, 1201.1827470282014, 47298.83936629765, 20653.481263337286, 37112.232996491555, 12307.608104659093, 34989.39841859322, 7497.289180432461, 39699.76034161572, 28977.002677560173, 41766.022654297674, 36823.71667906245, 31035.017196538116, 24717.922475090323, 0.094, 1.024, 0.162, 192.0, 0.0, 0.0, 0.0, 0.0, 0.0, 0.0, 0.0, 0.0, 0.0, 1.7074747141077108E9, 0.0, 2024-02-09 11:31:54.107
32.0, -7008.836508850635, -13736.890403853704, 21773.147198336985, 1189.5374881669866, 47614.80362591787, 20734.595743965598, 37257.38522498432, 12440.310411490253, 35174.80613884999, 7552.766210170533, 39874.03689313375, 29053.825623253066, 41916.42754273743, 36925.439468078555, 31114.745869010196, 24764.503510535185, 0.094, 1.024, 0.162, 192.0, 0.0, 0.0, 0.0, 0.0, 0.0, 0.0, 0.0, 0.0, 0.0, 1.7074747141157317E9, 0.0, 2024-02-09 11:31:54.115
34.0, -7148.601966929671, -13821.268239172488, 21688.232921151273, 1197.3382469818887, 47351.58948321218, 20651.76017901423, 37114.758743615006, 12338.811139918702, 35171.0510457815, 7524.290087734472, 39948.55760914774, 29030.736271230733, 42099.71184727095, 36952.619189336205, 31143.35610191299, 24819.48880189524, 0.094, 1.024, 0.162, 192.0, 0.0, 0.0, 0.0, 0.0, 0.0, 0.0, 0.0, 0.0, 0.0, 1.7074747141240644E9, 0.0, 2024-02-09 11:31:54.124
36.0, -7045.515721501794, -13756.917566885659, 21757.702142918366, 1197.8076336154502, 47464.10816480019, 20690.741621344285, 37167.86648844081, 12364.023907664288, 34987.900851714716, 7506.296933447949, 39651.41351835889, 28995.55462545808, 41669.418414761836, 36788.557385034255, 31018.968644019205, 24673.86718676891, 0.094, 1.024, 0.162, 192.0, 0.0, 0.0, 0.0, 0.0, 0.0, 0.0, 0.0, 0.0, 0.0, 1.707474714131754E9, 0.0, 2024-02-09 11:31:54.131
38.0, -7072.4495735704395, -13790.936921946637, 21723.48162215729, 1188.8222323444168, 47559.326596179795, 20692.574464389618, 37193.459235842136, 12396.389233635573, 35296.22081473122, 7572.860428435854, 40056.047148233316, 29084.961603279306, 42187.66596170259, 37010.733724920006, 31196.68736418335, 24846.57911617507, 0.078, 1.03, 0.16, 192.0, 1.0, 56.0, 16.0, 24.0, 2.5, 0.0, 0.0, 0.0, 0.0, 1.7074747141407144E9, 0.0, 2024-02-09 11:31:54.140
40.0, -7142.36583022664, -13821.961143250603, 21696.458363110825, 1189.6268951448078, 47309.99288678085, 20629.542545025655, 37066.81425175837, 12263.485761104317, 34995.50044482952, 7486.403880882726, 39691.62430663399, 28972.509976924655, 41771.87881134496, 36799.35327760616, 31032.647911625852, 24698.230588225197, 0.078, 1.03, 0.16, 192.0, 0.0, 0.0, 0.0, 0.0, 0.0, 0.0, 0.0, 0.0, 0.0, 1.707474714146741E9, 0.0, 2024-02-09 11:31:54.146
42.0, -7026.58379394815, -13758.996279120003, 21755.422264983925, 1171.9243135362046, 47623.364344044254, 20704.82322035113, 37214.849855285865, 12376.384422348074, 35168.43589168023, 7550.218111302628, 39860.916419138484, 29045.331960360047, 41905.00580132077, 36896.628069475664, 31108.643842773898, 24740.430681756818, 0.078, 1.03, 0.16, 192.0, 0.0, 0.0, 0.0, 0.0, 0.0, 0.0, 0.0, 0.0, 0.0, 1.707474714155751E9, 0.0, 2024-02-09 11:31:54.155
44.0, -7153.251129776375, -13824.59864909633, 21677.57113904609, 1192.3314562239, 47379.97619867041, 20648.742693512762, 37098.19610097362, 12303.093052279122, 35173.777958605046, 7529.363933725826, 39940.35451893265, 29024.74600371671, 42089.65356226606, 36937.33059612878, 31141.567962356567, 24804.24491217672, 0.078, 1.03, 0.16, 192.0, 0.0, 0.0, 0.0, 0.0, 0.0, 0.0, 0.0, 0.0, 0.0, 1.707474714163767E9, 0.0, 2024-02-09 11:31:54.163
46.0, -7054.702288472926, -13767.311128057378, 21749.11907304753, 1182.8543165748497, 47498.105168116716, 20689.646385865974, 37165.51955527301, 12324.193099044931, 34997.08741868585, 7521.362009210827, 39653.53693408215, 28997.208654547772, 41668.077310094515, 36794.279431614814, 31028.423431923802, 24667.31812564351, 0.078, 1.03, 0.16, 192.0, 0.0, 0.0, 0.0, 0.0, 0.0, 0.0, 0.0, 0.0, 0.0, 1.7074747141717668E9, 0.0, 2024-02-09 11:31:54.171
48.0, -7071.466096814406, -13780.498657286009, 21730.768290849723, 1186.14002300978, 47602.33135251181, 20697.17892374741, 37209.328974405405, 12357.698363983436, 35292.1304454959, 7580.124745383829, 40060.53984886883, 29082.05587650012, 42182.54741222232, 37001.65891667115, 31200.107181085015, 24830.73172935626, 0.064, 1.02, 0.162, 192.0, 1.0, 0.0, 15.5, 112.0, 2.5, 8.0, 0.0, 0.0, 0.0, 1.7074747141798007E9, 0.0, 2024-02-09 11:31:54.179
50.0, -7133.626298144615, -13802.537477318941, 21703.29799691415, 1193.9184300802267, 47351.701241934454, 20643.221812632302, 37087.824891546356, 12252.511054576762, 35006.05046821242, 7514.835299829877, 39712.3220219996, 28988.223253276738, 41788.597916197534, 36803.75657126386, 31051.51278394613, 24700.577521393006, 0.064, 1.02, 0.162, 192.0, 0.0, 0.0, 0.0, 0.0, 0.0, 0.0, 0.0, 0.0, 0.0, 1.7074747141878264E9, 0.0, 2024-02-09 11:31:54.187
52.0, -7009.931744328946, -13735.638706164207, 21771.381410525013, 1177.4675461611207, 47674.79570803591, 20725.185659549912, 37251.59612317039, 12373.948082202445, 35182.182214520246, 7586.606751275868, 39874.30511406721, 29069.71771356079, 41922.10488582908, 36910.41909580459, 31127.598122072, 24745.817452170548, 0.064, 1.02, 0.162, 192.0, 0.0, 0.0, 0.0, 0.0, 0.0, 0.0, 0.0, 0.0, 0.0, 1.7074747141948285E9, 0.0, 2024-02-09 11:31:54.194
54.0, -7148.981946585411, -13817.960180993103, 21686.4671333393, 1182.8319648303946, 47414.48729210941, 20638.058559663124, 37117.28449073845, 12272.761735053271, 35185.669086655274, 7554.867274149332, 39956.71599587393, 29043.23089638125, 42123.248234182385, 36935.698918783535, 31158.84586082052, 24805.0048714882, 0.064, 1.02, 0.162, 192.0, 0.0, 0.0, 0.0, 0.0, 0.0, 0.0, 0.0, 0.0, 0.0, 1.707474714203483E9, 0.0, 2024-02-09 11:31:54.203
56.0, -7050.4331052819625, -13755.10707558478, 21756.070465573128, 1177.8698775613163, 47511.382104323166, 20683.834932307593, 37166.123052373296, 12303.607142401594, 35001.177787921166, 7542.998497843564, 39655.92857073886, 29001.25432029418, 41680.594286989486, 36789.16088213454, 31029.00457727964, 24659.517366828608, 0.064, 1.02, 0.162, 192.0, 0.0, 0.0, 0.0, 0.0, 0.0, 0.0, 0.0, 0.0, 0.0, 1.7074747142118397E9, 0.0, 2024-02-09 11:31:54.211
58.0, -7069.275625857786, -13769.188674591624, 21742.122977033017, 1183.7930898419727, 47606.935811869604, 20699.749374359773, 37206.244433670574, 12351.35046855813, 35294.20915773024, 7610.07608295394, 40059.24344769042, 29087.777923080677, 42192.605697227205, 37009.50437897496, 31195.480369982764, 24829.569438644583, 0.052000000000000005, 1.014, 0.15, 192.0, 0.5, 80.0, 15.5, 88.0, 2.0, 88.0, 0.0, 0.0, 0.0, 1.7074747142198822E9, 0.0, 2024-02-09 11:31:54.219
60.0, -7141.22589125942, -13805.264390142489, 21713.24452319676, 1185.4024154427548, 47353.08705009068, 20642.014818431715, 37079.84531877581, 12250.588804553605, 35000.66369779869, 7520.043256287963, 39706.15294052994, 28991.754828900677, 41796.84570990154, 36805.79058000929, 31040.873353585408, 24696.598910879962, 0.052000000000000005, 1.014, 0.15, 192.0, 0.0, 0.0, 0.0, 0.0, 0.0, 0.0, 0.0, 0.0, 0.0, 1.7074747142268708E9, 0.0, 2024-02-09 11:31:54.226
62.0, -7021.018209578778, -13743.551223701386, 21783.429000786426, 1176.3499589383555, 47667.419632365665, 20720.469441469842, 37226.04807925798, 12366.63906176556, 35185.311458743985, 7587.187896631706, 39862.659855205995, 29061.358161134503, 41911.845435124094, 36913.81656096179, 31113.24830213169, 24741.74943467968, 0.052000000000000005, 1.014, 0.15, 192.0, 0.0, 0.0, 0.0, 0.0, 0.0, 0.0, 0.0, 0.0, 0.0, 1.707474714234904E9, 0.0, 2024-02-09 11:31:54.234
64.0, -7151.440638475495, -13821.536460105952, 21707.522476616203, 1188.911639322238, 47417.03539097731, 20632.761196227217, 37088.49544388002, 12256.556720323173, 35192.75458964761, 7561.170466085729, 39960.269923242326, 29042.001550436205, 42109.971297975935, 36941.376261875186, 31148.720520582265, 24803.9543394988, 0.052000000000000005, 1.014, 0.15, 192.0, 0.0, 0.0, 0.0, 0.0, 0.0, 0.0, 0.0, 0.0, 0.0, 1.707474714243883E9, 0.0, 2024-02-09 11:31:54.243
66.0, -7050.231939581864, -13755.15177907369, 21772.40959076996, 1186.2294299876012, 47516.67946775907, 20680.19159796138, 37131.321386256386, 12282.48474389133, 35006.430447868166, 7544.54076821098, 39663.6622743204, 28999.957919115775, 41664.523382726125, 36774.45343428295, 31023.886027799374, 24657.528061572084, 0.052000000000000005, 1.014, 0.15, 192.0, 0.0, 0.0, 0.0, 0.0, 0.0, 0.0, 0.0, 0.0, 0.0, 1.7074747142509308E9, 0.0, 2024-02-09 11:31:54.250
68.0, -7076.964625950412, -13781.34802357531, 21738.12201477552, 1178.9204095507157, 47617.73170444152, 20685.176036974914, 37160.2221918371, 12317.420520474974, 35306.189692758286, 7599.369597359848, 40060.42809014655, 29081.407675910912, 42174.74665340742, 37000.787198637394, 31195.346259516034, 24823.35565368601, 0.054, 1.024, 0.14, 192.0, 0.5, 88.0, 16.0, 0.0, 2.0, 48.0, 0.0, 0.0, 0.0, 1.7074747142588923E9, 0.0, 2024-02-09 11:31:54.258
70.0, -7149.428981474517, -13811.366416378787, 21708.841229539066, 1188.397549199766, 47376.51167827984, 20645.009952188728, 37065.22727790204, 12221.397426294974, 35018.388631151756, 7515.304686463438, 39713.976051089296, 28979.68488689481, 41788.32969526407, 36801.968431707435, 31048.4282432113, 24692.64265211137, 0.054, 1.024, 0.14, 192.0, 0.0, 0.0, 0.0, 0.0, 0.0, 0.0, 0.0, 0.0, 0.0, 1.7074747142680483E9, 0.0, 2024-02-09 11:31:54.268
72.0, -7025.734427658847, -13748.490959226008, 21767.983945367807, 1174.3606536818331, 47686.642132597226, 20708.24303725279, 37198.913061489235, 12303.025997045756, 35183.27744999855, 7568.524190011524, 39859.01652085978, 29047.70124527231, 41901.854205352574, 36893.07414210727, 31118.098630678494, 24724.873867615923, 0.054, 1.024, 0.14, 192.0, 0.0, 0.0, 0.0, 0.0, 0.0, 0.0, 0.0, 0.0, 0.0, 1.7074747142763174E9, 0.0, 2024-02-09 11:31:54.276
74.0, -7167.4221357610395, -13827.817300297893, 21684.120200171496, 1183.882496819794, 47442.0469930228, 20653.548318570654, 37100.900662052714, 12246.632545785016, 35198.92367111727, 7545.725410667112, 39956.693644129475, 29031.40682356439, 42115.223957922935, 36937.91174148461, 31161.416311432877, 24790.9009207369, 0.054, 1.024, 0.14, 192.0, 0.0, 0.0, 0.0, 0.0, 0.0, 0.0, 0.0, 0.0, 0.0, 1.7074747142829323E9, 0.0, 2024-02-09 11:31:54.282
76.0, -7078.4398410844615, -13766.752334445995, 21743.19586076687, 1176.6181798718192, 47539.38884012566, 20695.61430163554, 37151.862639410814, 12269.028993729235, 35005.60343332332, 7514.812948085421, 39646.27261713417, 28983.17175902984, 41673.665246208344, 36778.94613491847, 31037.028853539094, 24651.87307022489, 0.054, 1.024, 0.14, 192.0, 0.0, 0.0, 0.0, 0.0, 0.0, 0.0, 0.0, 0.0, 0.0, 1.7074747142919652E9, 0.0, 2024-02-09 11:31:54.291
78.0, -7089.012216211822, -13778.665814240672, 21718.653645354945, 1176.4393659161767, 47652.28750136942, 20696.933054558405, 37200.05300045646, 12297.527467909751, 35301.98756480069, 7568.770059200533, 40048.93929349653, 29072.355219406512, 42197.74659845193, 36992.51705318893, 31210.523094001186, 24821.701624596313, 0.062, 1.008, 0.134, 192.0, 0.5, 120.0, 15.5, 64.0, 2.0, 24.0, 0.0, 0.0, 0.0, 1.7074747142999785E9, 0.0, 2024-02-09 11:31:54.299
80.0, -7161.185999058009, -13816.797890281427, 21683.80727574912, 1180.2168107291236, 47386.81583247374, 20634.303466594632, 37077.900717008204, 12173.430582693885, 35011.593700837344, 7482.112345947307, 39707.829321364086, 28968.97840130072, 41815.46471303281, 36806.84111199869, 31056.743092148674, 24685.870073541413, 0.062, 1.008, 0.134, 192.0, 0.0, 0.0, 0.0, 0.0, 0.0, 0.0, 0.0, 0.0, 0.0, 1.7074747143069973E9, 0.0, 2024-02-09 11:31:54.306
82.0, -7028.997782349323, -13745.495825468997, 21753.32120100513, 1171.6784443471963, 47702.511871160496, 20711.86401985455, 37237.49217241909, 12309.016264559777, 35184.46209245468, 7535.600070428857, 39859.664721448986, 29040.25811436869, 41925.72586843084, 36901.590156744736, 31124.759450526173, 24728.673664173326, 0.062, 1.008, 0.134, 192.0, 0.0, 0.0, 0.0, 0.0, 0.0, 0.0, 0.0, 0.0, 0.0, 1.7074747143149607E9, 0.0, 2024-02-09 11:31:54.314
84.0, -7163.018842103344, -13816.082634458857, 21670.128008142474, 1177.8922293057715, 47439.56594938826, 20639.980809686283, 37103.29229870943, 12194.463574226329, 35211.86533115689, 7516.332866708382, 39958.43708019699, 29022.689643226822, 42145.59997863769, 36936.905912984126, 31156.767148586176, 24783.52484506665, 0.062, 1.008, 0.134, 192.0, 0.0, 0.0, 0.0, 0.0, 0.0, 0.0, 0.0, 0.0, 0.0, 1.7074747143239903E9, 0.0, 2024-02-09 11:31:54.323
86.0, -7073.6789195154815, -13760.449142509598, 21729.181316993396, 1172.617217614319, 47525.217834140996, 20687.634728864996, 37151.661473710716, 12229.824033954625, 35005.60343332332, 7488.706110561623, 39641.44464033182, 28975.661572892855, 41687.00923764816, 36779.03554189629, 31020.197989964247, 24637.232677606666, 0.062, 1.008, 0.134, 192.0, 0.0, 0.0, 0.0, 0.0, 0.0, 0.0, 0.0, 0.0, 0.0, 1.70747471433241E9, 0.0, 2024-02-09 11:31:54.332
88.0, -7083.513687075817, -13773.860189182782, 21719.748880833256, 1178.6745403617074, 47644.46439081006, 20703.14683951698, 37219.543721621485, 12290.28550270623, 35306.61437590294, 7551.872140392321, 40052.64968307611, 29068.22014668228, 42205.59206075574, 37006.95628010706, 31201.98472761926, 24818.840601306034, 0.07200000000000001, 1.006, 0.132, 192.0, 1.0, 72.0, 15.5, 48.0, 2.0, 8.0, 0.0, 0.0, 0.0, 1.7074747143390124E9, 0.0, 2024-02-09 11:31:54.339
90.0, -7154.614586188149, -13801.68811102964, 21687.316499628603, 1185.8047468429502, 47382.61370451614, 20654.04005694867, 37097.480845151054, 12210.959161634346, 35020.02030849699, 7481.888828502754, 39714.467789467315, 28973.44875019178, 41825.3218323376, 36818.30755690426, 31055.67020841482, 24696.30833820204, 0.07200000000000001, 1.006, 0.132, 192.0, 0.0, 0.0, 0.0, 0.0, 0.0, 0.0, 0.0, 0.0, 0.0, 1.7074747143470109E9, 0.0, 2024-02-09 11:31:54.347
92.0, -7026.494386970328, -13732.330647984822, 21754.461139972347, 1177.7357670945844, 47695.024036767965, 20731.86883114205, 37257.161707539766, 12346.701305711425, 35175.72256037266, 7538.774018141511, 39860.06705284918, 29048.148280161415, 41932.140819089516, 36911.40257256062, 31132.649616318897, 24746.197431826287, 0.07200000000000001, 1.006, 0.132, 192.0, 0.0, 0.0, 0.0, 0.0, 0.0, 0.0, 0.0, 0.0, 0.0, 1.7074747143560486E9, 0.0, 2024-02-09 11:31:54.356
94.0, -7164.695222937492, -13819.25658217151, 21667.57990927457, 1184.7765665980062, 47440.348260444196, 20657.95161222835, 37131.813124634406, 12246.18551089591, 35198.67780192826, 7501.983046768075, 39961.2310482539, 29026.780012462143, 42155.52415317585, 36946.964197989015, 31171.36283771549, 24810.928083768857, 0.07200000000000001, 1.006, 0.132, 192.0, 0.0, 0.0, 0.0, 0.0, 0.0, 0.0, 0.0, 0.0, 0.0, 1.7074747143630958E9, 0.0, 2024-02-09 11:31:54.363
96.0, -7072.851904970635, -13766.037078623425, 21734.29986647366, 1178.8533543173498, 47519.607546282714, 20692.03802252269, 37170.325180330896, 12262.055249459178, 35000.55193907642, 7475.406822610716, 39643.21042814379, 28978.41083746086, 41701.53787154411, 36779.124948874116, 31038.079385528494, 24665.64174480936, 0.07200000000000001, 1.006, 0.132, 192.0, 0.0, 0.0, 0.0, 0.0, 0.0, 0.0, 0.0, 0.0, 0.0, 1.7074747143711188E9, 0.0, 2024-02-09 11:31:54.371
98.0, -7082.68667253097, -13786.801849222406, 21717.33489243208, 1175.4558891601432, 47618.17873933062, 20686.785362575694, 37194.375657364806, 12294.241761474821, 35299.57357639952, 7534.504834950547, 40047.17350568456, 29061.872251256973, 42209.816540457796, 36980.98355304999, 31202.342355530545, 24821.321644940574, 0.08800000000000001, 1.016, 0.133, 192.0, 1.5, 32.0, 16.0, 8.0, 2.0, 24.0, 0.0, 0.0, 0.0, 1.707474714380097E9, 0.0, 2024-02-09 11:31:54.380
100.0, -7138.610737158148, -13814.003922224514, 21699.498200356746, 1197.204136515157, 47339.29602376176, 20650.776702258194, 37048.15054513819, 12217.240001826287, 35023.26131144301, 7458.844179969333, 39717.08294356858, 28966.229136732716, 41838.12938191049, 36807.71283003245, 31051.445728712766, 24707.640672640882, 0.08800000000000001, 1.016, 0.133, 192.0, 0.0, 0.0, 0.0, 0.0, 0.0, 0.0, 0.0, 0.0, 0.0, 1.7074747143881235E9, 0.0, 2024-02-09 11:31:54.388
102.0, -7009.4623576953845, -13737.33743874281, 21786.871169432543, 1198.0758545489139, 47660.26707413996, 20745.43634002642, 37239.97321605364, 12363.979204175379, 35186.652563411306, 7537.567023940925, 39872.60638148861, 29059.391207622437, 41937.46053426988, 36915.13531388465, 31130.816773273564, 24760.100216877487, 0.08800000000000001, 1.016, 0.133, 192.0, 0.0, 0.0, 0.0, 0.0, 0.0, 0.0, 0.0, 0.0, 0.0, 1.7074747143951817E9, 0.0, 2024-02-09 11:31:54.395
104.0, -7156.55918795576, -13826.54325086394, 21692.658566553422, 1190.0962817783693, 47396.27062037833, 20646.61927778951, 37109.59549064583, 12224.280801329709, 35217.25210157062, 7511.594296883857, 39982.37579850862, 29034.536067788133, 42165.202458525, 36953.58031434778, 31165.46197717929, 24823.28859845264, 0.08800000000000001, 1.016, 0.133, 192.0, 0.0, 0.0, 0.0, 0.0, 0.0, 0.0, 0.0, 0.0, 0.0, 1.70747471440312E9, 0.0, 2024-02-09 11:31:54.403
106.0, -7074.014195682311, -13779.984567163536, 21748.850852114065, 1181.6473223742632, 47469.427879980554, 20704.040909295192, 37155.66243596822, 12306.110537780589, 35011.034907225956, 7477.150258678229, 39659.41544287389, 28981.69654389579, 41701.94020294431, 36785.31638208823, 31023.126068487894, 24670.469721611706, 0.08800000000000001, 1.016, 0.133, 192.0, 0.0, 0.0, 0.0, 0.0, 0.0, 0.0, 0.0, 0.0, 0.0, 1.7074747144121275E9, 0.0, 2024-02-09 11:31:54.412
108.0, -7068.5156665463055, -13784.052584654402, 21731.10356701655, 1180.5520868959532, 47576.00099754346, 20714.389766977998, 37188.69831427316, 12338.766436429793, 35319.91366385385, 7545.948928111664, 40063.1550029701, 29077.362010164503, 42213.52693003738, 37009.19145455259, 31203.303480542123, 24843.9639620738, 0.091, 1.02, 0.1335, 192.0, 1.0, 120.0, 16.0, 0.0, 2.0, 24.0, 0.0, 0.0, 0.0, 1.7074747144192016E9, 0.0, 2024-02-09 11:31:54.419
110.0, -7156.98387110041, -13826.632657841761, 21691.965662475308, 1177.1769734832017, 47297.654723841515, 20653.74948427075, 37042.741422980005, 12214.870716914025, 35030.816201068905, 7475.160953421707, 39721.75445815974, 28969.78306410111, 41838.151733654944, 36819.38044063812, 31044.00259780915, 24707.283044729596, 0.091, 1.02, 0.1335, 192.0, 0.0, 0.0, 0.0, 0.0, 0.0, 0.0, 0.0, 0.0, 0.0, 1.7074747144271631E9, 0.0, 2024-02-09 11:31:54.427
112.0, -7034.898642885523, -13766.685279212628, 21765.145273821985, 1169.1750489682017, 47624.45957952256, 20739.96016263487, 37203.65163131376, 12344.756703943815, 35169.553478903, 7528.894547092265, 39845.76193639779, 29036.011282922183, 41915.689935170405, 36908.74271497044, 31106.542778795098, 24741.257696301665, 0.091, 1.02, 0.1335, 192.0, 0.0, 0.0, 0.0, 0.0, 0.0, 0.0, 0.0, 0.0, 0.0, 1.7074747144352508E9, 0.0, 2024-02-09 11:31:54.435
114.0, -7164.985795615411, -13840.334277192866, 21682.287357126163, 1181.9825985410928, 47386.2346871179, 20674.648365336463, 37088.51779562447, 12274.326357165142, 35207.57379622147, 7519.171538254206, 39969.03180706881, 29025.148335116904, 42142.895417558604, 36965.471442398004, 31159.158785242893, 24825.38966243144, 0.091, 1.02, 0.1335, 192.0, 0.0, 0.0, 0.0, 0.0, 0.0, 0.0, 0.0, 0.0, 0.0, 1.7074747144442255E9, 0.0, 2024-02-09 11:31:54.444
116.0, -7070.773192736291, -13779.783401463439, 21742.905288088954, 1178.205153728146, 47463.705833399996, 20716.937865845903, 37122.93948208565, 12298.309778965686, 35007.59273857984, 7499.1890787111615, 39646.38437585645, 28984.714029397255, 41677.53209799911, 36796.581661293705, 31021.71790858721, 24676.683506570283, 0.091, 1.02, 0.1335, 192.0, 0.0, 0.0, 0.0, 0.0, 0.0, 0.0, 0.0, 0.0, 0.0, 1.7074747144512026E9, 0.0, 2024-02-09 11:31:54.451
118.0, -7074.707099760426, -13788.791154478928, 21732.936410061888, 1179.590961884375, 47599.42562573262, 20725.073900827636, 37201.59527082387, 12353.563291259205, 35307.46374219224, 7574.02271914753, 40054.97426449946, 29074.299821174125, 42184.33555177874, 37014.86879764424, 31198.69902118433, 24850.58007843257, 0.0785, 1.0150000000000001, 0.13475, 192.0, 1.0, 8.0, 15.5, 72.0, 2.0, 32.0, 0.0, 0.0, 0.0, 1.707474714459444E9, 0.0, 2024-02-09 11:31:54.459
120.0, -7154.949862354978, -13825.045683985434, 21695.407831121425, 1185.782395098495, 47325.3708869661, 20666.109998954536, 37071.95515298309, 12240.910499204458, 35023.753049821025, 7493.355273408327, 39730.136362330486, 28980.154273528373, 41816.425838044386, 36842.0451095158, 31064.253278285658, 24736.653236943872, 0.0785, 1.0150000000000001, 0.13475, 192.0, 0.0, 0.0, 0.0, 0.0, 0.0, 0.0, 0.0, 0.0, 0.0, 1.7074747144682667E9, 0.0, 2024-02-09 11:31:54.468
122.0, -7020.884099112046, -13744.28883126841, 21772.610756470058, 1184.7765665980062, 47645.15729488818, 20756.25458434279, 37228.2385502146, 12377.21143689292, 35170.24638298111, 7558.801181173466, 39854.68028243545, 29050.74108251823, 41886.543260400686, 36919.15862788661, 31124.625340059443, 24763.542385523604, 0.0785, 1.0150000000000001, 0.13475, 192.0, 0.0, 0.0, 0.0, 0.0, 0.0, 0.0, 0.0, 0.0, 0.0, 1.707474714475199E9, 0.0, 2024-02-09 11:31:54.475
124.0, -7157.632071689614, -13829.717198576594, 21687.450610095337, 1185.1788979982016, 47403.512585581855, 20672.413190890933, 37107.337964455844, 12282.618854358061, 35221.07424987248, 7548.988765357586, 39983.42633049802, 29045.22020163777, 42129.21614995196, 36981.6764571281, 31174.31326798359, 24843.29340974014, 0.0785, 1.0150000000000001, 0.13475, 192.0, 0.0, 0.0, 0.0, 0.0, 0.0, 0.0, 0.0, 0.0, 0.0, 1.7074747144832728E9, 0.0, 2024-02-09 11:31:54.483
126.0, -7076.092907916654, -13779.358718318786, 21741.273610743716, 1172.617217614319, 47488.04688311183, 20704.44324069539, 37136.64110143675, 12290.866648062069, 35004.61995656729, 7508.710921849123, 39647.52431482367, 28983.39527647439, 41653.66043492084, 36807.846940499185, 31028.53519064608, 24689.424000909807, 0.0785, 1.0150000000000001, 0.13475, 192.0, 0.0, 0.0, 0.0, 0.0, 0.0, 0.0, 0.0, 0.0, 0.0, 1.7074747144912753E9, 0.0, 2024-02-09 11:31:54.491
128.0, -7073.097774159643, -13780.073974141356, 21730.164793749427, 1174.7629850820285, 47625.0407248784, 20720.156517047468, 37194.509767831536, 12344.667296965992, 35319.86896036493, 7568.0995068668735, 40048.291092907326, 29070.723542061278, 42172.42207198407, 37022.78131518141, 31201.135361329958, 24852.234107522265, 0.06725, 1.0115, 0.13537500000000002, 192.0, 0.5, 96.0, 15.5, 64.0, 2.0, 32.0, 0.0, 0.0, 0.0, 1.7074747145003133E9, 0.0, 2024-02-09 11:31:54.500
130.0, -7153.251129776375, -13819.63656182725, 21686.355374617026, 1173.108955992336, 47363.21239032893, 20655.358809871534, 37061.67335053365, 12223.677304229415, 35047.110622776825, 7493.824660041888, 39729.62227220801, 28973.7393228697, 41821.47733229129, 36838.312368191764, 31059.917039861328, 24732.674626430828, 0.06725, 1.0115, 0.13537500000000002, 192.0, 0.0, 0.0, 0.0, 0.0, 0.0, 0.0, 0.0, 0.0, 0.0, 1.7074747145073013E9, 0.0, 2024-02-09 11:31:54.507
132.0, -7019.565346189183, -13743.886499868215, 21762.843044143086, 1164.5482378659533, 47698.68972285864, 20738.037912611715, 37214.17930295221, 12337.06770385119, 35188.91008960129, 7543.557291454947, 39850.36639575558, 29035.60895152199, 41892.10884477006, 36914.375354573174, 31122.367813869456, 24752.120644106944, 0.06725, 1.0115, 0.13537500000000002, 192.0, 0.0, 0.0, 0.0, 0.0, 0.0, 0.0, 0.0, 0.0, 0.0, 1.7074747145152812E9, 0.0, 2024-02-09 11:31:54.515
134.0, -7160.113115324154, -13823.369303151287, 21680.81214199211, 1170.3820431687884, 47471.193667792526, 20667.6299175775, 37106.06391502189, 12257.830769757125, 35231.57956976647, 7528.469863947615, 39980.5876589522, 29024.969521161263, 42146.96343504947, 36969.78532907788, 31175.140282528435, 24824.495592653228, 0.06725, 1.0115, 0.13537500000000002, 192.0, 0.0, 0.0, 0.0, 0.0, 0.0, 0.0, 0.0, 0.0, 0.0, 1.7074747145243301E9, 0.0, 2024-02-09 11:31:54.524
136.0, -7072.717794503903, -13761.812598921371, 21744.224041011817, 1169.197400712657, 47548.97773849699, 20709.58414192011, 37147.90638064222, 12273.253473431287, 35013.337136904855, 7504.732311336078, 39655.30272189411, 28976.667401393344, 41684.55054575808, 36800.44851308448, 31038.14644076186, 24673.86718676891, 0.06725, 1.0115, 0.13537500000000002, 192.0, 0.0, 0.0, 0.0, 0.0, 0.0, 0.0, 0.0, 0.0, 0.0, 1.7074747145314865E9, 0.0, 2024-02-09 11:31:54.531
138.0, -7074.349471849141, -13768.451067024598, 21733.763424606732, 1165.911694277727, 47691.13483323275, 20712.132240788014, 37212.2347011846, 12325.400093245518, 35329.10023082498, 7578.984806416608, 40060.651607591106, 29070.768245550185, 42200.18293859756, 37018.78035292392, 31216.55806500412, 24836.85610733701, 0.058625000000000003, 1.00975, 0.13468750000000002, 192.0, 0.5, 72.0, 15.5, 64.0, 2.0, 24.0, 0.0, 0.0, 0.0, 1.7074747145393057E9, 0.0, 2024-02-09 11:31:54.539
140.0, -7158.593196701193, -13806.359625620798, 21696.95010148884, 1174.0030257705482, 47415.738989798905, 20657.37046687251, 37074.279734406446, 12201.817298152126, 35046.41771869871, 7502.787709568466, 39743.83798168159, 28974.7898548591, 41854.870838507515, 36828.90228377608, 31076.05499935806, 24717.207219267755, 0.058625000000000003, 1.00975, 0.13468750000000002, 192.0, 0.0, 0.0, 0.0, 0.0, 0.0, 0.0, 0.0, 0.0, 0.0, 1.7074747145473616E9, 0.0, 2024-02-09 11:31:54.547
142.0, -7029.645982938527, -13738.164453287656, 21770.97907912482, 1161.5307523644867, 47730.22803428508, 20729.38778750751, 37228.0373845145, 12308.39041571503, 35186.02671456656, 7558.242387562083, 39855.17202081347, 29037.5535532896, 41921.03200209523, 36897.879767165155, 31127.799287772097, 24734.351007264973, 0.058625000000000003, 1.00975, 0.13468750000000002, 192.0, 0.0, 0.0, 0.0, 0.0, 0.0, 0.0, 0.0, 0.0, 0.0, 1.707474714555373E9, 0.0, 2024-02-09 11:31:54.555
144.0, -7162.415345003051, -13818.340160648842, 21692.90443574243, 1171.2314094580902, 47497.63578148315, 20657.795150017162, 37111.83066509136, 12228.482929287307, 35234.6194070124, 7537.96935534112, 39992.25526955787, 29027.048233395606, 42176.26657203038, 36960.33054117329, 31181.041143064638, 24808.849371534514, 0.058625000000000003, 1.00975, 0.13468750000000002, 192.0, 0.0, 0.0, 0.0, 0.0, 0.0, 0.0, 0.0, 0.0, 0.0, 1.7074747145634062E9, 0.0, 2024-02-09 11:31:54.563
146.0, -7082.999596953345, -13767.691107713117, 21750.6836951594, 1163.4082988987327, 47541.288738404364, 20697.268330725234, 37123.11829604129, 12242.720990505337, 35011.50429385952, 7512.890698062265, 39657.202620172815, 28974.7898548591, 41698.006295920175, 36788.44562631197, 31035.28541747158, 24656.522233071595, 0.058625000000000003, 1.00975, 0.13468750000000002, 192.0, 0.0, 0.0, 0.0, 0.0, 0.0, 0.0, 0.0, 0.0, 0.0, 1.7074747145713913E9, 0.0, 2024-02-09 11:31:54.571
148.0, -7078.171620150998, -13778.330538073844, 21741.8324043551, 1164.0564994879364, 47671.331187645344, 20705.136144773503, 37188.988886951076, 12303.383624957041, 35325.14397205639, 7575.274416837027, 40055.64481683312, 29068.80129203812, 42213.61633701519, 36992.15942527764, 31206.857407910516, 24819.533505384148, 0.0543125, 1.014875, 0.13334375, 192.0, 0.5, 72.0, 15.5, 112.0, 2.0, 16.0, 0.0, 0.0, 0.0, 1.7074747145794096E9, 0.0, 2024-02-09 11:31:54.579
150.0, -7163.085897336709, -13822.162308950701, 21705.354357404038, 1175.0535577599476, 47385.27356210632, 20653.74948427075, 37061.114556922264, 12201.88435338549, 35047.71411987711, 7493.645846086246, 39740.84284792458, 28977.896747338385, 41867.387815402486, 36822.21911218394, 31067.67309518732, 24703.170323749822, 0.0543125, 1.014875, 0.13334375, 192.0, 0.0, 0.0, 0.0, 0.0, 0.0, 0.0, 0.0, 0.0, 0.0, 1.7074747145876489E9, 0.0, 2024-02-09 11:31:54.587
152.0, -7029.86950038308, -13748.267441781456, 21777.461085016857, 1167.4763163895984, 47694.174670478664, 20734.551040476686, 37212.480570373606, 12313.687779150938, 35186.18317677775, 7545.099561822362, 39853.76386091278, 29038.715844001275, 41920.85318813958, 36896.91864215358, 31121.361985368967, 24727.421966483827, 0.0543125, 1.014875, 0.13334375, 192.0, 0.0, 0.0, 0.0, 0.0, 0.0, 0.0, 0.0, 0.0, 0.0, 1.7074747145964048E9, 0.0, 2024-02-09 11:31:54.596
154.0, -7161.878903136123, -13827.236154942055, 21691.85390375303, 1170.5608571244309, 47452.3511472167, 20648.876803979496, 37084.80740604489, 12201.79494640767, 35240.85554371543, 7541.836207131888, 39992.970525380435, 29036.16774513337, 42180.021665098866, 36956.530744615884, 31174.112102283492, 24802.501476109206, 0.0543125, 1.014875, 0.13334375, 192.0, 0.0, 0.0, 0.0, 0.0, 0.0, 0.0, 0.0, 0.0, 0.0, 1.707474714602452E9, 0.0, 2024-02-09 11:31:54.602
156.0, -7085.994730710356, -13778.308186329388, 21744.671075900922, 1164.65999658823, 47508.789301966346, 20680.14689447247, 37123.43122046366, 12216.301228559165, 35010.967851992595, 7501.7148258346115, 39652.7099195373, 28980.93658458431, 41693.08891214, 36789.40675132356, 31025.495353400154, 24642.172413131288, 0.0543125, 1.014875, 0.13334375, 192.0, 0.0, 0.0, 0.0, 0.0, 0.0, 0.0, 0.0, 0.0, 0.0, 1.7074747146114638E9, 0.0, 2024-02-09 11:31:54.611
158.0, -7085.570047565705, -13787.986491678535, 21730.50006991626, 1161.6648628312187, 47642.00569891998, 20697.469496425332, 37178.48356705708, 12265.072734960644, 35325.970986601234, 7565.618463232335, 40048.53696209633, 29077.831396798065, 42202.99925839892, 36994.55106193436, 31199.92836712937, 24804.781354043647, 0.05915625, 1.0184375, 0.134671875, 192.0, 1.0, 0.0, 15.5, 120.0, 2.0, 32.0, 0.0, 0.0, 0.0, 1.7074747146194868E9, 0.0, 2024-02-09 11:31:54.619
160.0, -7165.32107178224, -13825.135090963257, 21694.71492704331, 1171.812554813928, 47345.66627093152, 20641.5230800537, 37041.91440843516, 12153.381067917475, 35034.1689627372, 7497.423290899193, 39736.99834787826, 28988.714991654753, 41863.49861186727, 36825.79539129679, 31057.05601657105, 24694.676660856803, 0.05915625, 1.0184375, 0.134671875, 192.0, 0.0, 0.0, 0.0, 0.0, 0.0, 0.0, 0.0, 0.0, 0.0, 1.707474714626521E9, 0.0, 2024-02-09 11:31:54.626
162.0, -7033.602241707116, -13750.033229593424, 21773.773047181734, 1168.169220467713, 47672.53818184593, 20725.364473505553, 37220.571901866424, 12283.110592736077, 35168.614705635875, 7548.720544424123, 39845.27019801977, 29059.905297744906, 41916.24872878179, 36896.44925552002, 31112.913025964863, 24725.186792038297, 0.05915625, 1.0184375, 0.134671875, 192.0, 0.0, 0.0, 0.0, 0.0, 0.0, 0.0, 0.0, 0.0, 0.0, 1.7074747146354637E9, 0.0, 2024-02-09 11:31:54.635
164.0, -7165.32107178224, -13822.698750817628, 21686.6682990394, 1174.4053571707436, 47446.71850761396, 20642.551260298642, 37104.27577546547, 12186.104021800045, 35223.421183040286, 7540.673916420212, 39992.992877124896, 29055.390245364935, 42185.475490745965, 36952.03804398037, 31177.464863951787, 24808.514095367682, 0.05915625, 1.0184375, 0.134671875, 192.0, 0.0, 0.0, 0.0, 0.0, 0.0, 0.0, 0.0, 0.0, 0.0, 1.7074747146435113E9, 0.0, 2024-02-09 11:31:54.643
166.0, -7079.0209864403, -13768.987508891525, 21747.621506169024, 1179.6803688621962, 47500.809729195804, 20691.09924925557, 37133.17658104617, 12216.770615192727, 34994.941651218134, 7512.48836666207, 39650.69826253632, 29003.35538427298, 41695.614659263454, 36785.31638208823, 31030.61390288042, 24654.264706881608, 0.05915625, 1.0184375, 0.134671875, 192.0, 0.0, 0.0, 0.0, 0.0, 0.0, 0.0, 0.0, 0.0, 0.0, 1.7074747146514928E9, 0.0, 2024-02-09 11:31:54.651
168.0, -7076.741108505858, -13773.770782204962, 21744.581668923103, 1180.105052006847, 47651.95222520259, 20713.71921464434, 37200.20946266764, 12284.943435781412, 35309.63186140441, 7588.9983879325855, 40060.27162793537, 29108.90032159094, 42210.35298232472, 37015.29348078889, 31213.294710313647, 24830.798784589624, 0.059578124999999996, 1.01921875, 0.1343359375, 192.0, 0.5, 112.0, 15.5, 112.0, 2.0, 24.0, 0.0, 0.0, 0.0, 1.7074747146588466E9, 0.0, 2024-02-09 11:31:54.658
170.0, -7160.984833357911, -13810.427643111665, 21703.990900992263, 1187.3470172103664, 47359.256131560345, 20647.490995823264, 37061.51688832246, 12162.254710466232, 35039.73454710657, 7523.708942378634, 39750.78937420718, 29013.99481463371, 41873.48984163879, 36844.23558047242, 31075.272688302124, 24719.218876268733, 0.059578124999999996, 1.01921875, 0.1343359375, 192.0, 0.0, 0.0, 0.0, 0.0, 0.0, 0.0, 0.0, 0.0, 0.0, 1.7074747146675625E9, 0.0, 2024-02-09 11:31:54.667
172.0, -7028.751913160314, -13738.097398054291, 21785.641823487502, 1181.5802671408971, 47672.806402779395, 20728.38195900702, 37233.35709969486, 12281.009528757279, 35171.2522114816, 7578.604826760868, 39853.585046957145, 29085.632155612966, 41918.282737527225, 36908.76506671489, 31121.384337113424, 24730.394748496386, 0.059578124999999996, 1.01921875, 0.1343359375, 192.0, 0.0, 0.0, 0.0, 0.0, 0.0, 0.0, 0.0, 0.0, 0.0, 1.707474714675583E9, 0.0, 2024-02-09 11:31:54.675
174.0, -7158.213217045452, -13815.009750725003, 21695.76545903271, 1182.072005518914, 47441.71171685597, 20652.22956564779, 37114.69168838164, 12202.644312696972, 35231.40075581083, 7572.815724946943, 40002.134740607115, 29077.27260318668, 42189.878784403656, 36974.926230302604, 31187.970183845784, 24815.309025682098, 0.059578124999999996, 1.01921875, 0.1343359375, 192.0, 0.0, 0.0, 0.0, 0.0, 0.0, 0.0, 0.0, 0.0, 0.0, 1.707474714682588E9, 0.0, 2024-02-09 11:31:54.682
176.0, -7081.993768452856, -13770.574482747852, 21748.381465480503, 1179.3897961842772, 47485.0070458659, 20688.081763754104, 37138.60805494882, 12214.55779249165, 34998.808503008906, 7538.483445463592, 39654.833335260555, 29016.855837923988, 41702.07431341104, 36792.737161247394, 31036.51476341662, 24659.964401717712, 0.059578124999999996, 1.01921875, 0.1343359375, 192.0, 0.0, 0.0, 0.0, 0.0, 0.0, 0.0, 0.0, 0.0, 0.0, 1.7074747146920269E9, 0.0, 2024-02-09 11:31:54.692
178.0, -7078.216323639909, -13781.146857875212, 21741.944163077376, 1180.7309008515956, 47639.52465528544, 20709.695900642386, 37204.27748015851, 12269.498380362795, 35315.01863181814, 7600.353074115882, 40054.46017437699, 29109.079135546584, 42207.715476478996, 37016.23225405601, 31217.496838271243, 24822.81921181908, 0.0587890625, 1.016609375, 0.13516796875, 192.0, 0.5, 104.0, 15.5, 88.0, 2.0, 32.0, 0.0, 0.0, 0.0, 1.707474714699592E9, 0.0, 2024-02-09 11:31:54.699
180.0, -7164.963443870955, -13821.134128705757, 21698.537075345168, 1187.5034794215537, 47350.40484075604, 20641.679542264887, 37067.82008025886, 12159.796018576148, 35044.875448331295, 7533.834282616888, 39741.446345024866, 29016.609968734978, 41875.59090561759, 36838.871161803145, 31078.647801714877, 24710.300530231063, 0.0587890625, 1.016609375, 0.13516796875, 192.0, 0.0, 0.0, 0.0, 0.0, 0.0, 0.0, 0.0, 0.0, 0.0, 1.7074747147076004E9, 0.0, 2024-02-09 11:31:54.707
182.0, -7037.1114655865995, -13755.1964825626, 21759.378523752515, 1167.0069297560372, 47667.91137074368, 20719.843592625093, 37218.58259660991, 12269.386621640519, 35166.24542072361, 7578.627178505323, 39824.1030960206, 29063.548632091122, 41905.05050480968, 36897.879767165155, 31122.546627825097, 24723.622169926428, 0.0587890625, 1.016609375, 0.13516796875, 192.0, 0.0, 0.0, 0.0, 0.0, 0.0, 0.0, 0.0, 0.0, 0.0, 1.7074747147146158E9, 0.0, 2024-02-09 11:31:54.714
184.0, -7164.672871193036, -13826.275029930477, 21679.135761157962, 1178.361615939333, 47446.20441749149, 20649.3238388686, 37115.45164769312, 12183.51121944323, 35228.36091856491, 7568.7477074560775, 39977.614876939646, 29060.59820182302, 42180.1557755656, 36959.615285350716, 31181.93521284285, 24805.340147655028, 0.0587890625, 1.016609375, 0.13516796875, 192.0, 0.0, 0.0, 0.0, 0.0, 0.0, 0.0, 0.0, 0.0, 0.0, 1.707474714723814E9, 0.0, 2024-02-09 11:31:54.723
186.0, -7082.284341130775, -13768.16049434668, 21744.089930545084, 1185.9612090541375, 47489.008008123405, 20693.222664978824, 37149.15807833172, 12221.151557105966, 34996.908604730204, 7541.031544331497, 39642.20459964331, 29012.631358221934, 41695.43584530781, 36793.05008566977, 31040.403966951846, 24653.862375481414, 0.0587890625, 1.016609375, 0.13516796875, 192.0, 0.0, 0.0, 0.0, 0.0, 0.0, 0.0, 0.0, 0.0, 0.0, 1.7074747147316146E9, 0.0, 2024-02-09 11:31:54.731
188.0, -7075.757631749825, -13777.1011921288, 21732.44467168387, 1182.8319648303946, 47634.80843720537, 20710.992301820792, 37208.83723602739, 12295.515810908773, 35308.64838464837, 7607.148004430295, 40050.01217723038, 29111.493123947756, 42201.50169152042, 37011.27016678693, 31219.597902250043, 24827.62483687697, 0.0587890625, 1.016609375, 0.13516796875, 192.0, 0.0, 0.0, 0.0, 0.0, 0.0, 0.0, 0.0, 0.0, 0.0, 1.7074747147386515E9, 0.0, 2024-02-09 11:31:54.738
190.0, -7167.332728783218, -13823.726931062572, 21683.96373796031, 1180.6861973626849, 47344.3251662642, 20629.36373107001, 37066.076644191344, 12150.654155093927, 35038.90753256172, 7523.574831911902, 39734.96433913283, 29007.624567463943, 41867.81249854714, 36810.90912948956, 31079.653630215365, 24711.50752443165, 0.058, 1.012, 0.132, 192.0, 0.5, 104.0, 15.5, 80.0, 2.0, 16.0, 0.0, 0.0, 0.0, 1.7074747147466345E9, 0.0, 2024-02-09 11:31:54.746
192.0, -7029.288355027242, -13746.121674313747, 21772.811922170153, 1184.3518834533554, 47669.47599285555, 20725.744453161296, 37233.22298922813, 12281.165990968466, 35161.1492229878, 7579.275379094527, 39823.47724717585, 29067.527242604167, 41892.980562803816, 36899.04205787683, 31123.954787725783, 24715.642597155882, 0.058, 1.012, 0.132, 192.0, 0.0, 0.0, 0.0, 0.0, 0.0, 0.0, 0.0, 0.0, 0.0, 1.707474714755684E9, 0.0, 2024-02-09 11:31:54.755
194.0, -7152.89350186509, -13815.233268169555, 21703.052127725143, 1201.0486365614697, 47448.70781287048, 20660.879690751994, 37123.11829604129, 12220.771577450227, 35238.665072758806, 7578.649530249779, 39997.06089461576, 29081.027696255172, 42187.978886124954, 36980.91649781662, 31203.772867175685, 24822.975674030266, 0.058, 1.012, 0.132, 192.0, 0.0, 0.0, 0.0, 0.0, 0.0, 0.0, 0.0, 0.0, 0.0, 1.707474714762724E9, 0.0, 2024-02-09 11:31:54.762
196.0, -7085.413585354518, -13767.825218179849, 21746.16864277943, 1190.0962817783693, 47494.372426792674, 20687.32180444262, 37148.48752599806, 12223.27497282922, 34991.58888954984, 7534.415427972726, 39644.17155315537, 29022.35436705999, 41694.18414761831, 36798.258042127854, 31046.550696677055, 24660.67965754028, 0.058, 1.012, 0.132, 192.0, 0.0, 0.0, 0.0, 0.0, 0.0, 0.0, 0.0, 0.0, 0.0, 1.7074747147707195E9, 0.0, 2024-02-09 11:31:54.770
198.0, -7074.952968949434, -13768.29460481341, 21733.8304798401, 1186.810575343439, 47641.42455356414, 20695.81546733564, 37212.70408781816, 12270.146580952, 35305.04975379107, 7610.03137946503, 40046.86058126218, 29114.510609449222, 42190.571688481774, 37012.745381920984, 31221.36369006201, 24825.926104298367, 0.058, 1.012, 0.132, 192.0, 0.0, 0.0, 0.0, 0.0, 0.0, 0.0, 0.0, 0.0, 0.0, 1.7074747147796829E9, 0.0, 2024-02-09 11:31:54.779
200.0, -7162.884731636612, -13816.708483303606, 21687.785886262165, 1193.6055056578525, 47348.5272942218, 20636.426882317886, 37073.6538855617, 12160.041887765157, 35043.824916341895, 7531.509701193536, 39745.492010771275, 29017.392279790914, 41870.49470788178, 36832.63502510012, 31081.307659305057, 24709.85349534196, 0.064, 1.01, 0.14, 192.0, 1.0, 0.0, 15.5, 72.0, 2.0, 48.0, 0.0, 0.0, 0.0, 1.7074747147877345E9, 0.0, 2024-02-09 11:31:54.787
202.0, -7027.008477092801, -13743.551223701386, 21775.985869882807, 1193.5384504244864, 47661.38466136273, 20720.089461814103, 37224.438753657196, 12275.220426943353, 35162.98206603314, 7578.180143616217, 39835.748354881805, 29079.32896367657, 41893.3381907151, 36899.980831143956, 31125.608816815475, 24729.970065351736, 0.064, 1.01, 0.14, 192.0, 0.0, 0.0, 0.0, 0.0, 0.0, 0.0, 0.0, 0.0, 0.0, 1.7074747147948883E9, 0.0, 2024-02-09 11:31:54.794
204.0, -7155.709821666458, -13819.033064726957, 21696.5701218331, 1193.292581235478, 47443.87983606814, 20640.986638186772, 37111.09305752433, 12194.038891081678, 35240.341453592955, 7571.362861557349, 39999.541938250295, 29077.071437486582, 42186.458967501996, 36971.39465467866, 31197.22380605028, 24819.175877472866, 0.064, 1.01, 0.14, 192.0, 0.0, 0.0, 0.0, 0.0, 0.0, 0.0, 0.0, 0.0, 0.0, 1.7074747148027685E9, 0.0, 2024-02-09 11:31:54.802
206.0, -7086.68763478847, -13771.468552526065, 21744.335799734094, 1184.3295317089, 47479.284999285344, 20674.782475803197, 37137.043432836945, 12218.201126837866, 34997.400343108224, 7530.213300015128, 39635.90140770691, 29009.390355275915, 41695.1899761188, 36775.0792831277, 31046.66245539933, 24656.768102260605, 0.064, 1.01, 0.14, 192.0, 0.0, 0.0, 0.0, 0.0, 0.0, 0.0, 0.0, 0.0, 0.0, 1.7074747148117704E9, 0.0, 2024-02-09 11:31:54.811
208.0, -7080.697367274448, -13775.96125316158, 21735.886840329986, 1185.9835607985926, 47643.03387916493, 20707.326615730122, 37225.04225075749, 12293.951188796902, 35305.09445727998, 7601.202440405184, 40037.47284859096, 29104.85465584453, 42195.28790656184, 36996.29449800187, 31225.632873252976, 24826.663711865393, 0.064, 1.01, 0.14, 192.0, 0.0, 0.0, 0.0, 0.0, 0.0, 0.0, 0.0, 0.0, 0.0, 1.707474714818789E9, 0.0, 2024-02-09 11:31:54.818
210.0, -7165.298720037785, -13817.78136703746, 21691.80920026412, 1198.165261526735, 47350.650709945054, 20647.982734201283, 37089.43421714714, 12164.288719211665, 35047.75882336603, 7534.616593672824, 39741.91573165843, 29017.973425146753, 41875.38973991749, 36838.91586529206, 31087.90142391937, 24720.31411174704, 0.064, 1.018, 0.14400000000000002, 192.0, 1.0, 0.0, 15.5, 104.0, 2.0, 64.0, 0.0, 0.0, 0.0, 1.7074747148267899E9, 0.0, 2024-02-09 11:31:54.826
212.0, -7028.416636993485, -13747.1945580476, 21772.007259369762, 1195.7065696366512, 47670.25830391149, 20740.34014229061, 37236.732213107614, 12313.19604077292, 35169.307609713986, 7582.583437273913, 39820.01272678527, 29075.61857409699, 41894.366370960044, 36907.1110376252, 31134.884790764427, 24737.480251488716, 0.064, 1.018, 0.14400000000000002, 192.0, 0.0, 0.0, 0.0, 0.0, 0.0, 0.0, 0.0, 0.0, 0.0, 1.7074747148358305E9, 0.0, 2024-02-09 11:31:54.835
214.0, -7151.172417542031, -13816.730835048062, 21700.90636025743, 1203.1944040291792, 47454.69808038451, 20667.652269321952, 37129.354432744316, 12228.75115022077, 35245.66116877332, 7573.776849958522, 39995.58567948171, 29079.351315421023, 42187.978886124954, 36979.664800127124, 31199.906015384917, 24829.0106450332, 0.064, 1.018, 0.14400000000000002, 192.0, 0.0, 0.0, 0.0, 0.0, 0.0, 0.0, 0.0, 0.0, 0.0, 1.7074747148438196E9, 0.0, 2024-02-09 11:31:54.843
216.0, -7079.222152140397, -13762.840779166316, 21762.418360998436, 1203.037941817992, 47485.74465343293, 20701.001072049272, 37147.660511453214, 12229.086426387601, 35005.223453667575, 7542.931442610198, 39646.8090590011, 29020.99091064822, 41704.75652274567, 36800.7390857624, 31048.607057166944, 24674.56009084703, 0.064, 1.018, 0.14400000000000002, 192.0, 0.0, 0.0, 0.0, 0.0, 0.0, 0.0, 0.0, 0.0, 0.0, 1.70747471485084E9, 0.0, 2024-02-09 11:31:54.850
218.0, -7072.82955322618, -13769.456895525087, 21758.707971418855, 1192.2196975016234, 47643.32445184284, 20709.114755286548, 37216.99562275358, 12278.819057800658, 35315.57742542952, 7610.254896909582, 40045.92180799506, 29113.86240886002, 42199.378275797164, 37010.68902143109, 31229.902056443938, 24838.644246893437, 0.064, 1.018, 0.14400000000000002, 192.0, 0.0, 0.0, 0.0, 0.0, 0.0, 0.0, 0.0, 0.0, 0.0, 1.7074747148590932E9, 0.0, 2024-02-09 11:31:54.859
220.0, -7164.672871193036, -13809.287704144444, 21711.188162706872, 1197.8299853599055, 47347.70027967695, 20633.61056251652, 37077.45368211909, 12147.994297503747, 35050.105756533834, 7530.8838523487875, 39749.403566050954, 29019.69450946981, 41888.711379612854, 36834.15494372308, 31091.164778609847, 24721.029367569612, 0.068, 1.016, 0.14400000000000002, 192.0, 1.0, 16.0, 15.5, 96.0, 2.0, 64.0, 0.0, 0.0, 0.0, 1.7074747148678503E9, 0.0, 2024-02-09 11:31:54.867
222.0, -7028.036657337744, -13745.182901046623, 21779.718611206845, 1187.5481829104642, 47659.440059595116, 20726.213839794855, 37226.62922461382, 12291.738366095826, 35162.736196844126, 7586.137364642306, 39821.08561051913, 29066.968448992786, 41895.77453086073, 36897.678601465064, 31125.519409837656, 24728.1372223064, 0.068, 1.016, 0.14400000000000002, 192.0, 0.0, 0.0, 0.0, 0.0, 0.0, 0.0, 0.0, 0.0, 0.0, 1.707474714875039E9, 0.0, 2024-02-09 11:31:54.875
224.0, -7147.216158773442, -13812.68516930165, 21698.782944534178, 1201.1603952837463, 47454.98865306243, 20684.41607766343, 37125.55463618692, 12257.450790101384, 35247.89634321885, 7585.176239630729, 40002.24649932939, 29079.19485320984, 42189.90113614812, 36975.552079147354, 31194.02750659317, 24832.34105495704, 0.068, 1.016, 0.14400000000000002, 192.0, 0.0, 0.0, 0.0, 0.0, 0.0, 0.0, 0.0, 0.0, 0.0, 1.707474714882861E9, 0.0, 2024-02-09 11:31:54.882
226.0, -7081.904361475034, -13764.919491400658, 21747.822671869122, 1197.1370812817909, 47482.59305746473, 20698.296510970176, 37150.610941721316, 12251.058191187167, 35003.2117966666, 7542.417352487726, 39647.39020435693, 29016.855837923988, 41702.85662446697, 36794.01121068135, 31047.511821688633, 24681.779704306093, 0.068, 1.016, 0.14400000000000002, 192.0, 0.0, 0.0, 0.0, 0.0, 0.0, 0.0, 0.0, 0.0, 0.0, 1.7074747148909092E9, 0.0, 2024-02-09 11:31:54.890
228.0, -7079.35626260713, -13770.619186236763, 21743.39702646697, 1192.4432149461766, 47651.23696938002, 20721.85524962607, 37225.98102402461, 12319.923915853968, 35304.17803575731, 7615.574612089946, 40047.66524406258, 29108.34152797956, 42196.181976340056, 37003.42470448312, 31221.676614484386, 24842.667560895392, 0.068, 1.016, 0.14400000000000002, 192.0, 0.0, 0.0, 0.0, 0.0, 0.0, 0.0, 0.0, 0.0, 0.0, 1.7074747148999023E9, 0.0, 2024-02-09 11:31:54.899
230.0, -7174.015900375355, -13819.63656182725, 21696.547770088648, 1195.3042382364558, 47352.90823613504, 20648.60858304603, 37084.405074644696, 12185.79109737767, 35037.34291044986, 7532.850805860854, 39749.068289884126, 29008.764506431166, 41885.693894111384, 36834.02083325635, 31087.566147752543, 24734.79804215408, 0.068, 1.012, 0.148, 192.0, 1.0, 16.0, 15.5, 80.0, 2.0, 80.0, 0.0, 0.0, 0.0, 1.7074747149068987E9, 0.0, 2024-02-09 11:31:54.906
232.0, -7043.258195311809, -13746.300488269388, 21773.795398926188, 1185.0224357870145, 47664.15627767519, 20730.14774681899, 37244.287102733506, 12308.211601759387, 35148.45343213718, 7576.771983715533, 39816.9952412838, 29061.559326834602, 41880.66475160894, 36887.821482160274, 31121.294930135602, 24739.067225345043, 0.068, 1.012, 0.148, 192.0, 0.0, 0.0, 0.0, 0.0, 0.0, 0.0, 0.0, 0.0, 0.0, 1.7074747149149022E9, 0.0, 2024-02-09 11:31:54.914
234.0, -7162.2588827918635, -13813.914515246692, 21693.8208572651, 1192.1526422682575, 47457.15677227459, 20659.35977212903, 37138.40688924872, 12224.504318774263, 35235.021738412586, 7579.521248283536, 39997.61968822714, 29062.47574835727, 42190.28111580385, 36964.77853831989, 31193.26754728169, 24836.364368958995, 0.068, 1.012, 0.148, 192.0, 0.0, 0.0, 0.0, 0.0, 0.0, 0.0, 0.0, 0.0, 0.0, 1.7074747149239345E9, 0.0, 2024-02-09 11:31:54.923
236.0, -7093.59432382516, -13760.695011698606, 21752.985924838296, 1192.4432149461766, 47480.3578830192, 20698.072993525624, 37160.24454358155, 12238.80943522566, 34993.44408433963, 7528.022829058508, 39640.572922298066, 28999.466180737756, 41692.552470273076, 36785.674009999515, 31041.81212685253, 24680.662117083328, 0.068, 1.012, 0.148, 192.0, 0.0, 0.0, 0.0, 0.0, 0.0, 0.0, 0.0, 0.0, 0.0, 1.70747471492994E9, 0.0, 2024-02-09 11:31:54.929
238.0, -7074.5059340603275, -13766.48411351253, 21763.893576132486, 1192.845546346372, 47658.456582839084, 20726.3926537505, 37232.15010549428, 12301.461374933884, 35302.6804688788, 7598.341417114904, 40048.000520229405, 29101.61365289851, 42189.99054312593, 37011.09135283129, 31226.057556397627, 24850.289505754652, 0.068, 1.012, 0.148, 192.0, 0.0, 0.0, 0.0, 0.0, 0.0, 0.0, 0.0, 0.0, 0.0, 1.7074747149390576E9, 0.0, 2024-02-09 11:31:54.939
240.0, -7165.27636829333, -13806.11375643179, 21711.881066784987, 1196.8241568594167, 47356.55157048125, 20651.782530758683, 37088.875423535756, 12170.100172770044, 35047.244733243555, 7534.415427972726, 39768.02256918223, 29014.41949777836, 41894.791054104695, 36846.62721712914, 31096.864473445952, 24731.489983974694, 0.074, 1.012, 0.148, 192.0, 1.0, 40.0, 15.5, 80.0, 2.0, 80.0, 0.0, 0.0, 0.0, 1.7074747149469905E9, 0.0, 2024-02-09 11:31:54.946
242.0, -7026.1367590590435, -13727.659133393661, 21776.231739071816, 1190.4315579451988, 47663.06104219688, 20735.02042711025, 37243.102460277376, 12313.799537873214, 35151.87324903885, 7594.9216002132425, 39826.539436166226, 29069.22597518277, 41889.35958020206, 36893.476473507464, 31127.01697671616, 24739.447205000783, 0.074, 1.012, 0.148, 192.0, 0.0, 0.0, 0.0, 0.0, 0.0, 0.0, 0.0, 0.0, 0.0, 1.7074747149550073E9, 0.0, 2024-02-09 11:31:54.955
244.0, -7154.659289677059, -13813.825108268871, 21687.428258350883, 1197.9864475710926, 47461.29184499882, 20665.50650185424, 37143.21251430661, 12242.765693994248, 35237.79335472505, 7594.832193235421, 40003.27467957434, 29071.03646648365, 42199.02064788588, 36984.89510832967, 31201.98472761926, 24839.560668416103, 0.074, 1.012, 0.148, 192.0, 0.0, 0.0, 0.0, 0.0, 0.0, 0.0, 0.0, 0.0, 0.0, 1.7074747149629967E9, 0.0, 2024-02-09 11:31:54.962
246.0, -7095.427166870495, -13766.148837345701, 21742.190032266382, 1197.8523371043607, 47488.73978718994, 20698.207103992358, 37158.7693284475, 12242.542176549696, 34992.79588375043, 7544.808989144443, 39640.72938450926, 29010.08325935403, 41711.126769915434, 36796.313440360245, 31048.00356006665, 24679.83510253848, 0.074, 1.012, 0.148, 192.0, 0.0, 0.0, 0.0, 0.0, 0.0, 0.0, 0.0, 0.0, 0.0, 1.7074747149710112E9, 0.0, 2024-02-09 11:31:54.971
248.0, -7073.120125904099, -13761.142046587713, 21748.940259091887, 1195.3265899809112, 47661.51877182946, 20720.04475832519, 37237.9392073082, 12309.351540726608, 35298.72421011022, 7614.255859167083, 40038.5010288359, 29102.910054076918, 42198.03717112984, 37008.409143496654, 31223.889437185462, 24838.241915493243, 0.074, 1.012, 0.148, 192.0, 0.0, 0.0, 0.0, 0.0, 0.0, 0.0, 0.0, 0.0, 0.0, 1.7074747149800324E9, 0.0, 2024-02-09 11:31:54.980
250.0, -7167.802115416779, -13811.165250678689, 21709.645892339457, 1209.3187820099333, 47361.625416472605, 20657.929260483892, 37104.476941165565, 12198.866867884026, 35054.46434670262, 7543.736105410589, 39760.82530746762, 29014.531256500635, 41904.156435031466, 36841.37455718214, 31103.435886315812, 24743.962257380757, 0.07, 1.01, 0.138, 192.0, 1.0, 24.0, 15.5, 72.0, 2.0, 40.0, 0.0, 0.0, 0.0, 1.7074747149860191E9, 0.0, 2024-02-09 11:31:54.986
252.0, -7033.512834729295, -13738.700895154583, 21787.564073510657, 1194.946610325171, 47658.47893458354, 20733.165232320458, 37255.127698794335, 12313.263096006287, 35155.404824662786, 7594.876896724331, 39815.72119184985, 29064.46505361379, 41883.72694059932, 36888.82731066076, 31133.878962263938, 24747.9408678938, 0.07, 1.01, 0.138, 192.0, 0.0, 0.0, 0.0, 0.0, 0.0, 0.0, 0.0, 0.0, 0.0, 1.7074747149950645E9, 0.0, 2024-02-09 11:31:54.995
254.0, -7156.402725744573, -13809.712387289095, 21709.690595828368, 1199.9981045720704, 47463.81759212227, 20676.950595015358, 37163.1726221052, 12255.193263911398, 35249.08098567498, 7586.047957664485, 40007.07447613174, 29071.885832772954, 42201.25582233141, 36982.59287865077, 31211.350108546034, 24843.807499862614, 0.07, 1.01, 0.138, 192.0, 0.0, 0.0, 0.0, 0.0, 0.0, 0.0, 0.0, 0.0, 0.0, 1.7074747150030663E9, 0.0, 2024-02-09 11:31:55.003
0.0, -7093.527268591794, -13769.903930414193, 21754.97523009482, 1197.941744082182, 47475.26168528339, 20708.91358958645, 37169.74403497506, 12257.0931621901, 34992.88529072825, 7541.500930965059, 39638.114230407984, 29003.13186682843, 41702.543700044596, 36796.26873687133, 31056.139595048382, 24686.674736341804, 0.07, 1.01, 0.138, 192.0, 0.0, 0.0, 0.0, 0.0, 0.0, 0.0, 0.0, 0.0, 0.0, 1.7074747150110695E9, 0.0, 2024-02-09 11:31:55.011
2.0, -7071.756669492325, -13765.165360589668, 21759.378523752515, 1198.9252208382156, 47655.68496652663, 20733.09817708709, 37251.909047592766, 12322.114386810588, 35301.13819851139, 7616.6474958238, 40035.550598567796, 29094.774019095188, 42184.76023492339, 37015.1370185777, 31226.146963375446, 24848.568421431595, 0.07, 1.01, 0.138, 192.0, 0.0, 0.0, 0.0, 0.0, 0.0, 0.0, 0.0, 0.0, 0.0, 1.707474715019102E9, 0.0, 2024-02-09 11:31:55.019
4.0, -7166.70687993847, -13812.171079179177, 21716.06084299813, 1206.4130552307433, 47357.177419326, 20653.302449381645, 37103.22524347607, 12191.043757324667, 35051.40215771224, 7545.993631600575, 39760.35592083406, 29010.619701220956, 41898.00970530626, 36859.01008355738, 31101.558339781564, 24747.627943471427, 0.074, 1.016, 0.14, 192.0, 1.0, 40.0, 15.5, 96.0, 2.0, 48.0, 0.0, 0.0, 0.0, 1.7074747150270722E9, 0.0, 2024-02-09 11:31:55.027
6.0, -7028.729561415859, -13732.57651717383, 21783.87603567553, 1190.6327236452967, 47659.12713517274, 20727.53259271772, 37248.57863766893, 12305.90937208049, 35151.29210368301, 7593.893419968298, 39809.99914526929, 29063.36981813548, 41876.37321667352, 36899.62320323267, 31127.15108718289, 24738.977818367224, 0.074, 1.016, 0.14, 192.0, 0.0, 0.0, 0.0, 0.0, 0.0, 0.0, 0.0, 0.0, 0.0, 1.707474715035329E9, 0.0, 2024-02-09 11:31:55.035
8.0, -7158.906121123568, -13806.225515154067, 21700.951063746343, 1197.1370812817909, 47465.13634504513, 20664.32185939811, 37144.97830211858, 12238.742379992293, 35250.69031127576, 7588.8195739769435, 40001.28537431781, 29058.921820988875, 42202.73103746546, 36981.140015261175, 31204.68928869835, 24838.599543404525, 0.074, 1.016, 0.14, 192.0, 0.0, 0.0, 0.0, 0.0, 0.0, 0.0, 0.0, 0.0, 0.0, 1.7074747150423489E9, 0.0, 2024-02-09 11:31:55.042
10.0, -7092.767309280313, -13761.790247176916, 21752.82946262711, 1208.6035261873635, 47475.932237617046, 20697.20127549187, 37161.67505522669, 12237.311868347153, 34988.236127881544, 7542.126779809807, 39644.909160722396, 29004.40591626238, 41700.085008154514, 36786.299858844264, 31049.367016478423, 24675.476512369696, 0.074, 1.016, 0.14, 192.0, 0.0, 0.0, 0.0, 0.0, 0.0, 0.0, 0.0, 0.0, 0.0, 1.707474715051165E9, 0.0, 2024-02-09 11:31:55.051
12.0, -7069.990881680355, -13752.715438928062, 21758.372695252026, 1215.0184768460367, 47656.62373979375, 20723.933961860414, 37243.169515510745, 12314.023055317766, 35297.00312578716, 7620.089664469918, 40047.26291266238, 29104.787600611166, 42182.65917094459, 37015.964033122546, 31227.152791875935, 24846.132081285967, 0.074, 1.016, 0.14, 192.0, 0.0, 0.0, 0.0, 0.0, 0.0, 0.0, 0.0, 0.0, 0.0, 1.7074747150591784E9, 0.0, 2024-02-09 11:31:55.059
14.0, -7165.768106671347, -13801.665759285184, 21716.574933120603, 1220.7405234265952, 47356.68568094799, 20665.059466965136, 37087.57902235735, 12187.646292167461, 35048.0717477884, 7547.424143245715, 39770.391854094494, 29017.03465187963, 41896.82506285013, 36852.304560220786, 31102.742982237698, 24745.638638214903, 0.068, 1.018, 0.14400000000000002, 192.0, 1.0, 16.0, 15.5, 104.0, 2.0, 64.0, 0.0, 0.0, 0.0, 1.707474715067246E9, 0.0, 2024-02-09 11:31:55.067
16.0, -7025.712075914393, -13724.418130447642, 21800.34927133909, 1208.1117878093467, 47674.885115013734, 20754.82407269765, 37253.294855748994, 12321.779110643758, 35148.676949581735, 7598.296713625993, 39816.3470406946, 29068.398960637925, 41868.10307122506, 36898.59502298773, 31136.807040787586, 24740.363626523453, 0.068, 1.018, 0.14400000000000002, 192.0, 0.0, 0.0, 0.0, 0.0, 0.0, 0.0, 0.0, 0.0, 0.0, 1.7074747150742629E9, 0.0, 2024-02-09 11:31:55.074
18.0, -7153.876978621123, -13800.861096484792, 21715.747918575755, 1209.9222791102266, 47485.02939761036, 20684.639595107987, 37155.215401079106, 12250.052362686678, 35258.55812532403, 7594.362806601859, 40021.647813516596, 29078.52430087618, 42206.083799133754, 36989.85719559875, 31228.09156514306, 24845.327418485573, 0.068, 1.018, 0.14400000000000002, 192.0, 0.0, 0.0, 0.0, 0.0, 0.0, 0.0, 0.0, 0.0, 0.0, 1.707474715083244E9, 0.0, 2024-02-09 11:31:55.083
20.0, -7092.342626135663, -13756.515235485464, 21760.630221442014, 1212.1127500668467, 47487.57749647826, 20711.99813032128, 37165.139575617264, 12251.214653398354, 34999.09907568683, 7547.602957201357, 39653.626341059964, 29006.261111052172, 41703.88480471192, 36796.82753048272, 31062.42043524032, 24675.74473330316, 0.068, 1.018, 0.14400000000000002, 192.0, 0.0, 0.0, 0.0, 0.0, 0.0, 0.0, 0.0, 0.0, 0.0, 1.7074747150912488E9, 0.0, 2024-02-09 11:31:55.091
22.0, -7071.130820647576, -13754.39181976221, 21761.479587731315, 1204.8707848633271, 47666.5479143319, 20736.04860735519, 37247.8410301019, 12323.544898455728, 35314.303375995565, 7619.441463880714, 40048.134630696135, 29098.6185191415, 42187.19657506902, 37019.02622211292, 31236.294655358157, 24842.309932984106, 0.068, 1.018, 0.14400000000000002, 192.0, 0.0, 0.0, 0.0, 0.0, 0.0, 0.0, 0.0, 0.0, 0.0, 1.707474715098442E9, 0.0, 2024-02-09 11:31:55.098
24.0, -7166.863342149657, -13801.375186607265, 21715.412642408926, 1210.883404121805, 47370.499059021364, 20668.03224897769, 37097.16792072868, 12197.659873683438, 35067.4283584867, 7555.113143338341, 39770.61537153905, 29004.428268006835, 41906.63747866601, 36859.03243530184, 31111.16958989735, 24743.068187602545, 0.07200000000000001, 1.014, 0.14200000000000002, 192.0, 1.0, 32.0, 15.5, 88.0, 2.0, 56.0, 0.0, 0.0, 0.0, 1.707474715107232E9, 0.0, 2024-02-09 11:31:55.107
26.0, -7034.004573107311, -13724.90986882566, 21796.393012570505, 1199.6404766607855, 47674.52748710245, 20745.52574700424, 37246.83520160141, 12310.580886671649, 35154.91308628477, 7598.341417114904, 39817.710497106375, 29058.273620399672, 41880.105957997555, 36892.69416245153, 31140.629189089443, 24739.84953640098, 0.07200000000000001, 1.014, 0.14200000000000002, 192.0, 0.0, 0.0, 0.0, 0.0, 0.0, 0.0, 0.0, 0.0, 0.0, 1.707474715115238E9, 0.0, 2024-02-09 11:31:55.115
28.0, -7157.453257733972, -13796.904837716203, 21714.876200542, 1202.3897412287881, 47489.72326394597, 20667.741676299775, 37141.82670615038, 12233.400313067474, 35259.16162242432, 7586.271475109038, 40022.22895887244, 29067.37078039298, 42216.231491116465, 36987.91259383113, 31219.93317841687, 24837.951342815322, 0.07200000000000001, 1.014, 0.14200000000000002, 192.0, 0.0, 0.0, 0.0, 0.0, 0.0, 0.0, 0.0, 0.0, 0.0, 1.7074747151222887E9, 0.0, 2024-02-09 11:31:55.122
30.0, -7088.11814643361, -13752.693087183607, 21766.329916278115, 1215.9348983687041, 47492.31606630279, 20704.24207499529, 37153.44961326714, 12241.37988583802, 35006.6092618238, 7543.534939710491, 39653.5592858266, 29003.914177884362, 41714.23366239473, 36791.77603623582, 31061.325199762014, 24674.805960036036, 0.07200000000000001, 1.014, 0.14200000000000002, 192.0, 0.0, 0.0, 0.0, 0.0, 0.0, 0.0, 0.0, 0.0, 0.0, 1.7074747151302793E9, 0.0, 2024-02-09 11:31:55.130
32.0, -7065.2299601113755, -13746.926337114137, 21769.436808757404, 1215.5325669685087, 47679.55662960489, 20737.523822489242, 37249.42800395823, 12321.689703665937, 35318.46080046425, 7620.737865059122, 40056.8518110337, 29104.18410351087, 42195.24320307293, 37019.741477935495, 31240.206210637836, 24846.40030221943, 0.07200000000000001, 1.014, 0.14200000000000002, 192.0, 0.0, 0.0, 0.0, 0.0, 0.0, 0.0, 0.0, 0.0, 0.0, 1.7074747151392562E9, 0.0, 2024-02-09 11:31:55.139
34.0, -7171.423098018539, -13803.520954074975, 21716.127898231494, 1207.329476753411, 47375.103518379154, 20657.99631571726, 37087.91429852418, 12188.473306712307, 35065.75197765255, 7535.018925073019, 39786.328647891125, 29005.143523829407, 41923.64715619649, 36857.15488876759, 31116.93633996682, 24747.359722537964, 0.068, 1.018, 0.146, 192.0, 1.0, 16.0, 15.5, 104.0, 2.0, 72.0, 0.0, 0.0, 0.0, 1.7074747151472528E9, 0.0, 2024-02-09 11:31:55.147
36.0, -7028.416636993485, -13724.90986882566, 21799.56696028316, 1199.394607471777, 47675.5556673474, 20744.609325481575, 37243.14716376628, 12323.611953689093, 35159.6963595982, 7579.990634917097, 39821.06325877467, 29050.852841240507, 41882.966981287835, 36882.30060127981, 31138.662235577376, 24736.85440264397, 0.068, 1.018, 0.146, 192.0, 0.0, 0.0, 0.0, 0.0, 0.0, 0.0, 0.0, 0.0, 0.0, 1.7074747151545043E9, 0.0, 2024-02-09 11:31:55.154
38.0, -7149.60779543016, -13798.87179122827, 21716.463174398326, 1203.5296801960087, 47482.41424350908, 20683.05262125166, 37155.282456312474, 12251.505226076273, 35271.11980570791, 7574.827381947921, 40029.94031070951, 29063.056893713107, 42227.38501159966, 36980.02242803841, 31223.241236596255, 24844.63451440746, 0.068, 1.018, 0.146, 192.0, 0.0, 0.0, 0.0, 0.0, 0.0, 0.0, 0.0, 0.0, 0.0, 1.7074747151623042E9, 0.0, 2024-02-09 11:31:55.162
40.0, -7087.626408055593, -13752.201348805589, 21763.446541243382, 1206.7259796531177, 47495.959400649, 20709.51708668674, 37162.18914534916, 12254.925042977935, 35005.7598955345, 7539.846901875366, 39660.913009752396, 29001.097858082994, 41725.610700322475, 36788.333867589696, 31065.437920741788, 24688.105247986943, 0.068, 1.018, 0.146, 192.0, 0.0, 0.0, 0.0, 0.0, 0.0, 0.0, 0.0, 0.0, 0.0, 1.7074747151713068E9, 0.0, 2024-02-09 11:31:55.171
42.0, -7064.715869988903, -13753.743619173005, 21761.412532497947, 1192.7114358796402, 47681.36712090577, 20731.19827880839, 37241.11315502085, 12314.738311140336, 35317.92435859732, 7609.31612364246, 40049.341624896726, 29094.639908628455, 42198.84183393024, 37002.485931216, 31239.84858272655, 24841.929953328367, 0.068, 1.018, 0.146, 192.0, 0.0, 0.0, 0.0, 0.0, 0.0, 0.0, 0.0, 0.0, 0.0, 1.7074747151783247E9, 0.0, 2024-02-09 11:31:55.178
44.0, -7176.787516687813, -13808.72891053306, 21709.623540595003, 1191.6385521457855, 47371.482535777395, 20655.202347660346, 37081.72286531006, 12184.338233988075, 35076.86079464684, 7529.140416281273, 39775.845679741586, 28993.20769229027, 41923.244824796304, 36844.19087698351, 31109.58261604102, 24736.921457877335, 0.067, 1.02, 0.14300000000000002, 192.0, 1.0, 8.0, 15.5, 120.0, 2.0, 48.0, 0.0, 0.0, 0.0, 1.70747471518638E9, 0.0, 2024-02-09 11:31:55.186
46.0, -7037.178520819965, -13733.694104396594, 21790.223931100838, 1185.9612090541375, 47671.68881555663, 20736.830918411128, 37240.37554745383, 12307.71986338137, 35149.07928098193, 7580.437669806203, 39807.02636325674, 29043.432062081345, 41869.89121078148, 36885.787473414835, 31132.269636663157, 24721.54345769208, 0.067, 1.02, 0.14300000000000002, 192.0, 0.0, 0.0, 0.0, 0.0, 0.0, 0.0, 0.0, 0.0, 0.0, 1.707474715195364E9, 0.0, 2024-02-09 11:31:55.195
48.0, -7163.354118270174, -13815.143861191735, 21715.837325553577, 1193.8960783357713, 47492.83015642526, 20676.19063570388, 37150.52153474349, 12247.839539985604, 35260.90505849184, 7568.948873156175, 40013.08709539021, 29056.865460498986, 42227.7202877665, 36982.45876818404, 31222.41422205141, 24831.938723556847, 0.067, 1.02, 0.14300000000000002, 192.0, 0.0, 0.0, 0.0, 0.0, 0.0, 0.0, 0.0, 0.0, 0.0, 1.7074747152023356E9, 0.0, 2024-02-09 11:31:55.202
50.0, -7104.747844308358, -13766.305299556889, 21761.948974364874, 1203.8202528739278, 47480.894324886125, 20703.61622615054, 37148.77809867598, 12237.624792769528, 35001.08838094334, 7523.06074178943, 39634.94028269533, 28986.725686398233, 41716.044153695606, 36796.76047524935, 31062.91217361834, 24668.435712866274, 0.067, 1.02, 0.14300000000000002, 192.0, 0.0, 0.0, 0.0, 0.0, 0.0, 0.0, 0.0, 0.0, 0.0, 1.7074747152103865E9, 0.0, 2024-02-09 11:31:55.210
52.0, -7071.868428214601, -13754.10124708429, 21765.726419177823, 1200.7357121390953, 47678.327283659855, 20737.00973236677, 37241.135506765306, 12308.658636648493, 35324.60753018946, 7607.237411408117, 40032.331947366234, 29086.034487013163, 42192.62804897166, 37022.244873314485, 31238.574533292598, 24839.247743993732, 0.067, 1.02, 0.14300000000000002, 192.0, 0.0, 0.0, 0.0, 0.0, 0.0, 0.0, 0.0, 0.0, 0.0, 1.7074747152184272E9, 0.0, 2024-02-09 11:31:55.218
54.0, -7168.3609090281625, -13796.457802827097, 21715.949084275853, 1211.2410320330898, 47376.42227130202, 20672.815522291126, 37102.46528416459, 12207.427586010408, 35076.90549813575, 7537.187044285184, 39776.739749519795, 28999.332070271026, 41929.30214754369, 36860.127670780144, 31121.16081966887, 24748.253792316176, 0.0675, 1.017, 0.1405, 192.0, 1.0, 16.0, 15.5, 88.0, 2.0, 40.0, 0.0, 0.0, 0.0, 1.7074747152274692E9, 0.0, 2024-02-09 11:31:55.227
56.0, -7034.205738807409, -13728.329685727322, 21795.320128836647, 1198.2770202490117, 47673.499306857506, 20756.478101787343, 37251.70788189267, 12321.220317032376, 35149.19103970421, 7587.478469309625, 39804.567671366654, 29050.584620307043, 41866.31493166863, 36898.103284609715, 31138.48342162173, 24738.776652667126, 0.0675, 1.017, 0.1405, 192.0, 0.0, 0.0, 0.0, 0.0, 0.0, 0.0, 0.0, 0.0, 0.0, 1.7074747152347372E9, 0.0, 2024-02-09 11:31:55.234
58.0, -7159.107286823665, -13805.152631420211, 21717.312540687628, 1197.42765395971, 47492.33841804724, 20690.98749053329, 37155.438918523665, 12253.494531332795, 35270.4269016298, 7576.369652315338, 40023.70417400649, 29061.93930649034, 42218.84664521774, 36994.61811716773, 31225.789335464164, 24847.40613071992, 0.0675, 1.017, 0.1405, 192.0, 0.0, 0.0, 0.0, 0.0, 0.0, 0.0, 0.0, 0.0, 0.0, 1.7074747152426014E9, 0.0, 2024-02-09 11:31:55.242
60.0, -7107.653571087548, -13763.064296610868, 21757.702142918366, 1197.1370812817909, 47487.26457205589, 20714.926208844925, 37175.22021236661, 12258.836598257614, 35002.45183735512, 7533.655468661245, 39639.99177694223, 28985.183416030817, 41707.41638033585, 36798.79448399478, 31059.00061833866, 24682.182035706286, 0.0675, 1.017, 0.1405, 192.0, 0.0, 0.0, 0.0, 0.0, 0.0, 0.0, 0.0, 0.0, 0.0, 1.707474715251475E9, 0.0, 2024-02-09 11:31:55.251
62.0, -7075.601169538638, -13751.91077612767, 21763.513596476747, 1196.1089010368469, 47679.73544356054, 20752.87947093004, 37261.85557387538, 12338.945250385434, 35307.62020440343, 7605.896306740798, 40030.40969734308, 29085.18512072386, 42175.52896446335, 37012.45480924306, 31235.84762046905, 24843.42752020687, 0.0675, 1.017, 0.1405, 192.0, 0.0, 0.0, 0.0, 0.0, 0.0, 0.0, 0.0, 0.0, 0.0, 1.70747471525867E9, 0.0, 2024-02-09 11:31:55.258
64.0, -7181.794307445802, -13806.06905294288, 21711.568142362612, 1206.815386630939, 47381.89844869357, 20676.123580470514, 37107.94146155613, 12209.75216743376, 35061.21457352812, 7543.043201332474, 39774.59398205209, 28992.313622512058, 41916.56165320417, 36871.70587440799, 31116.69047077781, 24752.835899929512, 0.06975, 1.0135, 0.14425, 192.0, 1.0, 32.0, 15.5, 72.0, 2.0, 80.0, 0.0, 0.0, 0.0, 1.7074747152665155E9, 0.0, 2024-02-09 11:31:55.266
66.0, -7039.413695265495, -13729.201403761079, 21790.6933177344, 1201.2721540060227, 47680.80832729439, 20759.67440124445, 37254.23362901612, 12331.345657270629, 35145.614760591365, 7584.93037044172, 39794.77760729523, 29041.018073680174, 41860.7269955548, 36896.82923517576, 31135.242418675713, 24737.32378927753, 0.06975, 1.0135, 0.14425, 192.0, 0.0, 0.0, 0.0, 0.0, 0.0, 0.0, 0.0, 0.0, 0.0, 1.7074747152745204E9, 0.0, 2024-02-09 11:31:55.274
68.0, -7160.001356601877, -13798.357701105799, 21711.903418529444, 1198.9475725826708, 47501.14500536263, 20696.933054558405, 37158.366997047306, 12259.171874424443, 35260.59213406946, 7578.850695949876, 40016.819836714254, 29053.065663941583, 42211.02353465838, 37004.81051263935, 31224.694099985853, 24846.53441268616, 0.06975, 1.0135, 0.14425, 192.0, 0.0, 0.0, 0.0, 0.0, 0.0, 0.0, 0.0, 0.0, 0.0, 1.707474715283523E9, 0.0, 2024-02-09 11:31:55.283
70.0, -7099.6292948280925, -13757.655174452684, 21751.957744593354, 1198.7464068825732, 47484.98469412145, 20712.400461721478, 37153.9189999007, 12235.32256309063, 34991.99122095003, 7530.906204093243, 39631.676928004854, 28982.30004099608, 41698.31922034255, 36797.989821194395, 31052.116281046427, 24671.073218712, 0.06975, 1.0135, 0.14425, 192.0, 0.0, 0.0, 0.0, 0.0, 0.0, 0.0, 0.0, 0.0, 0.0, 1.707474715290582E9, 0.0, 2024-02-09 11:31:55.290
72.0, -7070.840247969658, -13748.446255737097, 21762.038381342696, 1197.8299853599055, 47684.4516616406, 20748.2973633167, 37253.31720749345, 12334.765474172293, 35301.69699212277, 7622.682466826734, 40023.68182226203, 29086.012135268706, 42165.22481026946, 37021.12728609172, 31226.795163964653, 24833.659807879903, 0.06975, 1.0135, 0.14425, 192.0, 0.0, 0.0, 0.0, 0.0, 0.0, 0.0, 0.0, 0.0, 0.0, 1.7074747152987373E9, 0.0, 2024-02-09 11:31:55.298
74.0, -7169.970234628944, -13799.676454028662, 21713.57979936359, 1208.8717471208272, 47380.646751004075, 20671.988507746282, 37105.661583621695, 12212.27791455721, 35070.82582364391, 7544.49606472207, 39783.13234843402, 29000.136733071417, 41923.58010096313, 36875.70683666549, 31113.91885446535, 24753.014713885157, 0.068875, 1.0117500000000001, 0.144125, 192.0, 1.0, 16.0, 15.5, 72.0, 2.0, 64.0, 0.0, 0.0, 0.0, 1.7074747153075137E9, 0.0, 2024-02-09 11:31:55.307
76.0, -7038.385515020552, -13727.23445024901, 21801.824486473142, 1198.232316760101, 47679.95896100509, 20751.717180218362, 37251.618474914845, 12323.209622288898, 35136.942283742705, 7579.767117472544, 39795.694028817896, 29050.696379029323, 41853.50738209574, 36892.51534849589, 31125.72057553775, 24729.99241709619, 0.068875, 1.0117500000000001, 0.144125, 192.0, 0.0, 0.0, 0.0, 0.0, 0.0, 0.0, 0.0, 0.0, 0.0, 1.7074747153145068E9, 0.0, 2024-02-09 11:31:55.314
78.0, -7151.552397197771, -13795.653140026707, 21724.643912868967, 1205.9883720860926, 47511.00212466742, 20696.262502224745, 37168.49233728556, 12261.250586658787, 35264.1237096934, 7590.451251322181, 40026.25227287439, 29066.253193170214, 42215.06920040479, 36998.14969279167, 31226.348129075544, 24851.898831355433, 0.068875, 1.0117500000000001, 0.144125, 192.0, 0.0, 0.0, 0.0, 0.0, 0.0, 0.0, 0.0, 0.0, 0.0, 1.7074747153225377E9, 0.0, 2024-02-09 11:31:55.322
80.0, -7093.527268591794, -13755.665869196162, 21770.867320402544, 1211.1739767997237, 47496.94287740504, 20723.10694731557, 37176.51661354502, 12270.325394907642, 35000.35077337632, 7541.433875731693, 39643.433945588346, 28996.403991747382, 41704.39889483439, 36794.637059526096, 31067.71779867623, 24692.1285619889, 0.068875, 1.0117500000000001, 0.144125, 192.0, 0.0, 0.0, 0.0, 0.0, 0.0, 0.0, 0.0, 0.0, 0.0, 1.707474715330566E9, 0.0, 2024-02-09 11:31:55.330
82.0, -7060.625500753582, -13747.418075492154, 21773.25895705926, 1201.9650580841374, 47696.94628679112, 20750.48783427332, 37265.47655647714, 12344.846110921635, 35311.55411142756, 7613.026513222041, 40028.66626127556, 29095.71279236231, 42177.25004878641, 37007.984460352, 31236.719338502808, 24847.696703397836, 0.068875, 1.0117500000000001, 0.144125, 192.0, 0.0, 0.0, 0.0, 0.0, 0.0, 0.0, 0.0, 0.0, 0.0, 1.7074747153395596E9, 0.0, 2024-02-09 11:31:55.339
84.0, -7162.571807214237, -13795.854305726803, 21722.96753203482, 1214.5490902124752, 47378.411576558545, 20692.082726011602, 37113.261176736494, 12229.354647321064, 35086.740265696084, 7545.323079266916, 39790.88840376001, 29008.920968642353, 41942.22145583886, 36884.22285130297, 31121.786668513618, 24757.75328370968, 0.06943750000000001, 1.014875, 0.14506249999999998, 192.0, 1.0, 24.0, 15.5, 104.0, 2.0, 72.0, 0.0, 0.0, 0.0, 1.7074747153455927E9, 0.0, 2024-02-09 11:31:55.345
86.0, -7029.6012794496155, -13724.149909514179, 21804.26082661877, 1204.8707848633271, 47678.86372552678, 20777.57814855315, 37259.441585474204, 12341.180424830965, 35150.643903093805, 7588.439594321203, 39798.51034861927, 29049.13175691745, 41865.39851014597, 36894.392895030134, 31135.35417739799, 24737.122623577434, 0.06943750000000001, 1.014875, 0.14506249999999998, 192.0, 0.0, 0.0, 0.0, 0.0, 0.0, 0.0, 0.0, 0.0, 0.0, 1.7074747153546238E9, 0.0, 2024-02-09 11:31:55.354
88.0, -7150.568920441738, -13795.295512115421, 21723.123994246005, 1205.2507645190674, 47509.32574383327, 20713.205124521868, 37169.207593108134, 12271.420630385952, 35284.55320412555, 7591.971169945142, 40023.27949086184, 29062.14047219044, 42233.68820353606, 37009.34791676378, 31232.114879145014, 24852.278811011176, 0.06943750000000001, 1.014875, 0.14506249999999998, 192.0, 0.0, 0.0, 0.0, 0.0, 0.0, 0.0, 0.0, 0.0, 0.0, 1.7074747153626316E9, 0.0, 2024-02-09 11:31:55.362
90.0, -7107.184184453987, -13763.310165799878, 21760.25024178627, 1202.300334250967, 47493.03132212536, 20722.23522928181, 37163.39613954975, 12255.305022633675, 35001.378953621264, 7543.132608310296, 39631.2522448602, 28980.377790972925, 41711.1938251488, 36809.925652733524, 31062.755711407153, 24680.88563452788, 0.06943750000000001, 1.014875, 0.14506249999999998, 192.0, 0.0, 0.0, 0.0, 0.0, 0.0, 0.0, 0.0, 0.0, 0.0, 1.7074747153709073E9, 0.0, 2024-02-09 11:31:55.370
92.0, -7065.16290487801, -13747.14985455869, 21773.236605314803, 1199.9534010831596, 47692.520641388975, 20756.142825620514, 37258.16753604025, 12341.716866697892, 35305.54149216908, 7608.712626542167, 40016.596319269695, 29081.720600333287, 42179.82049939877, 37020.47908550252, 31230.438498310865, 24837.191383503843, 0.06943750000000001, 1.014875, 0.14506249999999998, 192.0, 0.0, 0.0, 0.0, 0.0, 0.0, 0.0, 0.0, 0.0, 0.0, 1.7074747153786342E9, 0.0, 2024-02-09 11:31:55.378
94.0, -7170.931359640523, -13802.78334650795, 21716.843154054066, 1207.62004943133, 47383.61953301663, 20677.308222926644, 37110.400153446215, 12213.462557013341, 35082.42637901621, 7541.277413520505, 39778.52788907622, 28999.577939460032, 41946.937673918925, 36862.18403127004, 31115.997566699694, 24753.126472607433, 0.06871875000000001, 1.0184375, 0.14353125, 192.0, 1.0, 16.0, 15.5, 120.0, 2.0, 56.0, 0.0, 0.0, 0.0, 1.7074747153866494E9, 0.0, 2024-02-09 11:31:55.386
96.0, -7030.607107950104, -13725.826290348326, 21798.158800382473, 1194.9019068362602, 47679.646036582715, 20750.1972615954, 37248.91391383576, 12315.140642540533, 35143.2454756791, 7578.448364549681, 39787.98267698082, 29044.61670453748, 41865.55497235715, 36884.28990653633, 31125.050023204094, 24730.104175818466, 0.06871875000000001, 1.0184375, 0.14353125, 192.0, 0.0, 0.0, 0.0, 0.0, 0.0, 0.0, 0.0, 0.0, 0.0, 1.7074747153947167E9, 0.0, 2024-02-09 11:31:55.394
98.0, -7146.590309928693, -13798.290645872432, 21727.63904662598, 1199.2381452605898, 47510.77860722287, 20694.452010923866, 37164.98311340608, 12264.335127393619, 35276.64068658837, 7586.360882086859, 40027.59337754171, 29064.107425702507, 42234.202293658534, 36999.71431490354, 31222.3695185625, 24845.14860452993, 0.06871875000000001, 1.0184375, 0.14353125, 192.0, 0.0, 0.0, 0.0, 0.0, 0.0, 0.0, 0.0, 0.0, 0.0, 1.7074747154017017E9, 0.0, 2024-02-09 11:31:55.401
100.0, -7097.818803527213, -13759.219796564556, 21772.610756470058, 1198.5452411824754, 47490.125595346166, 20716.222610023335, 37158.61286623632, 12246.587842296105, 35009.26911941399, 7535.868291362321, 39637.5554367966, 28989.609061432966, 41713.518406572155, 36791.70898100245, 31056.76544389313, 24676.75056180365, 0.06871875000000001, 1.0184375, 0.14353125, 192.0, 0.0, 0.0, 0.0, 0.0, 0.0, 0.0, 0.0, 0.0, 0.0, 1.7074747154107015E9, 0.0, 2024-02-09 11:31:55.410
102.0, -7055.976337906878, -13743.618278934751, 21783.31724206415, 1196.779453370506, 47701.036656026445, 20757.975668665847, 37264.828355887934, 12344.086151610156, 35317.36556498594, 7615.664019067767, 40021.67016526105, 29082.458207900312, 42174.52313596286, 36999.91548060364, 31235.55704779113, 24835.023264291678, 0.06871875000000001, 1.0184375, 0.14353125, 192.0, 0.0, 0.0, 0.0, 0.0, 0.0, 0.0, 0.0, 0.0, 0.0, 1.7074747154186783E9, 0.0, 2024-02-09 11:31:55.418
104.0, -7165.0752025932325, -13804.057395941902, 21731.282380972192, 1211.5092529665535, 47390.16859414204, 20687.612377120542, 37114.40111570372, 12222.716179217838, 35090.875338420316, 7540.897433864765, 39790.8437002711, 29005.143523829407, 41951.8550576991, 36870.700045907506, 31134.370700641957, 24759.98845815521, 0.070359375, 1.01921875, 0.140765625, 192.0, 1.0, 32.0, 15.5, 112.0, 2.0, 40.0, 0.0, 0.0, 0.0, 1.707474715426676E9, 0.0, 2024-02-09 11:31:55.426
106.0, -7018.224241521864, -13717.153813499668, 21820.242323904316, 1210.3693139993327, 47689.68196984315, 20776.438209585933, 37264.47072797665, 12343.482654509862, 35152.40969090578, 7585.0644809084515, 39795.31404916216, 29052.66333254139, 41868.52775436971, 36889.54256648333, 31141.612665845474, 24738.642542200392, 0.070359375, 1.01921875, 0.140765625, 192.0, 0.0, 0.0, 0.0, 0.0, 0.0, 0.0, 0.0, 0.0, 0.0, 1.7074747154350145E9, 0.0, 2024-02-09 11:31:55.435
108.0, -7136.21910050143, -13792.076860913858, 21744.49226194528, 1213.5432617119864, 47524.12259866269, 20711.99813032128, 37179.22117462411, 12278.95316826739, 35291.68341060679, 7596.173297902739, 40039.84213350322, 29076.84792004203, 42247.143953698156, 37002.66474517164, 31245.3247601181, 24862.806482649623, 0.070359375, 1.01921875, 0.140765625, 192.0, 0.0, 0.0, 0.0, 0.0, 0.0, 0.0, 0.0, 0.0, 0.0, 1.707474715442745E9, 0.0, 2024-02-09 11:31:55.442
110.0, -7086.30765513273, -13752.737790672516, 21782.199654841384, 1211.553956455464, 47490.01383662389, 20729.276028785232, 37171.576878020394, 12267.196150683898, 35013.203026438125, 7547.401791501259, 39647.144335167926, 28998.013317348163, 41734.484342871234, 36799.66620202854, 31073.81982491253, 24692.665003855825, 0.070359375, 1.01921875, 0.140765625, 192.0, 0.0, 0.0, 0.0, 0.0, 0.0, 0.0, 0.0, 0.0, 0.0, 1.7074747154497583E9, 0.0, 2024-02-09 11:31:55.449
112.0, -7046.275680813275, -13735.728113142028, 21791.07329739014, 1201.361560983844, 47699.04735076992, 20755.025238397746, 37271.04214084651, 12336.218337561886, 35331.96125411526, 7626.258745939583, 40032.91309272207, 29100.27254823119, 42186.41426401309, 37014.71233543305, 31238.55218154814, 24841.237049250252, 0.070359375, 1.01921875, 0.140765625, 192.0, 0.0, 0.0, 0.0, 0.0, 0.0, 0.0, 0.0, 0.0, 0.0, 1.7074747154577436E9, 0.0, 2024-02-09 11:31:55.457
114.0, -7155.642766433092, -13793.283855114443, 21733.8304798401, 1211.3527907553662, 47386.83818421819, 20690.361641688545, 37120.2125692621, 12219.855155927558, 35104.73341998261, 7555.403716016259, 39800.00791549777, 29013.033689622127, 41960.46047931439, 36866.0508830608, 31126.704052293786, 24755.2945918196, 0.0691796875, 1.016609375, 0.1403828125, 192.0, 1.0, 16.0, 15.5, 88.0, 2.0, 48.0, 0.0, 0.0, 0.0, 1.7074747154667509E9, 0.0, 2024-02-09 11:31:55.466
116.0, -7012.233974007842, -13710.71651109654, 21825.22676291785, 1204.848433118872, 47680.87538252776, 20769.755037993793, 37267.44350998921, 12328.529337469261, 35161.551554387996, 7591.635893778312, 39794.75525555077, 29063.99566698023, 41861.95634149985, 36877.22675528846, 31134.3483488975, 24732.09348107499, 0.0691796875, 1.016609375, 0.1403828125, 192.0, 0.0, 0.0, 0.0, 0.0, 0.0, 0.0, 0.0, 0.0, 0.0, 1.7074747154747715E9, 0.0, 2024-02-09 11:31:55.474
118.0, -7127.412513186039, -13774.910721172182, 21749.76727363673, 1208.5364709539977, 47522.80384573983, 20714.836801867106, 37175.846061211356, 12266.190322183409, 35302.74752411217, 7605.046940451496, 40044.93833123903, 29085.27452770168, 42247.211008931525, 37000.67543991512, 31238.23925712577, 24854.87161336799, 0.0691796875, 1.016609375, 0.1403828125, 192.0, 0.0, 0.0, 0.0, 0.0, 0.0, 0.0, 0.0, 0.0, 0.0, 1.70747471548183E9, 0.0, 2024-02-09 11:31:55.481
120.0, -7084.83243999868, -13755.062372095868, 21788.07816363313, 1211.7774739000172, 47492.427825025065, 20725.677397927928, 37167.57591576289, 12251.125246420534, 35027.12816323378, 7550.441628747181, 39658.744890540234, 29006.104648840985, 41722.950842732294, 36794.637059526096, 31067.24841204267, 24679.87980602739, 0.0691796875, 1.016609375, 0.1403828125, 192.0, 0.0, 0.0, 0.0, 0.0, 0.0, 0.0, 0.0, 0.0, 0.0, 1.7074747154898536E9, 0.0, 2024-02-09 11:31:55.489
122.0, -7040.598337721627, -13741.807787633872, 21800.952768439387, 1203.0602935624474, 47707.764531107496, 20756.120473876057, 37275.870117648854, 12342.432122520462, 35338.33150128502, 7625.185862205728, 40040.73620328143, 29102.641833143454, 42176.735958663936, 37001.12247480422, 31247.917562474915, 24838.979523060265, 0.0691796875, 1.016609375, 0.1403828125, 192.0, 0.0, 0.0, 0.0, 0.0, 0.0, 0.0, 0.0, 0.0, 0.0, 1.7074747154988508E9, 0.0, 2024-02-09 11:31:55.498
124.0, -7147.84200761819, -13789.43935506813, 21746.883898602, 1211.8221773889277, 47400.67391403603, 20695.77076384673, 37122.80537161892, 12220.436301283396, 35118.30092886698, 7555.7166404386335, 39815.52002614975, 29016.721727457254, 41971.4575375864, 36871.34824649671, 31144.27252343566, 24761.821301200547, 0.06658984375, 1.0153046875, 0.14219140625, 192.0, 1.0, 0.0, 15.5, 88.0, 2.0, 64.0, 0.0, 0.0, 0.0, 1.7074747155068245E9, 0.0, 2024-02-09 11:31:55.506
126.0, -7012.613953663583, -13716.237391977, 21827.193716429916, 1201.3392092393888, 47687.98323726455, 20780.88620673254, 37263.174326798246, 12342.409770776007, 35167.206545735186, 7594.899248468787, 39804.008877755274, 29050.51756507368, 41875.12151898402, 36888.179110071556, 31151.134508983436, 24738.910763133856, 0.06658984375, 1.0153046875, 0.14219140625, 192.0, 0.0, 0.0, 0.0, 0.0, 0.0, 0.0, 0.0, 0.0, 0.0, 1.7074747155138783E9, 0.0, 2024-02-09 11:31:55.513
128.0, -7124.417379429028, -13785.34898583281, 21750.16960503693, 1211.9339361112043, 47528.34707836474, 20715.932037345414, 37171.73334023158, 12275.131019965533, 35308.51427418164, 7602.901172983787, 40052.71673830947, 29070.74589380573, 42263.1254509837, 37006.732762662505, 31247.4258240969, 24859.72194191479, 0.06658984375, 1.0153046875, 0.14219140625, 192.0, 0.0, 0.0, 0.0, 0.0, 0.0, 0.0, 0.0, 0.0, 0.0, 1.7074747155219684E9, 0.0, 2024-02-09 11:31:55.521
130.0, -7082.6643207865145, -13752.983659861526, 21779.02570712873, 1211.5316047110086, 47484.26943829888, 20733.791081165207, 37159.5739912479, 12256.154388922978, 35030.3691661798, 7557.147152083773, 39662.90231500892, 28994.951128357785, 41742.039232497125, 36796.29108861579, 31074.669191201832, 24688.418172409318, 0.06658984375, 1.0153046875, 0.14219140625, 192.0, 0.0, 0.0, 0.0, 0.0, 0.0, 0.0, 0.0, 0.0, 0.0, 1.7074747155308864E9, 0.0, 2024-02-09 11:31:55.530
132.0, -7037.089113842144, -13733.448235207587, 21786.625300243533, 1203.8873081072936, 47701.68485661565, 20760.68022974494, 37256.80407962848, 12327.38939850204, 35344.32176879904, 7624.224737194149, 40036.42231660156, 29097.031545285172, 42193.27624956086, 37006.79981789587, 31239.04391992616, 24838.688950382348, 0.06658984375, 1.0153046875, 0.14219140625, 192.0, 0.0, 0.0, 0.0, 0.0, 0.0, 0.0, 0.0, 0.0, 0.0, 1.707474715537869E9, 0.0, 2024-02-09 11:31:55.537
134.0, -7150.501865208372, -13793.842648725826, 21723.369863435015, 1203.4849767070982, 47391.487347064896, 20681.443295650875, 37094.888042794235, 12200.856173140548, 35122.681870780216, 7558.287091050994, 39810.31206969167, 29016.900541412895, 41982.454595858406, 36875.997409343414, 31129.475668606243, 24756.121606364442, 0.067294921875, 1.01465234375, 0.14309570312500003, 192.0, 1.0, 16.0, 15.5, 88.0, 2.0, 64.0, 0.0, 0.0, 0.0, 1.7074747155458882E9, 0.0, 2024-02-09 11:31:55.545
136.0, -7003.896773326012, -13713.108147753257, 21808.328844109637, 1195.259534747545, 47673.0522719684, 20763.518901290765, 37230.22785547112, 12310.782052371747, 35156.43300490773, 7589.490126310602, 39791.223679926836, 29051.523393574167, 41866.337283413086, 36882.434711746544, 31121.764316769164, 24722.929265848314, 0.067294921875, 1.01465234375, 0.14309570312500003, 192.0, 0.0, 0.0, 0.0, 0.0, 0.0, 0.0, 0.0, 0.0, 0.0, 1.7074747155548806E9, 0.0, 2024-02-09 11:31:55.554
138.0, -7122.539832894783, -13777.615282251274, 21737.07148278612, 1202.3673894843328, 47524.45787482952, 20712.847496610582, 37164.804299450436, 12270.437153629919, 35306.41321020284, 7610.903097498786, 40049.36397664118, 29075.37270490798, 42255.48115437999, 37002.46357947154, 31226.90692268693, 24846.310895241608, 0.067294921875, 1.01465234375, 0.14309570312500003, 192.0, 0.0, 0.0, 0.0, 0.0, 0.0, 0.0, 0.0, 0.0, 0.0, 1.70747471556193E9, 0.0, 2024-02-09 11:31:55.561
140.0, -7079.6691870295035, -13743.730037657027, 21782.35611705257, 1209.3187820099333, 47487.48808950044, 20740.76482543526, 37165.83247969538, 12277.902636277991, 35022.09902073134, 7549.838131646888, 39659.84012601854, 28997.588634203512, 41730.77395329165, 36803.33188811921, 31065.77319690862, 24681.44442813926, 0.067294921875, 1.01465234375, 0.14309570312500003, 192.0, 0.0, 0.0, 0.0, 0.0, 0.0, 0.0, 0.0, 0.0, 0.0, 1.7074747155699308E9, 0.0, 2024-02-09 11:31:55.569
142.0, -7033.289317284742, -13736.689238153605, 21806.428945830936, 1208.4023604872657, 47712.14547302073, 20783.367250367075, 37273.858460647876, 12373.031660679777, 35332.85532389347, 7628.292754685016, 40040.15505792559, 29106.888664589962, 42177.96530460898, 37009.97376560853, 31245.74944326275, 24841.862898095, 0.067294921875, 1.01465234375, 0.14309570312500003, 192.0, 0.0, 0.0, 0.0, 0.0, 0.0, 0.0, 0.0, 0.0, 0.0, 1.7074747155779693E9, 0.0, 2024-02-09 11:31:55.577
144.0, -7146.724420395425, -13797.106003416302, 21737.11618627503, 1211.397494244277, 47392.38141684311, 20698.341214459087, 37118.938519828145, 12230.673400243926, 35124.358251614365, 7566.2219603326275, 39818.73867735132, 29023.8519339385, 41976.240810899835, 36874.58924944273, 31147.088843237027, 24765.643449502404, 0.067294921875, 1.01465234375, 0.14309570312500003, 192.0, 0.0, 0.0, 0.0, 0.0, 0.0, 0.0, 0.0, 0.0, 0.0, 1.7074747155869248E9, 0.0, 2024-02-09 11:31:55.586
146.0, -7007.942439072423, -13715.276266965422, 21819.12473668155, 1207.7988633869725, 47679.91425751618, 20793.045555716224, 37267.46586173366, 12343.415599276495, 35156.097728740904, 7604.622257306845, 39792.49772936079, 29057.647771554923, 41856.703681552855, 36881.92062162407, 31140.83035478954, 24725.61147518295, 0.074, 1.022, 0.14400000000000002, 192.0, 1.0, 40.0, 15.5, 120.0, 2.0, 64.0, 0.0, 0.0, 0.0, 1.7074747155939565E9, 0.0, 2024-02-09 11:31:55.593
148.0, -7118.181242725997, -13785.974834677558, 21741.273610743716, 1215.7337326686065, 47526.38012485267, 20731.66766544195, 37188.139520661774, 12285.010491014778, 35305.47443693572, 7612.60183007739, 40056.807107544795, 29091.555367893623, 42254.94471251306, 37018.35566977927, 31250.175088664902, 24860.97363960429, 0.074, 1.022, 0.14400000000000002, 192.0, 0.0, 0.0, 0.0, 0.0, 0.0, 0.0, 0.0, 0.0, 0.0, 1.7074747156019835E9, 0.0, 2024-02-09 11:31:55.601
150.0, -7079.870352729601, -13758.683354697629, 21771.336707036106, 1218.8629768923495, 47479.24029579643, 20740.96599113536, 37174.61671526632, 12257.204920912376, 35023.84245679885, 7563.629157975813, 39668.49025112275, 29017.951073402295, 41737.18890395032, 36810.57385332273, 31076.747903436175, 24689.424000909807, 0.074, 1.022, 0.14400000000000002, 192.0, 0.0, 0.0, 0.0, 0.0, 0.0, 0.0, 0.0, 0.0, 0.0, 1.7074747156109576E9, 0.0, 2024-02-09 11:31:55.610
152.0, -7034.831587652157, -13744.378238246232, 21785.261843831762, 1213.006819845059, 47696.566307135385, 20785.892997490526, 37276.0489316045, 12340.956907386411, 35321.85826562146, 7639.580385634946, 40038.836305002726, 29113.504780948733, 42175.03722608533, 37022.2895768034, 31237.032262925182, 24837.68312188186, 0.074, 1.022, 0.14400000000000002, 192.0, 0.0, 0.0, 0.0, 0.0, 0.0, 0.0, 0.0, 0.0, 0.0, 1.7074747156179569E9, 0.0, 2024-02-09 11:31:55.617
154.0, -7151.3959349865845, -13805.554962820408, 21722.72166284581, 1217.4101135027545, 47383.0830911497, 20700.95636856036, 37125.264063509, 12213.619019224529, 35110.14254214079, 7567.272492322028, 39817.97871803984, 29031.89856194241, 41975.83847949964, 36894.01291537439, 31142.283218179135, 24772.036048416623, 0.074, 1.022, 0.14400000000000002, 192.0, 0.0, 0.0, 0.0, 0.0, 0.0, 0.0, 0.0, 0.0, 0.0, 1.7074747156262553E9, 0.0, 2024-02-09 11:31:55.626
156.0, -7011.764587374281, -13733.425883463131, 21809.871114477053, 1210.8163488884388, 47667.86666725477, 20779.522750320764, 37262.749643653595, 12312.659598905993, 35147.782879803526, 7609.65139980929, 39783.44527285639, 29070.65648682791, 41853.73089954029, 36884.312258280785, 31134.39305238641, 24733.90397237587, 0.074, 1.018, 0.15, 192.0, 1.0, 40.0, 15.5, 104.0, 2.0, 88.0, 0.0, 0.0, 0.0, 1.7074747156339653E9, 0.0, 2024-02-09 11:31:55.633
158.0, -7116.527213636305, -13794.379090592754, 21743.531136933703, 1220.8299304044165, 47523.07206667329, 20721.72113915934, 37189.41357009573, 12276.740345566315, 35296.10905600894, 7626.214042450672, 40053.96843599897, 29106.262815745216, 42256.66579683612, 37006.576300451314, 31250.912696231928, 24869.266136797207, 0.074, 1.018, 0.15, 192.0, 0.0, 0.0, 0.0, 0.0, 0.0, 0.0, 0.0, 0.0, 0.0, 1.7074747156429996E9, 0.0, 2024-02-09 11:31:55.642
160.0, -7080.652663785537, -13760.940880887614, 21780.389163540505, 1216.8513198913718, 47468.62321718016, 20732.96406662036, 37153.02493012249, 12237.669496258439, 35008.35269789132, 7566.758402199555, 39663.72932955377, 29028.5010967852, 41734.03730798213, 36806.371725365134, 31079.608926726454, 24697.06829751352, 0.074, 1.018, 0.15, 192.0, 0.0, 0.0, 0.0, 0.0, 0.0, 0.0, 0.0, 0.0, 0.0, 1.7074747156499822E9, 0.0, 2024-02-09 11:31:55.649
162.0, -7030.785921905747, -13742.120712056247, 21803.07618416264, 1215.0408285904919, 47714.42535095517, 20785.177741667958, 37297.66306849278, 12357.877177939079, 35319.4889807092, 7642.352001947404, 40043.7536887829, 29125.44061248787, 42178.81467089828, 37014.13119007721, 31253.527850333197, 24848.97075283179, 0.074, 1.018, 0.15, 192.0, 0.0, 0.0, 0.0, 0.0, 0.0, 0.0, 0.0, 0.0, 0.0, 1.707474715658156E9, 0.0, 2024-02-09 11:31:55.658
164.0, -7143.326955238218, -13806.225515154067, 21743.553488678157, 1227.7366194411063, 47393.40959708805, 20716.379072234522, 37151.996749877544, 12262.770505281747, 35122.30189112448, 7582.315216340449, 39831.65798564649, 29050.51756507368, 41989.60715408411, 36892.090665351236, 31165.909012068394, 24789.738630025226, 0.074, 1.018, 0.15, 192.0, 0.0, 0.0, 0.0, 0.0, 0.0, 0.0, 0.0, 0.0, 0.0, 1.7074747156670125E9, 0.0, 2024-02-09 11:31:55.667
166.0, -7009.551764673205, -13730.542508428396, 21817.515411080767, 1218.3041832809668, 47671.51000160098, 20804.042613988237, 37290.86813817837, 12366.192026876453, 35145.86062978037, 7603.102338683884, 39790.4413688709, 29077.205547953316, 41859.47529786531, 36891.665982206585, 31158.488232909232, 24758.692056976804, 0.082, 1.014, 0.156, 192.0, 1.0, 72.0, 15.5, 88.0, 2.0, 112.0, 0.0, 0.0, 0.0, 1.7074747156742575E9, 0.0, 2024-02-09 11:31:55.674
168.0, -7112.392140912073, -13789.148782390212, 21746.280401501706, 1229.4800555086204, 47524.14495040714, 20737.456767255877, 37207.294965659974, 12297.728633609848, 35302.50165492316, 7630.147949474806, 40059.77988955735, 29110.844923358552, 42266.32175044081, 37030.53737050741, 31265.307219661147, 24889.852093440546, 0.082, 1.014, 0.156, 192.0, 0.0, 0.0, 0.0, 0.0, 0.0, 0.0, 0.0, 0.0, 0.0, 1.70747471568307E9, 0.0, 2024-02-09 11:31:55.683
170.0, -7080.339739363163, -13761.745543688005, 21778.422210028435, 1233.972756144137, 47458.58728391973, 20738.887278901017, 37181.433997325184, 12255.886167989513, 35015.862884028305, 7585.511515797558, 39669.3619691565, 29039.162878890384, 41739.111153973485, 36811.9373097345, 31084.39220003989, 24710.255826742152, 0.082, 1.014, 0.156, 192.0, 0.0, 0.0, 0.0, 0.0, 0.0, 0.0, 0.0, 0.0, 0.0, 1.7074747156901011E9, 0.0, 2024-02-09 11:31:55.690
172.0, -7027.880195126557, -13734.945802086093, 21799.589312027612, 1234.9115294112598, 47686.61978085277, 20783.54606432272, 37300.56879527197, 12355.820817449192, 35315.7338876407, 7659.56284517799, 40041.272645148354, 29140.86331616203, 42173.69612141802, 37024.92708264913, 31245.548277562655, 24854.983372090268, 0.082, 1.014, 0.156, 192.0, 0.0, 0.0, 0.0, 0.0, 0.0, 0.0, 0.0, 0.0, 0.0, 1.7074747156990883E9, 0.0, 2024-02-09 11:31:55.699
174.0, -7139.281289491808, -13789.171134134667, 21741.318314232627, 1248.7472592290949, 47376.51167827984, 20714.769746633738, 37145.9170753857, 12234.450845056874, 35119.79849574548, 7603.012931706064, 39840.017538072774, 29070.768245550185, 41991.86468027409, 36908.74271497044, 31158.957619542794, 24792.95728122679, 0.082, 1.014, 0.156, 192.0, 0.0, 0.0, 0.0, 0.0, 0.0, 0.0, 0.0, 0.0, 0.0, 1.7074747157061605E9, 0.0, 2024-02-09 11:31:55.706
176.0, -7002.980351803345, -13718.159642000157, 21821.292855893716, 1232.6316514768187, 47662.166972418665, 20787.122343435567, 37286.71071370968, 12339.526395741272, 35142.79844078999, 7632.204309964694, 39797.14689220749, 29100.607824398023, 41853.10505069555, 36902.6630404786, 31148.809927560083, 24753.729969707725, 0.08, 1.016, 0.152, 192.0, 1.0, 64.0, 15.5, 96.0, 2.0, 96.0, 0.0, 0.0, 0.0, 1.7074747157141955E9, 0.0, 2024-02-09 11:31:55.714
178.0, -7115.722550835914, -13785.1031166438, 21744.469910200824, 1229.3459450418884, 47527.14008416416, 20719.91064785846, 37204.992735981075, 12277.209732199875, 35299.953556055254, 7635.825292566454, 40063.512630881385, 29118.355109495536, 42268.57927663079, 37018.24391105699, 31255.60656256754, 24877.60333747904, 0.08, 1.016, 0.152, 192.0, 0.0, 0.0, 0.0, 0.0, 0.0, 0.0, 0.0, 0.0, 0.0, 1.707474715722186E9, 0.0, 2024-02-09 11:31:55.722
180.0, -7075.869390472101, -13754.257709295478, 21779.897425162486, 1230.1729595867348, 47468.01972007987, 20735.758034677274, 37184.719703760114, 12258.300156390687, 35016.488732873055, 7578.7389372276, 39669.00434124522, 29044.773166748666, 41745.57080812107, 36806.371725365134, 31083.20755758376, 24706.54543716257, 0.08, 1.016, 0.152, 192.0, 0.0, 0.0, 0.0, 0.0, 0.0, 0.0, 0.0, 0.0, 0.0, 1.7074747157292345E9, 0.0, 2024-02-09 11:31:55.729
182.0, -7023.409846235496, -13732.151834029179, 21807.702995264888, 1226.4625700071538, 47707.38455145175, 20788.664613802983, 37302.40163831731, 12369.20951237792, 35319.4889807092, 7669.084688315951, 40045.16184868358, 29150.072234877618, 42185.140214579136, 37028.21278908406, 31254.75719627824, 24862.381799504972, 0.08, 1.016, 0.152, 192.0, 0.0, 0.0, 0.0, 0.0, 0.0, 0.0, 0.0, 0.0, 0.0, 1.7074747157381995E9, 0.0, 2024-02-09 11:31:55.738
184.0, -7144.846873861179, -13793.485020814542, 21736.311523474636, 1229.10007585288, 47389.14041389709, 20712.691034399395, 37146.56527597491, 12242.944507949891, 35117.83154223341, 7601.023626449541, 39841.69391890692, 29060.46409135629, 42003.778160068774, 36882.9040983801, 31162.623305633464, 24795.974766728257, 0.08, 1.016, 0.152, 192.0, 0.0, 0.0, 0.0, 0.0, 0.0, 0.0, 0.0, 0.0, 0.0, 1.7074747157461808E9, 0.0, 2024-02-09 11:31:55.746
186.0, -7017.754854888303, -13724.976924059025, 21809.17821039894, 1215.8231396464278, 47665.743251531516, 20785.311852134688, 37283.40265553029, 12356.133741871565, 35140.45150762219, 7617.6980278132, 39786.66392405795, 29079.57483286558, 41851.49572509476, 36885.943935626026, 31145.88184903644, 24745.728045192725, 0.074, 1.012, 0.156, 192.0, 1.0, 40.0, 15.5, 80.0, 2.0, 112.0, 0.0, 0.0, 0.0, 1.7074747157542489E9, 0.0, 2024-02-09 11:31:55.754
188.0, -7127.233699230397, -13790.95927369109, 21731.55060190566, 1222.9309943832154, 47526.625994041686, 20739.088444601115, 37215.07337273042, 12302.780127856748, 35303.99922180167, 7628.8515482963985, 40047.1511539401, 29111.42606871439, 42266.18763997408, 37031.38673679671, 31255.539507334175, 24878.519759001705, 0.074, 1.012, 0.156, 192.0, 0.0, 0.0, 0.0, 0.0, 0.0, 0.0, 0.0, 0.0, 0.0, 1.707474715762297E9, 0.0, 2024-02-09 11:31:55.762
190.0, -7090.129803434587, -13757.185787819122, 21763.290079032195, 1226.0155351180476, 47463.03528106633, 20741.703598702385, 37194.152139920254, 12268.783124540225, 35013.02421248248, 7581.734070984611, 39643.791573499635, 29030.758622975187, 41742.21804645277, 36813.09960044618, 31078.312525548045, 24704.31026271704, 0.074, 1.012, 0.156, 192.0, 0.0, 0.0, 0.0, 0.0, 0.0, 0.0, 0.0, 0.0, 0.0, 1.7074747157702165E9, 0.0, 2024-02-09 11:31:55.770
192.0, -7040.799503421725, -13742.031305078424, 21782.110247863562, 1216.4042850022656, 47700.410807181695, 20767.408104825987, 37309.308327353996, 12363.822741964192, 35313.677527150816, 7667.6094731819, 40014.11527563516, 29131.4755834908, 42176.06540633028, 37030.13503910721, 31249.616295053518, 24853.463453467306, 0.074, 1.012, 0.156, 192.0, 0.0, 0.0, 0.0, 0.0, 0.0, 0.0, 0.0, 0.0, 0.0, 1.7074747157782276E9, 0.0, 2024-02-09 11:31:55.778
194.0, -7154.078144321221, -13801.375186607265, 21723.571029135113, 1233.7492386995839, 47386.793480729284, 20689.55697888815, 37151.97439813309, 12232.75211247827, 35098.765504213035, 7593.111108912362, 39815.6988401054, 29048.975294706263, 41995.68682857595, 36900.02553463287, 31159.762282343185, 24786.229406145743, 0.074, 1.012, 0.156, 192.0, 0.0, 0.0, 0.0, 0.0, 0.0, 0.0, 0.0, 0.0, 0.0, 1.7074747157852802E9, 0.0, 2024-02-09 11:31:55.785
196.0, -7016.123177543066, -13722.875860080227, 21805.400765585993, 1223.4674362501428, 47662.07756544084, 20769.196244382412, 37274.28314379253, 12323.544898455728, 35131.46610635115, 7629.298583185504, 39768.96134244935, 29082.43585615586, 41846.95832097034, 36884.71458968098, 31142.931418768338, 24736.832050899513, 0.074, 1.014, 0.154, 192.0, 1.0, 40.0, 15.5, 88.0, 2.0, 104.0, 0.0, 0.0, 0.0, 1.7074747157945237E9, 0.0, 2024-02-09 11:31:55.794
198.0, -7116.147233980565, -13784.834895710337, 21729.896572815964, 1220.4275990042208, 47521.39568583914, 20709.181810519913, 37188.74301776207, 12262.926967492935, 35298.09836126547, 7635.869996055365, 40044.424241116554, 29114.309443749124, 42258.185715459076, 37018.60153896827, 31248.766928764217, 24860.12427331499, 0.074, 1.014, 0.154, 192.0, 0.0, 0.0, 0.0, 0.0, 0.0, 0.0, 0.0, 0.0, 0.0, 1.7074747158022685E9, 0.0, 2024-02-09 11:31:55.802
200.0, -7083.178410908987, -13754.950613373592, 21772.320183792137, 1224.6967821951846, 47454.13928677313, 20724.2915897717, 37162.50206977154, 12240.865795715546, 35026.144686477746, 7581.421146562237, 39653.5592858266, 29034.156088132393, 41741.9498255193, 36794.480597314905, 31070.690580688788, 24687.21117820873, 0.074, 1.014, 0.154, 192.0, 0.0, 0.0, 0.0, 0.0, 0.0, 0.0, 0.0, 0.0, 0.0, 1.7074747158103063E9, 0.0, 2024-02-09 11:31:55.810
202.0, -7026.941421859435, -13736.108092797767, 21802.159762639974, 1219.6452879482852, 47697.99681878052, 20762.401314068, 37281.88273690733, 12347.483616767362, 35323.109963310955, 7660.479266700658, 40028.152171153095, 29137.10822309354, 42173.27143827337, 37018.46742850154, 31236.361710591522, 24836.319665470084, 0.074, 1.014, 0.154, 192.0, 0.0, 0.0, 0.0, 0.0, 0.0, 0.0, 0.0, 0.0, 0.0, 1.7074747158173041E9, 0.0, 2024-02-09 11:31:55.817
204.0, -7150.703030908469, -13799.855267984303, 21735.77508160771, 1227.133122340813, 47381.697282993475, 20697.737717358796, 37145.358281774315, 12246.029048684723, 35124.13473416981, 7586.718509998144, 39834.72017463687, 29052.953905219307, 42005.74511358084, 36886.413322259585, 31155.96248578578, 24786.29646137911, 0.074, 1.014, 0.154, 192.0, 0.0, 0.0, 0.0, 0.0, 0.0, 0.0, 0.0, 0.0, 0.0, 1.7074747158263135E9, 0.0, 2024-02-09 11:31:55.826
206.0, -7011.317552485175, -13714.00221753147, 21819.594123315113, 1223.8027124169723, 47657.964844461065, 20784.753058523307, 37282.1509578408, 12345.136683599554, 35134.550647085984, 7618.0556557244845, 39774.45987158536, 29069.337733905046, 41855.45198386336, 36867.16847028357, 31138.572828599554, 24740.94477187929, 0.08, 1.014, 0.156, 192.0, 1.0, 64.0, 15.5, 88.0, 2.0, 112.0, 0.0, 0.0, 0.0, 1.7074747158343663E9, 0.0, 2024-02-09 11:31:55.834
208.0, -7116.750731080858, -13777.212950851077, 21744.62637241201, 1222.618069960841, 47526.87186323069, 20732.874659642537, 37209.70895406115, 12295.828735331146, 35305.16151251335, 7630.371466919359, 40060.31633142428, 29111.00138556974, 42274.122509255714, 37027.54223675039, 31256.254763156747, 24876.642212467457, 0.08, 1.014, 0.156, 192.0, 0.0, 0.0, 0.0, 0.0, 0.0, 0.0, 0.0, 0.0, 0.0, 1.707474715841364E9, 0.0, 2024-02-09 11:31:55.841
210.0, -7079.803297496235, -13751.955479616581, 21777.841064672597, 1225.8143694179498, 47460.263664753875, 20738.574354478642, 37183.15508164824, 12263.32929889313, 35021.83079979787, 7566.9819196441085, 39659.19192542934, 29032.45735555379, 41742.64272959742, 36809.41156261105, 31078.468987759232, 24701.40453593785, 0.08, 1.014, 0.156, 192.0, 0.0, 0.0, 0.0, 0.0, 0.0, 0.0, 0.0, 0.0, 0.0, 1.7074747158503609E9, 0.0, 2024-02-09 11:31:55.850
212.0, -7022.761645646292, -13728.2402787495, 21795.387184070016, 1219.4664739926427, 47705.39524619523, 20778.561625309187, 37298.33362082644, 12353.317422070197, 35326.261559279155, 7648.6551938838, 40027.45926707498, 29136.817650415618, 42163.25785675739, 37020.1885128246, 31241.144983904956, 24848.702531898325, 0.08, 1.014, 0.156, 192.0, 0.0, 0.0, 0.0, 0.0, 0.0, 0.0, 0.0, 0.0, 0.0, 1.7074747158583703E9, 0.0, 2024-02-09 11:31:55.858
214.0, -7151.060658819754, -13792.434488825142, 21726.78968033668, 1233.0116311325587, 47386.63701851809, 20696.709537113853, 37138.42924099317, 12213.708426202349, 35124.917045225746, 7593.714606012655, 39835.77070662627, 29060.866422756484, 41997.18439545446, 36907.178092858565, 31145.412462402877, 24789.939795725324, 0.08, 1.014, 0.156, 192.0, 0.0, 0.0, 0.0, 0.0, 0.0, 0.0, 0.0, 0.0, 0.0, 1.7074747158653822E9, 0.0, 2024-02-09 11:31:55.865
216.0, -7018.313648499686, -13720.66303737915, 21815.32494012415, 1230.8435119203941, 47662.83752475232, 20784.082506189647, 37280.2510595621, 12331.569174715183, 35129.745022028095, 7616.98277199063, 39766.30148485917, 29077.809045053607, 41834.41899233091, 36890.66015370609, 31123.708918536773, 24742.777614924624, 0.08, 1.014, 0.156, 192.0, 1.0, 64.0, 15.5, 88.0, 2.0, 112.0, 0.0, 0.0, 0.0, 1.7074747158733995E9, 0.0, 2024-02-09 11:31:55.873
218.0, -7111.3639606671295, -13773.346099060309, 21754.796416139176, 1244.1204481268464, 47542.96511923851, 20737.792043422705, 37217.91204427624, 12305.395281958019, 35307.15081776986, 7639.446275168214, 40060.83042154675, 29117.103411806038, 42258.40923290363, 37033.577207753326, 31257.618219568518, 24891.237901596774, 0.08, 1.014, 0.156, 192.0, 0.0, 0.0, 0.0, 0.0, 0.0, 0.0, 0.0, 0.0, 0.0, 1.7074747158824203E9, 0.0, 2024-02-09 11:31:55.882
220.0, -7073.656567771026, -13741.316049255855, 21786.02180314324, 1238.8230846909387, 47466.38804273463, 20737.00973236677, 37180.29405835796, 12265.13979019401, 35020.10971547481, 7586.115012897852, 39663.84108827604, 29040.12400390196, 41739.178209206846, 36821.16858019454, 31087.610851241454, 24716.447259956272, 0.08, 1.014, 0.156, 192.0, 0.0, 0.0, 0.0, 0.0, 0.0, 0.0, 0.0, 0.0, 0.0, 1.7074747158904097E9, 0.0, 2024-02-09 11:31:55.890
222.0, -7021.018209578778, -13716.14798499918, 21812.55332381169, 1226.395514773788, 47708.27862122996, 20778.248700886812, 37288.76707419957, 12351.238709835854, 35314.862169606946, 7668.727060404666, 40036.668185790564, 29143.4784702633, 42160.62035091166, 37029.106858862266, 31241.860239727528, 24850.937706343855, 0.08, 1.014, 0.156, 192.0, 0.0, 0.0, 0.0, 0.0, 0.0, 0.0, 0.0, 0.0, 0.0, 1.707474715897405E9, 0.0, 2024-02-09 11:31:55.897
224.0, -7133.9839260559, -13772.809657193382, 21754.751712650268, 1242.265253337056, 47386.41350107354, 20704.82322035113, 37129.220322277586, 12241.692810260392, 35128.18039991622, 7607.148004430295, 39857.27308479227, 29069.114216460493, 42005.678058347476, 36907.1110376252, 31152.006227017195, 24789.448057347305, 0.08, 1.014, 0.156, 192.0, 0.0, 0.0, 0.0, 0.0, 0.0, 0.0, 0.0, 0.0, 0.0, 1.7074747159067345E9, 0.0, 2024-02-09 11:31:55.906
226.0, -6993.346749943108, -13693.304502165855, 21843.93517302694, 1241.170017858746, 47666.25734165399, 20787.68113704695, 37265.968294855156, 12353.607994748116, 35147.73817631462, 7639.759199590588, 39799.180900952924, 29102.23950174326, 41848.50059133775, 36897.745656698426, 31136.87409602095, 24747.382074282417, 0.074, 1.02, 0.158, 192.0, 1.0, 40.0, 15.5, 112.0, 2.0, 120.0, 0.0, 0.0, 0.0, 1.7074747159144592E9, 0.0, 2024-02-09 11:31:55.914
228.0, -7097.1035477046435, -13756.87286339675, 21774.577709982124, 1244.612186504863, 47543.74743029445, 20736.4956422443, 37199.56126207844, 12289.547895139205, 35326.12744881242, 7654.712516631189, 40089.19478526054, 29130.76032766823, 42285.61130590574, 37041.02033865695, 31265.5307371057, 24887.30399457264, 0.074, 1.02, 0.158, 192.0, 0.0, 0.0, 0.0, 0.0, 0.0, 0.0, 0.0, 0.0, 0.0, 1.7074747159214776E9, 0.0, 2024-02-09 11:31:55.921
230.0, -7077.277550372786, -13740.176110288634, 21796.70593699288, 1238.6219189908409, 47462.63294966614, 20740.273087057245, 37166.36892156231, 12252.891034232502, 35035.66652961571, 7595.5698008024465, 39684.605858875024, 29047.611838294488, 41758.333654205046, 36822.040298228305, 31085.576842496022, 24704.1314487614, 0.074, 1.02, 0.158, 192.0, 0.0, 0.0, 0.0, 0.0, 0.0, 0.0, 0.0, 0.0, 0.0, 1.7074747159295185E9, 0.0, 2024-02-09 11:31:55.929
232.0, -7013.128043786054, -13712.191726230589, 21818.677701792443, 1234.8221224334386, 47723.00842082601, 20789.93866323694, 37291.06930387847, 12354.479712781873, 35332.00595760417, 7672.146877306328, 40040.98207247044, 29144.886630163986, 42169.96338009398, 37024.52475124893, 31245.704739773842, 24847.29437199764, 0.074, 1.02, 0.158, 192.0, 0.0, 0.0, 0.0, 0.0, 0.0, 0.0, 0.0, 0.0, 0.0, 1.707474715938488E9, 0.0, 2024-02-09 11:31:55.938
234.0, -7135.41443770104, -13777.682337484639, 21753.701180660868, 1245.618015005352, 47397.768187256836, 20708.310092486157, 37139.52447647148, 12236.931888691413, 35148.85576353738, 7600.97892296063, 39861.050529605214, 29066.342600148037, 42020.631375388075, 36920.052697664825, 31168.211241747293, 24796.913539995378, 0.074, 1.02, 0.158, 192.0, 0.0, 0.0, 0.0, 0.0, 0.0, 0.0, 0.0, 0.0, 0.0, 1.7074747159465342E9, 0.0, 2024-02-09 11:31:55.946
236.0, -7000.3651977020745, -13698.512458623942, 21841.8564607926, 1248.7025557401844, 47680.09307147182, 20797.06886971818, 37272.78557691402, 12335.525433483772, 35145.97238850265, 7633.590118120924, 39794.91171776196, 29095.265757473204, 41840.34220461157, 36899.46674102148, 31145.97125601426, 24740.207164312265, 0.07200000000000001, 1.014, 0.156, 192.0, 1.0, 32.0, 15.5, 88.0, 2.0, 112.0, 0.0, 0.0, 0.0, 1.707474715953546E9, 0.0, 2024-02-09 11:31:55.953
238.0, -7104.814899541724, -13763.734848944528, 21769.54856747968, 1260.1466489013017, 47573.96698879803, 20756.500453531797, 37237.849800330376, 12304.948247068913, 35313.05167830607, 7659.540493433535, 40087.58545965976, 29133.464888747323, 42278.235230235485, 37040.148620623186, 31276.326629677613, 24895.88706444348, 0.07200000000000001, 1.014, 0.156, 192.0, 0.0, 0.0, 0.0, 0.0, 0.0, 0.0, 0.0, 0.0, 0.0, 1.7074747159615407E9, 0.0, 2024-02-09 11:31:55.961
240.0, -7078.886875973568, -13738.1421015432, 21792.772029968743, 1258.8502477228938, 47488.56097323429, 20762.78129372374, 37202.73520979109, 12277.008566499779, 35016.10875321731, 7591.591190289401, 39680.761358828706, 29046.136623160437, 41752.74571809122, 36819.156923193565, 31103.480589804723, 24727.71253916175, 0.07200000000000001, 1.014, 0.156, 192.0, 0.0, 0.0, 0.0, 0.0, 0.0, 0.0, 0.0, 0.0, 0.0, 1.7074747159707289E9, 0.0, 2024-02-09 11:31:55.970
242.0, -7011.876346096557, -13704.56978137133, 21822.74571928331, 1248.0767068954358, 47735.21247329861, 20796.197151684424, 37317.17614140226, 12359.419448306495, 35320.7853818876, 7670.291682516538, 40041.138534681624, 29146.697121464866, 42163.14609803511, 37030.51501876295, 31258.445234113366, 24863.566441961106, 0.07200000000000001, 1.014, 0.156, 192.0, 0.0, 0.0, 0.0, 0.0, 0.0, 0.0, 0.0, 0.0, 0.0, 1.7074747159775364E9, 0.0, 2024-02-09 11:31:55.977
244.0, -7128.574803897715, -13765.880616412238, 21761.993677853785, 1254.3798988318324, 47423.0927137247, 20726.280895028223, 37177.12011064531, 12255.729705778325, 35146.62058909185, 7621.766045304066, 39867.80075643072, 29077.809045053607, 42029.147390025544, 36921.70672675451, 31176.146111028924, 24808.804668045603, 0.07200000000000001, 1.014, 0.156, 192.0, 0.0, 0.0, 0.0, 0.0, 0.0, 0.0, 0.0, 0.0, 0.0, 1.707474715985599E9, 0.0, 2024-02-09 11:31:55.985
246.0, -6991.469203408862, -13692.52219110992, 21848.6066876181, 1247.4732097951426, 47681.56828660587, 20803.21559944339, 37311.16352214379, 12349.450570279429, 35161.417443921266, 7648.498731672613, 39795.761084051264, 29104.85465584453, 41853.35091988456, 36900.763142199896, 31152.386206672934, 24758.155615109878, 0.07200000000000001, 1.0150000000000001, 0.158, 192.0, 1.0, 32.0, 15.5, 96.0, 2.5, 0.0, 0.0, 0.0, 0.0, 1.7074747159945455E9, 0.0, 2024-02-09 11:31:55.994
248.0, -7093.3484546361515, -13756.381125018732, 21778.198692583883, 1253.8211052204497, 47569.675453862605, 20750.353723806587, 37240.19673349819, 12309.664465148982, 35323.735812155704, 7665.106077802906, 40086.378465459165, 29135.90122889295, 42281.63269539269, 37045.37892882573, 31276.036056999692, 24900.15624763444, 0.07200000000000001, 1.0150000000000001, 0.158, 192.0, 0.0, 0.0, 0.0, 0.0, 0.0, 0.0, 0.0, 0.0, 0.0, 1.7074747160026183E9, 0.0, 2024-02-09 11:31:56.002
250.0, -7069.834419469169, -13735.459892208564, 21802.74090799581, 1249.0601836514693, 47483.196554565024, 20762.714238490375, 37205.32801214791, 12287.513886393774, 35031.95614003613, 7609.182013175728, 39684.047065263636, 29048.88588772844, 41751.4046134239, 36834.42316465654, 31093.936394922304, 24726.013806583145, 0.07200000000000001, 1.0150000000000001, 0.158, 192.0, 0.0, 0.0, 0.0, 0.0, 0.0, 0.0, 0.0, 0.0, 0.0, 1.7074747160096517E9, 0.0, 2024-02-09 11:31:56.009
252.0, -7008.680046639449, -13706.313217438845, 21828.199544930405, 1237.392573045799, 47731.34562150784, 20805.3613669111, 37327.43559210725, 12387.31442538672, 35341.773669931135, 7682.875714644875, 40044.33483413873, 29141.5785719846, 42159.90509508909, 37026.156428594164, 31254.645437555962, 24874.54114848866, 0.07200000000000001, 1.0150000000000001, 0.158, 192.0, 0.0, 0.0, 0.0, 0.0, 0.0, 0.0, 0.0, 0.0, 0.0, 1.707474716017636E9, 0.0, 2024-02-09 11:31:56.017
254.0, -7139.750676125369, -13776.318881072866, 21751.600116682068, 1236.1185236118465, 47403.512585581855, 20708.064223297148, 37158.16583134721, 12238.317696847642, 35164.23376372263, 7611.8865742548205, 39863.53157323976, 29061.02288496767, 42019.49143642085, 36905.300546324324, 31162.77976784465, 24805.18368544384, 0.07200000000000001, 1.0150000000000001, 0.158, 192.0, 0.0, 0.0, 0.0, 0.0, 0.0, 0.0, 0.0, 0.0, 0.0, 1.7074747160276363E9, 0.0, 2024-02-09 11:31:56.027
0.0, -7007.070721038666, -13706.961418028048, 21835.530917111748, 1244.165151615757, 47667.66550155467, 20800.846314531125, 37285.70488520919, 12345.516663255295, 35151.560324616476, 7629.164472718772, 39777.63381929801, 29076.959678764306, 41832.161466140926, 36874.186918042535, 31129.185095928326, 24743.76109168066, 0.07500000000000001, 1.0125000000000002, 0.157, 192.0, 1.0, 56.0, 15.5, 72.0, 2.0, 112.0, 0.0, 0.0, 0.0, 1.7074747160350513E9, 0.0, 2024-02-09 11:31:56.035
2.0, -7108.391178654573, -13765.232415823033, 21762.97715460982, 1262.7618030025726, 47566.45680266104, 20765.932889691936, 37222.27063444503, 12318.024017575266, 35333.07884133802, 7659.607548666901, 40074.777910086865, 29124.47948747629, 42273.04962552185, 37043.90371369168, 31257.99819922426, 24899.038660411676, 0.07500000000000001, 1.0125000000000002, 0.157, 192.0, 0.0, 0.0, 0.0, 0.0, 0.0, 0.0, 0.0, 0.0, 0.0, 1.707474716041726E9, 0.0, 2024-02-09 11:31:56.041
4.0, -7085.234771398875, -13740.95842134457, 21781.707916463365, 1268.327387371944, 47475.28403702784, 20755.896956431505, 37197.19197716618, 12272.962900753368, 35026.50231438903, 7591.12180365584, 39665.65157957692, 29035.676006755355, 41747.35894767749, 36828.29878667579, 31081.061790116048, 24732.920495619834, 0.07500000000000001, 1.0125000000000002, 0.157, 192.0, 0.0, 0.0, 0.0, 0.0, 0.0, 0.0, 0.0, 0.0, 0.0, 1.7074747160497074E9, 0.0, 2024-02-09 11:31:56.049
6.0, -7020.034732822744, -13714.739825098495, 21809.245265632304, 1255.877465710338, 47746.81302867091, 20814.100898993125, 37326.45211535122, 12384.74397477436, 35320.718326654234, 7678.8076971540095, 40020.99961292739, 29141.95855164034, 42151.702004873994, 37023.89890240418, 31244.453042084344, 24870.741351931258, 0.07500000000000001, 1.0125000000000002, 0.157, 192.0, 0.0, 0.0, 0.0, 0.0, 0.0, 0.0, 0.0, 0.0, 0.0, 1.707474716057674E9, 0.0, 2024-02-09 11:31:56.057
8.0, -7142.946975582478, -13778.799924707404, 21740.938334576887, 1251.5188755415531, 47420.969298001444, 20723.73279616032, 37158.45640402513, 12240.888147460002, 35143.60310359039, 7599.12372817084, 39854.769689413275, 29062.56515533509, 42014.39523868504, 36918.17515113058, 31163.383264944943, 24810.59280760203, 0.07500000000000001, 1.0125000000000002, 0.157, 192.0, 0.0, 0.0, 0.0, 0.0, 0.0, 0.0, 0.0, 0.0, 0.0, 1.707474716065726E9, 0.0, 2024-02-09 11:31:56.065
