%OpenBCI Raw EXG Data
%Number of channels = 16
%Sample Rate = 125 Hz
%Board = OpenBCI_GUI$BoardCytonSerialDaisy
Sample Index, EXG Channel 0, EXG Channel 1, EXG Channel 2, EXG Channel 3, EXG Channel 4, EXG Channel 5, EXG Channel 6, EXG Channel 7, EXG Channel 8, EXG Channel 9, EXG Channel 10, EXG Channel 11, EXG Channel 12, EXG Channel 13, EXG Channel 14, EXG Channel 15, Accel Channel 0, Accel Channel 1, Accel Channel 2, Other, Other, Other, Other, Other, Other, Other, Analog Channel 0, Analog Channel 1, Analog Channel 2, Timestamp, Other, Timestamp (Formatted)
0.0, -16505.93626569942, -7202.492022811416, 15116.171850701792, -2835.4305428779776, 45943.78721043911, 16934.598020863297, 33633.29573074529, 8319.095768820736, 0.0, 0.0, 0.0, 0.0, 0.0, 0.0, 0.0, 0.0, 0.0, 0.0, 0.0, 192.0, 0.0, 0.0, 0.0, 0.0, 0.0, 0.0, 0.0, 0.0, 0.0, 1.7074742621530724E9, 0.0, 2024-02-09 11:24:22.153
212.0, -16448.760503382742, -7158.392031001095, 15195.34172956249, -2842.806618548229, 46237.39972560403, 17028.542402808955, 33779.47613948299, 8456.558997220875, 29058.541841333135, 7170.864304407157, 38868.45426183394, 28159.15234794049, 39416.94371902272, 33833.32149187583, 27944.86617384746, 24492.66159446974, 0.0, 0.0, 0.0, 192.0, 0.0, 0.0, 0.0, 0.0, 0.0, 0.0, 0.0, 0.0, 0.0, 1.707474262153162E9, 0.0, 2024-02-09 11:24:22.153
0.0, -7683.836839656454, -4383.825288274919, 7691.503488004624, -1335.516731204597, 23074.912795414068, 8539.707486594616, 16879.970357414528, 4347.794276212964, 14545.576518246713, 3570.3559005684738, 19511.642397837924, 14071.898349749847, 19857.78151247281, 16945.863300068773, 14005.848944884414, 12311.542011683228, 0.11800000000000001, 1.0, 0.194, 192.0, 1.5, 88.0, 15.5, 32.0, 3.0, 8.0, 0.0, 0.0, 0.0, 1.707474262247969E9, 0.0, 2024-02-09 11:24:22.247
2.0, -15326.121786370491, -8737.319259323986, 15422.413101483955, -2690.9265149744174, 46492.32137111681, 17156.50613981559, 33930.88685642325, 8835.845748882979, 29394.801484918775, 8174.435278705988, 39057.12533678119, 28335.306445992763, 39589.20861353977, 33938.821725704875, 27989.033220891146, 24550.083225975424, 0.11800000000000001, 1.0, 0.194, 192.0, 0.0, 0.0, 0.0, 0.0, 0.0, 0.0, 0.0, 0.0, 0.0, 1.7074742622539673E9, 0.0, 2024-02-09 11:24:22.253
4.0, -15395.345138948578, -8777.373585387897, 15346.439522080365, -2675.5038113002556, 46236.013917447795, 17078.543255155477, 33813.137866632685, 8730.390218542841, 29448.44567161151, 8153.916377296016, 39228.56321675339, 28327.148059266576, 39912.19132091896, 34011.53195041799, 28065.923221817404, 24683.210215951232, 0.11800000000000001, 1.0, 0.194, 192.0, 0.0, 0.0, 0.0, 0.0, 0.0, 0.0, 0.0, 0.0, 0.0, 1.7074742622609446E9, 0.0, 2024-02-09 11:24:22.260
6.0, -15348.384123847978, -8745.097666394433, 15406.498659431776, -2684.7574335047525, 46281.54442090326, 17107.935799114206, 33845.45848911506, 8752.585500786961, 29210.01961350675, 8119.427635601478, 38833.07145036119, 28268.541785304762, 39348.614436222844, 33806.566453762825, 27878.481492815197, 24457.41289346372, 0.11800000000000001, 1.0, 0.194, 192.0, 0.0, 0.0, 0.0, 0.0, 0.0, 0.0, 0.0, 0.0, 0.0, 1.7074742622690024E9, 0.0, 2024-02-09 11:24:22.269
8.0, -15359.850568753549, -8760.45331483523, 15401.491868673787, -2683.617494537532, 46448.7131176845, 17129.3934737913, 33890.34079198132, 8849.346202533985, 29531.95178889654, 8168.914397825528, 39295.86431930832, 28364.296658551295, 39937.58290262019, 34055.430776528214, 28102.35656527955, 24695.9283585463, 0.106, 1.004, 0.192, 192.0, 1.5, 40.0, 15.5, 48.0, 3.0, 0.0, 0.0, 0.0, 0.0, 1.7074742622770023E9, 0.0, 2024-02-09 11:24:22.277
10.0, -15397.602665138564, -8787.945960515257, 15373.842760782572, -2669.7370612307864, 46117.728485790314, 17062.204129958645, 33737.34310118474, 8719.01318061509, 29238.473384198354, 8100.048673158726, 38937.43174522302, 28261.143357890054, 39561.850078326475, 33855.293256675395, 27920.636882857907, 24541.09782470439, 0.106, 1.004, 0.192, 192.0, 0.0, 0.0, 0.0, 0.0, 0.0, 0.0, 0.0, 0.0, 0.0, 1.7074742622860093E9, 0.0, 2024-02-09 11:24:22.286
12.0, -15362.845702510562, -8779.608759833427, 15441.143863337502, -2693.653427797965, 46492.88016472819, 17142.29043034201, 33929.255179078005, 8858.130438104921, 29380.518720211832, 8148.6860690934745, 39049.279874477375, 28321.358957452652, 39596.62939269893, 33928.31640581088, 27991.02252614767, 24561.28144994753, 0.106, 1.004, 0.192, 192.0, 0.0, 0.0, 0.0, 0.0, 0.0, 0.0, 0.0, 0.0, 0.0, 1.7074742622930226E9, 0.0, 2024-02-09 11:24:22.293
14.0, -15499.2583989213, -8883.343205850508, 15351.222795393802, -2687.6184567950318, 46219.96536492889, 17058.47138863461, 33746.864944322704, 8735.799340701025, 29417.82378170774, 8115.2925628772455, 39213.87812064626, 28293.285166416787, 39919.54504484475, 33994.67873509869, 28060.44704442585, 24681.533835117083, 0.106, 1.004, 0.192, 192.0, 0.0, 0.0, 0.0, 0.0, 0.0, 0.0, 0.0, 0.0, 0.0, 1.7074742623011963E9, 0.0, 2024-02-09 11:24:22.301
16.0, -15529.857937080615, -8932.539395396638, 15394.451069170365, -2706.6174395820426, 46268.26748469681, 17094.39064197429, 33772.368284746204, 8735.285250578554, 29134.738938181275, 8053.042954569216, 38780.85777531359, 28205.375755474062, 39331.358889503346, 33786.11460758622, 27858.43197803879, 24440.02323627749, 0.106, 1.004, 0.192, 192.0, 0.0, 0.0, 0.0, 0.0, 0.0, 0.0, 0.0, 0.0, 0.0, 1.7074742623090663E9, 0.0, 2024-02-09 11:24:22.309
18.0, -15611.195935153477, -9013.184489391386, 15377.46374338433, -2706.840957026596, 46463.33115855827, 17132.545069759497, 33884.32817272284, 8837.94681286178, 29428.239694623913, 8087.55404800821, 39220.29307130493, 28281.863425000123, 39904.390562104054, 34043.271427544525, 28090.46543722933, 24678.516349615616, 0.1, 1.026, 0.2, 192.0, 1.5, 16.0, 16.0, 8.0, 3.0, 32.0, 0.0, 0.0, 0.0, 1.7074742623170657E9, 0.0, 2024-02-09 11:24:22.317
20.0, -15695.819639661271, -9085.671196659947, 15330.74859747274, -2700.493061601289, 46106.954944962854, 17059.544272368465, 33679.29562083431, 8676.38840393882, 29101.792466854153, 8002.148032444482, 38844.984930155864, 28159.845252018604, 39516.341926615474, 33850.35352115077, 27909.86334203045, 24530.23487689911, 0.1, 1.026, 0.2, 192.0, 0.0, 0.0, 0.0, 0.0, 0.0, 0.0, 0.0, 0.0, 0.0, 1.7074742623250773E9, 0.0, 2024-02-09 11:24:22.325
22.0, -15679.704031908994, -9094.097804319597, 15390.42775516841, -2727.5610241366658, 46471.422490051096, 17149.73356124563, 33862.244649201, 8844.115894331444, 29225.44231718091, 8041.956489319384, 38939.84573362419, 28213.288273011243, 39533.0833832125, 33922.30378655241, 27960.75826415518, 24535.934571735215, 0.1, 1.026, 0.2, 192.0, 0.0, 0.0, 0.0, 0.0, 0.0, 0.0, 0.0, 0.0, 0.0, 1.707474262333084E9, 0.0, 2024-02-09 11:24:22.333
24.0, -15782.253835469943, -9167.299767410728, 15306.184030316357, -2718.6873815879085, 46204.699123465914, 17064.349897426357, 33713.42673461756, 8710.608924699894, 29264.69198044443, 8008.540631358699, 39104.30986932634, 28190.981232044847, 39865.85615466311, 33989.180205962686, 28038.609390093017, 24657.282192383074, 0.1, 1.026, 0.2, 192.0, 0.0, 0.0, 0.0, 0.0, 0.0, 0.0, 0.0, 0.0, 0.0, 1.7074742623421173E9, 0.0, 2024-02-09 11:24:22.342
26.0, -15748.59210832025, -9149.686592779946, 15361.504597843243, -2726.0411055137047, 46243.90408324052, 17108.919275870237, 33739.77944133037, 8713.872279390369, 29012.11726809946, 7973.358985586046, 38696.77051267272, 28127.256408602767, 39285.2695924365, 33776.27984002588, 27846.205573821735, 24422.991207002546, 0.1, 1.026, 0.2, 192.0, 0.0, 0.0, 0.0, 0.0, 0.0, 0.0, 0.0, 0.0, 0.0, 1.7074742623490949E9, 0.0, 2024-02-09 11:24:22.349
28.0, -15774.967166777513, -9172.731241313368, 15361.571653076608, -2723.7612275792635, 46437.1125623122, 17131.561593003466, 33832.293311630885, 8772.031518463078, 29336.32932142369, 8029.707733357875, 39167.78882357941, 28224.598255705627, 39862.12341333907, 34036.141221063284, 28078.37314347901, 24657.237488894167, 0.068, 1.03, 0.20600000000000002, 192.0, 1.0, 16.0, 16.0, 24.0, 3.0, 56.0, 0.0, 0.0, 0.0, 1.707474262357082E9, 0.0, 2024-02-09 11:24:22.357
30.0, -15828.253725558965, -9202.146137016553, 15325.428882292377, -2708.718503560842, 46091.375779077505, 17078.14092375528, 33672.277173075345, 8635.909394730257, 29041.442756824825, 7960.1491046129595, 38813.51367396279, 28121.42260329993, 39489.40807454682, 33836.271922143926, 27914.95953976626, 24512.822867968425, 0.068, 1.03, 0.20600000000000002, 192.0, 0.0, 0.0, 0.0, 0.0, 0.0, 0.0, 0.0, 0.0, 0.0, 1.7074742623651233E9, 0.0, 2024-02-09 11:24:22.365
32.0, -15777.314099945319, -9173.37944190257, 15388.326691189612, -2735.1829689959254, 46460.53719050136, 17168.129046932347, 33857.6401898432, 8771.02568996259, 29180.001220703274, 8009.635866837009, 38908.44153266448, 28187.11438025408, 39497.879385695385, 33906.881082878244, 27978.572604486064, 24518.388452337796, 0.068, 1.03, 0.20600000000000002, 192.0, 0.0, 0.0, 0.0, 0.0, 0.0, 0.0, 0.0, 0.0, 0.0, 1.7074742623734312E9, 0.0, 2024-02-09 11:24:22.373
34.0, -15863.658888776172, -9232.052771097753, 15304.150021570924, -2723.738875834808, 46223.96632718639, 17097.586941431397, 33765.28278175387, 8690.849982601403, 29245.491831957323, 7993.028520706716, 39101.04651463586, 28179.112455739076, 39854.8590963911, 33993.04705775345, 28070.415922452918, 24651.224869635687, 0.068, 1.03, 0.20600000000000002, 192.0, 0.0, 0.0, 0.0, 0.0, 0.0, 0.0, 0.0, 0.0, 0.0, 1.7074742623813348E9, 0.0, 2024-02-09 11:24:22.381
36.0, -15819.760062665948, -9198.256933481329, 15358.889443741971, -2729.125646248537, 46269.63094110858, 17126.800671434485, 33791.389619277674, 8695.968532081668, 28979.863700850452, 7960.059697635138, 38693.23893704879, 28121.064975388646, 39275.01014173152, 33793.53538674538, 27882.23658588369, 24431.060186750914, 0.068, 1.03, 0.20600000000000002, 192.0, 0.0, 0.0, 0.0, 0.0, 0.0, 0.0, 0.0, 0.0, 0.0, 1.707474262389146E9, 0.0, 2024-02-09 11:24:22.389
38.0, -15825.683274946605, -9207.935238830476, 15345.791321491162, -2741.9778993103387, 46469.50024002793, 17125.3925115338, 33874.515756906956, 8750.082105407966, 29307.13794316506, 8030.870024069551, 39157.26115194096, 28225.380566761563, 39855.99903535832, 34037.99641585308, 28103.250635057764, 24643.64762826534, 0.064, 1.018, 0.218, 192.0, 1.0, 0.0, 15.5, 104.0, 3.0, 104.0, 0.0, 0.0, 0.0, 1.7074742623972373E9, 0.0, 2024-02-09 11:24:22.397
40.0, -15867.57044405585, -9230.868128641621, 15294.695233666329, -2732.903091061484, 46109.32422987512, 17045.574432083897, 33694.76302799738, 8586.1767633172, 29016.766430946165, 7972.487267552289, 38810.116208805586, 28127.815202214148, 39502.707362497735, 33843.066852458345, 27928.124717250434, 24485.08435309939, 0.064, 1.018, 0.218, 192.0, 0.0, 0.0, 0.0, 0.0, 0.0, 0.0, 0.0, 0.0, 0.0, 1.7074742624041684E9, 0.0, 2024-02-09 11:24:22.404
42.0, -15801.006949067945, -9195.77588984679, 15386.180923721902, -2733.5289399062326, 46493.7742345064, 17146.112578643868, 33899.70617290809, 8749.478608307672, 29139.835135917085, 8019.649448352987, 38896.729218569904, 28197.686755381437, 39501.589775274966, 33912.62548120326, 27982.39475278792, 24490.09114385738, 0.064, 1.018, 0.218, 192.0, 0.0, 0.0, 0.0, 0.0, 0.0, 0.0, 0.0, 0.0, 0.0, 1.7074742624132197E9, 0.0, 2024-02-09 11:24:22.413
44.0, -15877.896949994201, -9259.567768522236, 15282.290015493634, -2746.872931346051, 46234.404591847015, 17043.451016360643, 33742.931037298564, 8618.653848010761, 29215.898122298495, 8014.977933761827, 39095.68209596659, 28197.507941425796, 39876.7638059573, 33995.63986011027, 28073.634573654483, 24626.950875157225, 0.064, 1.018, 0.218, 192.0, 0.0, 0.0, 0.0, 0.0, 0.0, 0.0, 0.0, 0.0, 0.0, 1.7074742624212217E9, 0.0, 2024-02-09 11:24:22.421
46.0, -15837.730865208016, -9237.618355467124, 15348.071199425603, -2740.1674080094585, 46272.514316143315, 17101.252627522066, 33796.03878212438, 8669.19114222421, 28946.269028934126, 7971.392032073979, 38670.306047237646, 28121.802582955672, 39292.489205895574, 33770.73660740097, 27872.267707856623, 24402.002918959013, 0.064, 1.018, 0.218, 192.0, 0.0, 0.0, 0.0, 0.0, 0.0, 0.0, 0.0, 0.0, 0.0, 1.7074742624292471E9, 0.0, 2024-02-09 11:24:22.429
48.0, -15837.172071596631, -9237.260727555838, 15340.829234222083, -2744.9506813228945, 46468.78498420537, 17117.61410446335, 33888.97733556954, 8731.86543367689, 29268.08944560164, 8040.5036259297885, 39133.61300630725, 28227.079299340166, 39866.370244785576, 34039.13635482029, 28107.832742671104, 24641.747729986637, 0.066, 1.01, 0.224, 192.0, 1.0, 8.0, 15.5, 72.0, 3.5, 0.0, 0.0, 0.0, 0.0, 1.7074742624362123E9, 0.0, 2024-02-09 11:24:22.436
50.0, -15852.170092126144, -9232.142178075574, 15301.199591302824, -2729.796198582196, 46107.31257287414, 17052.928156009693, 33718.6570428201, 8603.141737358777, 28994.302927768582, 7992.983817217806, 38802.069580801675, 28139.393405841998, 39513.749124258655, 33848.74419554999, 27929.309359706567, 24497.042536382978, 0.066, 1.01, 0.224, 192.0, 0.0, 0.0, 0.0, 0.0, 0.0, 0.0, 0.0, 0.0, 0.0, 1.7074742624452622E9, 0.0, 2024-02-09 11:24:22.445
52.0, -15767.41227715162, -9173.222979691385, 15387.007938266748, -2737.328736463635, 46478.038606409864, 17153.35454384739, 33925.276568564965, 8772.59031207446, 29131.877914890996, 8041.576509663643, 38891.70007606746, 28213.15416254451, 39504.651964265344, 33906.679917178146, 27981.433627776343, 24504.686832986696, 0.066, 1.01, 0.224, 192.0, 0.0, 0.0, 0.0, 0.0, 0.0, 0.0, 0.0, 0.0, 0.0, 1.7074742624533596E9, 0.0, 2024-02-09 11:24:22.453
54.0, -15803.733861891493, -9188.377462432083, 15311.995483874738, -2720.386114166512, 46235.36571685859, 17073.357650441845, 33792.931889645086, 8666.24071195611, 29221.73192760133, 8044.884567843029, 39106.321526327316, 28225.514677228293, 39878.79781470273, 34006.18988349317, 28083.60345168155, 24656.03049469358, 0.066, 1.01, 0.224, 192.0, 0.0, 0.0, 0.0, 0.0, 0.0, 0.0, 0.0, 0.0, 0.0, 1.7074742624613512E9, 0.0, 2024-02-09 11:24:22.461
56.0, -15741.908936728114, -9145.730334011358, 15363.404496121944, -2727.0245822697384, 46251.99541473334, 17101.252627522066, 33814.92600618911, 8673.303863203986, 28980.82482586203, 8019.9623727753615, 38700.36914353003, 28169.9482405124, 39302.122807755804, 33795.77056119091, 27888.517426075632, 24431.842497806847, 0.066, 1.01, 0.224, 192.0, 0.0, 0.0, 0.0, 0.0, 0.0, 0.0, 0.0, 0.0, 0.0, 1.7074742624692788E9, 0.0, 2024-02-09 11:24:22.469
58.0, -15722.574677774273, -9130.821720459668, 15362.08574319908, -2727.15869273647, 46454.904550898624, 17125.750139445085, 33914.368917270775, 8758.620471789895, 29316.436268858466, 8085.654149729508, 39167.006512523476, 28276.387247608574, 39880.09421588114, 34042.153840321764, 28120.796754455183, 24660.277326140087, 0.058, 0.994, 0.222, 192.0, 0.5, 104.0, 15.5, 8.0, 3.0, 120.0, 0.0, 0.0, 0.0, 1.7074742624772687E9, 0.0, 2024-02-09 11:24:22.477
60.0, -15743.87589024018, -9137.95192694091, 15315.16943158739, -2724.543538635199, 46084.40203480745, 17035.35968486782, 33719.93109225405, 8574.687966667172, 29047.23185863875, 8020.476462897834, 38846.30368307873, 28183.71691509687, 39535.76559254713, 33849.43709962811, 27951.48229020623, 24525.183382652212, 0.058, 0.994, 0.222, 192.0, 0.0, 0.0, 0.0, 0.0, 0.0, 0.0, 0.0, 0.0, 0.0, 1.7074742624843109E9, 0.0, 2024-02-09 11:24:22.484
62.0, -15650.356191439176, -9077.356347722573, 15394.80869708165, -2735.8535213295845, 46448.690765940046, 17127.828851679427, 33921.90145515221, 8739.621489002882, 29177.34136311309, 8066.588111709132, 38917.11400951314, 28244.44660478194, 39498.169958373306, 33900.242614775016, 27986.999212145714, 24506.251455098565, 0.058, 0.994, 0.222, 192.0, 0.0, 0.0, 0.0, 0.0, 0.0, 0.0, 0.0, 0.0, 0.0, 1.7074742624933217E9, 0.0, 2024-02-09 11:24:22.493
64.0, -15695.305549538798, -9106.27950504774, 15315.862335665506, -2717.838015298607, 46208.968306656876, 17063.18760671468, 33784.01354360742, 8653.276700172031, 29283.109817875604, 8057.558006949188, 39139.58092207681, 28249.29693332874, 39881.055340892715, 33999.238490967575, 28086.956213349848, 24667.005201221134, 0.058, 0.994, 0.222, 192.0, 0.0, 0.0, 0.0, 0.0, 0.0, 0.0, 0.0, 0.0, 0.0, 1.7074742625013356E9, 0.0, 2024-02-09 11:24:22.501
66.0, -15620.963647480447, -9046.399181651972, 15379.274234685212, -2713.0547419851714, 46232.325879612676, 17102.325511255924, 33821.56447429234, 8668.364127679364, 29046.114271415983, 8030.534747902721, 38733.53913230171, 28195.742153613824, 39288.24237444906, 33790.85317741075, 27882.99654519517, 24438.72683509908, 0.058, 0.994, 0.222, 192.0, 0.0, 0.0, 0.0, 0.0, 0.0, 0.0, 0.0, 0.0, 0.0, 1.7074742625083344E9, 0.0, 2024-02-09 11:24:22.508
68.0, -15599.304807103254, -9029.747132032768, 15388.013766767237, -2712.875928029529, 46457.7655741889, 17130.10872961387, 33944.566124029894, 8767.203541660732, 29392.231034306413, 8091.93498992145, 39207.552576965405, 28307.344413679173, 39863.48686975084, 34041.23741879909, 28125.80354521317, 24677.35405890394, 0.064, 0.98, 0.21, 192.0, 1.0, 0.0, 15.0, 80.0, 3.0, 72.0, 0.0, 0.0, 0.0, 1.7074742625163057E9, 0.0, 2024-02-09 11:24:22.516
70.0, -15616.023911955825, -9032.429341367406, 15347.735923258773, -2699.4648813563444, 46090.23584011028, 17050.313001908424, 33754.620999648694, 8609.444929295174, 29136.594132971066, 8035.385076449523, 38895.477520880406, 28219.055023080713, 39534.7821157911, 33852.141660707195, 27966.457958991286, 24552.13958646531, 0.064, 0.98, 0.21, 192.0, 0.0, 0.0, 0.0, 0.0, 0.0, 0.0, 0.0, 0.0, 0.0, 1.7074742625253193E9, 0.0, 2024-02-09 11:24:22.525
72.0, -15520.380797431566, -8957.819218375591, 15438.059322602669, -2704.8963552589844, 46467.75680396042, 17149.66650601226, 33966.60494406283, 8776.323053398497, 29261.786253665243, 8083.418975283978, 38969.12651886064, 28279.96352672142, 39506.64126952187, 33905.53997821092, 28011.809648491104, 24542.52833634953, 0.064, 0.98, 0.21, 192.0, 0.0, 0.0, 0.0, 0.0, 0.0, 0.0, 0.0, 0.0, 0.0, 1.7074742625334663E9, 0.0, 2024-02-09 11:24:22.533
74.0, -15562.580890963185, -8968.883331880967, 15359.381182119989, -2688.0878434285933, 46232.97408020188, 17080.3313947119, 33812.646128254666, 8706.2056310422, 29374.595507931175, 8100.786280725752, 39207.59728045431, 28301.30944267624, 39908.21271040591, 34020.22677901111, 28116.57227475313, 24701.35983244894, 0.064, 0.98, 0.21, 192.0, 0.0, 0.0, 0.0, 0.0, 0.0, 0.0, 0.0, 0.0, 0.0, 1.7074742625403564E9, 0.0, 2024-02-09 11:24:22.540
76.0, -15502.991140245336, -8921.542337124627, 15418.993284582291, -2689.875982985018, 46242.09359193964, 17099.688005410197, 33834.662596543145, 8716.86741314738, 29119.115068807016, 8065.537579719732, 38787.54094690573, 28243.887811170556, 39314.25980499504, 33807.616985752225, 27903.515446605143, 24474.735495416582, 0.064, 0.98, 0.21, 192.0, 0.0, 0.0, 0.0, 0.0, 0.0, 0.0, 0.0, 0.0, 0.0, 1.7074742625484672E9, 0.0, 2024-02-09 11:24:22.548
78.0, -15489.11070693859, -8907.483089862239, 15414.701749646872, -2694.1675179204367, 46451.08240259677, 17123.76083418856, 33934.61959774728, 8798.227762964698, 29456.648761826607, 8129.0835892061705, 39246.981054184565, 28349.388044999607, 39873.74632045583, 34047.7864799245, 28124.104812634567, 24692.620300366914, 0.068, 0.992, 0.194, 192.0, 1.0, 16.0, 15.5, 0.0, 3.0, 8.0, 0.0, 0.0, 0.0, 1.7074742625574057E9, 0.0, 2024-02-09 11:24:22.557
80.0, -15512.580038616663, -8911.416996886373, 15363.203330421846, -2681.1588026474483, 46071.19215383437, 17045.172100683703, 33705.6036240582, 8621.000781178569, 29194.351040643578, 8076.132306591548, 38940.13630630211, 28255.466014798407, 39551.6353311104, 33872.50409990598, 27957.941944353814, 24565.61768837186, 0.068, 0.992, 0.194, 192.0, 0.0, 0.0, 0.0, 0.0, 0.0, 0.0, 0.0, 0.0, 0.0, 1.7074742625644388E9, 0.0, 2024-02-09 11:24:22.564
82.0, -15435.019485356748, -8857.99632763819, 15448.318773307656, -2695.8886022434954, 46457.206780577515, 17127.62768597933, 33954.914981712696, 8771.517428340607, 29305.170989652994, 8113.258554131813, 38995.38981859563, 28302.538788621285, 39506.59656603296, 33914.14539982622, 27986.68628772334, 24537.253324658075, 0.068, 0.992, 0.194, 192.0, 0.0, 0.0, 0.0, 0.0, 0.0, 0.0, 0.0, 0.0, 0.0, 1.7074742625724325E9, 0.0, 2024-02-09 11:24:22.572
84.0, -15484.77446851426, -8882.85146747249, 15386.09151674408, -2667.948921674362, 46250.989586232856, 17079.280862722502, 33872.30293420589, 8747.645765262338, 29415.186275862012, 8115.761949510807, 39239.7614407255, 28322.633006886605, 39918.94154774446, 34025.233569769094, 28121.489658533297, 24709.02648079711, 0.068, 0.992, 0.194, 192.0, 0.0, 0.0, 0.0, 0.0, 0.0, 0.0, 0.0, 0.0, 0.0, 1.7074742625804603E9, 0.0, 2024-02-09 11:24:22.580
86.0, -15432.985476611315, -8844.898205387379, 15438.394598769499, -2669.29002634168, 46253.694147311944, 17105.253589779568, 33889.24555650301, 8757.011146189112, 29156.509537280745, 8075.953492635906, 38820.68858393295, 28257.254154354832, 39335.06927908293, 33808.22048285252, 27938.96531331126, 24504.95505392016, 0.068, 0.992, 0.194, 192.0, 0.0, 0.0, 0.0, 0.0, 0.0, 0.0, 0.0, 0.0, 0.0, 1.7074742625894759E9, 0.0, 2024-02-09 11:24:22.589
88.0, -15422.636618928507, -8840.293746029585, 15438.81928191415, -2672.709843243342, 46482.19603087855, 17129.594639491395, 33991.63889785277, 8819.238402752686, 29495.920776834584, 8139.074818977692, 39280.50867086752, 28360.675675949537, 39900.5684138022, 34046.89241014629, 28165.209670687876, 24719.12946929091, 0.07200000000000001, 1.0, 0.188, 192.0, 1.0, 48.0, 15.5, 64.0, 2.5, 88.0, 0.0, 0.0, 0.0, 1.707474262596428E9, 0.0, 2024-02-09 11:24:22.596
90.0, -15452.275032076244, -8856.096429359488, 15391.813563324638, -2655.901331412951, 46111.090017687085, 17072.508284152544, 33793.02129662291, 8682.937465064224, 29235.59000916362, 8078.792164181729, 38977.46371954247, 28272.922727218, 39598.976325866744, 33872.70526560608, 28009.373308345475, 24598.765325399083, 0.07200000000000001, 1.0, 0.188, 192.0, 0.0, 0.0, 0.0, 0.0, 0.0, 0.0, 0.0, 0.0, 0.0, 1.7074742626048791E9, 0.0, 2024-02-09 11:24:22.604
92.0, -15382.604644609053, -8813.069321283021, 15470.670517762963, -2674.609741522043, 46460.31367305681, 17151.20877637968, 33960.502917826525, 8799.859440309936, 29340.285580192278, 8122.89215599205, 39022.65894683111, 28325.94106506599, 39540.817086794035, 33922.974338886066, 28027.277055654176, 24576.950022810703, 0.07200000000000001, 1.0, 0.188, 192.0, 0.0, 0.0, 0.0, 0.0, 0.0, 0.0, 0.0, 0.0, 0.0, 1.7074742626136808E9, 0.0, 2024-02-09 11:24:22.613
94.0, -15466.803665972195, -8876.70473774728, 15387.94671153387, -2673.2686368547247, 46224.279251608765, 17071.636566118785, 33812.579073021305, 8685.574970909951, 29440.153174418592, 8111.962152953405, 39253.03837693195, 28329.65145464557, 39945.160143990535, 34019.10919178834, 28117.33223406461, 24711.485172687197, 0.07200000000000001, 1.0, 0.188, 192.0, 0.0, 0.0, 0.0, 0.0, 0.0, 0.0, 0.0, 0.0, 0.0, 1.707474262620505E9, 0.0, 2024-02-09 11:24:22.620
96.0, -15439.445130758899, -8863.427801540829, 15428.62688644253, -2675.8614392115405, 46206.48726302234, 17099.71035715465, 33799.48095077049, 8678.154191750788, 29169.026514175715, 8077.160486836492, 38823.57195896768, 28263.177366635486, 39348.10034610037, 33801.336145560286, 27901.056754715057, 24480.83752165288, 0.07200000000000001, 1.0, 0.188, 192.0, 0.0, 0.0, 0.0, 0.0, 0.0, 0.0, 0.0, 0.0, 0.0, 1.7074742626284997E9, 0.0, 2024-02-09 11:24:22.628
98.0, -15473.732706753339, -8899.391758369418, 15431.130281821524, -2681.0470439251717, 46443.14753331513, 17133.707360471173, 33923.22020807507, 8770.466896351207, 29479.224023726467, 8132.011667729816, 39263.56604857041, 28347.912829865556, 39895.96395444441, 34039.87396238732, 28113.152457851465, 24689.289890443077, 0.07400000000000001, 1.013, 0.181, 192.0, 1.0, 48.0, 16.0, 8.0, 2.5, 56.0, 0.0, 0.0, 0.0, 1.707474262636574E9, 0.0, 2024-02-09 11:24:22.636
100.0, -15578.137705104078, -8988.73168095728, 15376.256749183745, -2681.5611340476435, 46075.55074400315, 17052.61523158732, 33727.86596153569, 8600.37012104632, 29200.765991302254, 8056.97686159335, 38954.17320182004, 28244.178383848477, 39592.06963683005, 33858.93659102161, 27970.458921248784, 24571.496197163608, 0.07400000000000001, 1.013, 0.181, 192.0, 0.0, 0.0, 0.0, 0.0, 0.0, 0.0, 0.0, 0.0, 0.0, 1.7074742626455867E9, 0.0, 2024-02-09 11:24:22.645
102.0, -15609.810126997249, -9059.474952158327, 15449.257546574778, -2705.8798320150177, 46434.09507681073, 17143.76564547606, 33929.456344778104, 8754.016012432101, 29252.64439018302, 8063.391812252023, 38957.43655651052, 28260.62926776758, 39512.497426569156, 33890.02786755894, 27989.212034846787, 24533.185307167212, 0.07400000000000001, 1.013, 0.181, 192.0, 0.0, 0.0, 0.0, 0.0, 0.0, 0.0, 0.0, 0.0, 0.0, 1.7074742626525793E9, 0.0, 2024-02-09 11:24:22.652
104.0, -15736.87979422567, -9141.885833965043, 15370.333536903088, -2703.0188087247384, 46224.88274870905, 17066.18274047169, 33823.15144814867, 8657.836456040914, 29336.84341154616, 8019.358875675068, 39182.317457475365, 28244.133680359566, 39932.173780462006, 33988.397894906746, 28109.263254316244, 24683.098457228956, 0.07400000000000001, 1.013, 0.181, 192.0, 0.0, 0.0, 0.0, 0.0, 0.0, 0.0, 0.0, 0.0, 0.0, 1.7074742626605628E9, 0.0, 2024-02-09 11:24:22.660
106.0, -15763.478370127485, -9139.673011263969, 15424.2906480182, -2697.8555557555624, 46212.946917169924, 17107.37700550282, 33817.29529110137, 8669.973453280147, 29059.32415238907, 7973.202523374859, 38751.01819646576, 28181.325278440152, 39342.37829951981, 33779.40908424963, 27912.210275198257, 24455.870623096303, 0.07400000000000001, 1.013, 0.181, 192.0, 0.0, 0.0, 0.0, 0.0, 0.0, 0.0, 0.0, 0.0, 0.0, 1.707474262668636E9, 0.0, 2024-02-09 11:24:22.668
108.0, -15840.971868154034, -9147.741991012334, 15412.310112990155, -2722.330715934124, 46445.740335671944, 17120.519831242542, 33928.31640581088, 8740.135579125355, 29368.53818518379, 7999.734044043308, 39184.84320459881, 28265.010209680822, 39888.878451452074, 34010.12379051731, 28133.04551041669, 24660.098512184446, 0.068, 1.0194999999999999, 0.1785, 192.0, 0.5, 120.0, 16.0, 8.0, 2.5, 64.0, 0.0, 0.0, 0.0, 1.7074742626776502E9, 0.0, 2024-02-09 11:24:22.677
110.0, -15944.68396242666, -9103.060853846175, 15350.552243060141, -2718.9556025213724, 46064.91131364242, 17034.13033892278, 33708.15172292611, 8570.374079987298, 29101.39013545396, 7878.632292584454, 38884.18988993048, 28164.203842187388, 39599.31160203357, 33824.47020107153, 27967.262621791677, 24533.073548444936, 0.068, 1.0194999999999999, 0.1785, 192.0, 0.0, 0.0, 0.0, 0.0, 0.0, 0.0, 0.0, 0.0, 0.0, 1.7074742626846032E9, 0.0, 2024-02-09 11:24:22.684
112.0, -16015.494288861071, -8997.940599672866, 15423.351874751077, -2737.664012630464, 46406.84830031971, 17121.95034288768, 33879.99193429851, 8719.169642826277, 29180.023572447728, 7837.125103130949, 38904.015887262336, 28206.135714785545, 39507.669449766814, 33852.432233385116, 27974.39282827292, 24488.258300812042, 0.068, 1.0194999999999999, 0.1785, 192.0, 0.0, 0.0, 0.0, 0.0, 0.0, 0.0, 0.0, 0.0, 0.0, 1.7074742626945887E9, 0.0, 2024-02-09 11:24:22.694
114.0, -16263.643355803892, -8991.950332158844, 15356.006068707236, -2726.7563613362745, 46193.88087914955, 17056.81735954492, 33746.10498501122, 8624.733522502604, 29289.211844111902, 7733.43536060278, 39155.71888157355, 28217.848028880126, 39920.72968730089, 33979.74776980255, 28081.725905147305, 24642.88766895386, 0.068, 1.0194999999999999, 0.1785, 192.0, 0.0, 0.0, 0.0, 0.0, 0.0, 0.0, 0.0, 0.0, 0.0, 1.707474262701656E9, 0.0, 2024-02-09 11:24:22.701
116.0, -16350.993973135231, -8840.27139428513, 15420.982589838815, -2712.898279773984, 46185.00723660079, 17112.562610216453, 33757.50437468343, 8637.22814765312, 29011.044384365607, 7591.412376333759, 38726.140704887, 28162.9968479868, 39325.81565687843, 33774.93873535857, 27889.90323423186, 24422.521820368984, 0.068, 1.0194999999999999, 0.1785, 192.0, 0.0, 0.0, 0.0, 0.0, 0.0, 0.0, 0.0, 0.0, 0.0, 1.7074742627086399E9, 0.0, 2024-02-09 11:24:22.708
118.0, -16578.110048545605, -8811.41529219333, 15415.417005469442, -2727.1810444809253, 46424.88615809514, 17150.135892645823, 33877.309724963874, 8737.073390134978, 29346.924048295507, 7538.885776863787, 39180.015227796466, 28272.945078962457, 39878.954276913915, 34023.02074706802, 28114.828838685615, 24635.2657240946, 0.062, 1.01975, 0.17625000000000002, 192.0, 0.5, 96.0, 15.5, 112.0, 2.5, 56.0, 0.0, 0.0, 0.0, 1.7074742627166505E9, 0.0, 2024-02-09 11:24:22.716
120.0, -16836.25034525995, -8841.165464063342, 15365.907891500938, -2713.881756530018, 46069.001682877744, 17074.363478942334, 33718.79115328684, 8588.814269162925, 29061.067588456583, 7270.575436422281, 38878.02080846081, 28175.71499058187, 39598.30577353308, 33858.6907218326, 27986.596880745517, 24525.384548352307, 0.062, 1.01975, 0.17625000000000002, 192.0, 0.0, 0.0, 0.0, 0.0, 0.0, 0.0, 0.0, 0.0, 0.0, 1.7074742627246845E9, 0.0, 2024-02-09 11:24:22.724
122.0, -16960.280175242446, -8761.570902057994, 15436.24883130179, -2738.6921928754086, 46431.32346049827, 17152.281660113535, 33904.17652179915, 8730.837253431948, 29139.18693532788, 7115.499033391361, 38884.23459341939, 28213.511790455796, 39498.46053105123, 33887.591527413315, 28006.244064121733, 24473.573204704906, 0.062, 1.01975, 0.17625000000000002, 192.0, 0.0, 0.0, 0.0, 0.0, 0.0, 0.0, 0.0, 0.0, 0.0, 1.7074742627326603E9, 0.0, 2024-02-09 11:24:22.732
124.0, -17178.232035426146, -8737.431018046263, 15356.69897278535, -2726.599899125087, 46253.82825777868, 17095.351766985867, 33817.675270757114, 8688.19012501122, 29254.141957061525, 6966.099973452088, 39131.37783186172, 28224.710014427903, 39935.303024685745, 34002.18892123568, 28142.65676053247, 24633.075253137977, 0.062, 1.01975, 0.17625000000000002, 192.0, 0.0, 0.0, 0.0, 0.0, 0.0, 0.0, 0.0, 0.0, 0.0, 1.7074742627406704E9, 0.0, 2024-02-09 11:24:22.740
126.0, -17239.185242555766, -8596.41386227773, 15402.922380318927, -2729.997364282294, 46237.44442909294, 17118.01643586355, 33825.92306446112, 8699.477755961152, 28973.269936236138, 6863.237245468766, 38687.3827800015, 28151.28453389222, 39348.99441587859, 33791.188453577575, 27952.242249517712, 24417.515029610997, 0.062, 1.01975, 0.17625000000000002, 192.0, 0.0, 0.0, 0.0, 0.0, 0.0, 0.0, 0.0, 0.0, 0.0, 1.7074742627487636E9, 0.0, 2024-02-09 11:24:22.748
128.0, -17278.814885475025, -8487.270294102465, 15401.156592506957, -2745.5988819120985, 46474.30586508583, 17135.11552037186, 33922.616710974784, 8772.210332418721, 29311.451829844933, 6919.0719031181225, 39118.59263403328, 28247.665255983506, 39892.164157887004, 34021.187904022685, 28163.354475898086, 24620.670034965282, 0.051000000000000004, 1.012875, 0.181125, 192.0, 0.5, 32.0, 15.5, 56.0, 2.5, 104.0, 0.0, 0.0, 0.0, 1.707474262756801E9, 0.0, 2024-02-09 11:24:22.756
130.0, -17332.14614774539, -8419.209232236057, 15351.870995983005, -2728.566852637154, 46099.154186147956, 17057.532615367487, 33742.215781476, 8632.847205739881, 29067.884870515452, 6868.624015882495, 38842.07920337668, 28152.37976937053, 39624.45731454579, 33846.687835060104, 28021.510305584707, 24521.76356575055, 0.051000000000000004, 1.012875, 0.181125, 192.0, 0.0, 0.0, 0.0, 0.0, 0.0, 0.0, 0.0, 0.0, 0.0, 1.707474262764789E9, 0.0, 2024-02-09 11:24:22.764
132.0, -17260.374696299397, -8268.960806007482, 15416.154613036468, -2747.16350402397, 46438.6101291907, 17132.321552314945, 33921.32030979637, 8771.673890551792, 29159.750540226763, 6957.539255325706, 38854.015034915814, 28208.035613064247, 39510.575176546, 33873.062893517366, 28029.288712655154, 24489.420591523718, 0.051000000000000004, 1.012875, 0.181125, 192.0, 0.0, 0.0, 0.0, 0.0, 0.0, 0.0, 0.0, 0.0, 0.0, 1.707474262772771E9, 0.0, 2024-02-09 11:24:22.772
134.0, -17287.80028674606, -8221.552756017776, 15339.443426065855, -2733.484236417322, 46232.05765867921, 17060.393638657766, 33796.150540846655, 8675.360223693875, 29297.70550700492, 7015.564383931683, 39102.94641291456, 28223.63713069405, 39933.4254781515, 33980.708894814125, 28136.688844762906, 24646.575706788983, 0.051000000000000004, 1.012875, 0.181125, 192.0, 0.0, 0.0, 0.0, 0.0, 0.0, 0.0, 0.0, 0.0, 0.0, 1.7074742627808628E9, 0.0, 2024-02-09 11:24:22.780
136.0, -17243.633239702373, -8095.779489967763, 15387.387917922488, -2726.1752159804364, 46200.27347806376, 17092.37898497331, 33808.958090419546, 8707.43497698724, 29022.22025659326, 7043.526416245272, 38687.96392535733, 28169.501205623295, 39331.06831682543, 33764.56752593131, 27937.28893247711, 24425.047567492435, 0.051000000000000004, 1.012875, 0.181125, 192.0, 0.0, 0.0, 0.0, 0.0, 0.0, 0.0, 0.0, 0.0, 0.0, 1.7074742627878098E9, 0.0, 2024-02-09 11:24:22.787
138.0, -17198.616826369383, -8001.477480110822, 15401.178944251413, -2724.2082624683694, 46459.039623622855, 17130.131081358326, 33944.990807174545, 8808.621324136415, 29370.214566017934, 7175.4687637649495, 39140.787916277404, 28282.623384311606, 39861.74343368333, 34012.47072368512, 28166.997810244302, 24650.06257892401, 0.0475, 1.0104375, 0.18756250000000002, 192.0, 0.5, 48.0, 15.5, 64.0, 3.0, 8.0, 0.0, 0.0, 0.0, 1.7074742627968118E9, 0.0, 2024-02-09 11:24:22.796
140.0, -17186.524532619063, -7949.9343573968845, 15347.758275003229, -2708.316172160646, 46092.78393897819, 17049.307173407935, 33755.2692002379, 8644.671278556738, 29144.35018829706, 7165.924568882534, 38881.75354978485, 28202.87236009507, 39608.22994807124, 33858.19898345458, 28034.340206902052, 24556.85580454538, 0.0475, 1.0104375, 0.18756250000000002, 192.0, 0.0, 0.0, 0.0, 0.0, 0.0, 0.0, 0.0, 0.0, 0.0, 1.707474262804804E9, 0.0, 2024-02-09 11:24:22.804
142.0, -17081.694851123673, -7854.246539383715, 15430.236212043312, -2717.5921461095986, 46442.454629237014, 17138.40122680679, 33922.817876674875, 8775.36192838692, 29227.476325926345, 7268.742593376946, 38899.56789011573, 28257.83529971067, 39494.43721704927, 33884.149358767194, 28046.11957623, 24519.260170371555, 0.0475, 1.0104375, 0.18756250000000002, 192.0, 0.0, 0.0, 0.0, 0.0, 0.0, 0.0, 0.0, 0.0, 0.0, 1.707474262813033E9, 0.0, 2024-02-09 11:24:22.813
144.0, -17048.256641418535, -7913.8362901015635, 15367.874845013004, -2693.1393376754927, 46262.523086371795, 17084.310005224947, 33838.2835791449, 8706.473851975663, 29385.77138015883, 7348.784190271401, 39193.292164002916, 28284.0762477012, 39944.93662654598, 34015.91289233123, 28177.23490920483, 24693.156742233845, 0.0475, 1.0104375, 0.18756250000000002, 192.0, 0.0, 0.0, 0.0, 0.0, 0.0, 0.0, 0.0, 0.0, 0.0, 1.7074742628207986E9, 0.0, 2024-02-09 11:24:22.820
146.0, -16920.181145689625, -7919.267764004203, 15414.791156624695, -2690.2336108963027, 46222.7593329858, 17103.845429878882, 33831.22042789703, 8686.737261621627, 29119.070365318104, 7397.108661783775, 38775.940391533426, 28227.794555162738, 39349.24028506759, 33792.663668711626, 27983.937023155337, 24477.99885010706, 0.0475, 1.0104375, 0.18756250000000002, 192.0, 0.0, 0.0, 0.0, 0.0, 0.0, 0.0, 0.0, 0.0, 0.0, 1.7074742628288343E9, 0.0, 2024-02-09 11:24:22.828
148.0, -16831.176499268593, -7992.380320117512, 15415.037025813703, -2708.2714686717354, 46469.83551619477, 17125.1913458337, 33926.28239706545, 8758.374602600885, 29461.789663051328, 7519.7303318655895, 39220.09190560483, 28328.936198823, 39874.215707089395, 34017.94690107666, 28185.43799941993, 24662.803073263538, 0.051750000000000004, 1.01421875, 0.19378125000000002, 192.0, 0.5, 96.0, 15.5, 104.0, 3.0, 32.0, 0.0, 0.0, 0.0, 1.707474262836892E9, 0.0, 2024-02-09 11:24:22.836
150.0, -16778.761658520896, -8066.252835542302, 15366.131408945492, -2690.255962640758, 46094.01328492323, 17054.76099905503, 33735.44320290604, 8609.735501973093, 29231.83491609513, 7515.215279485617, 38964.63381822513, 28246.25709608282, 39631.22989311575, 33860.948248022585, 28046.723073330293, 24554.1959469552, 0.051750000000000004, 1.01421875, 0.19378125000000002, 192.0, 0.0, 0.0, 0.0, 0.0, 0.0, 0.0, 0.0, 0.0, 0.0, 1.707474262843828E9, 0.0, 2024-02-09 11:24:22.843
152.0, -16650.01561045833, -8059.144980805515, 15445.480101761832, -2707.8244337826295, 46435.883216367154, 17142.29043034201, 33919.822742917866, 8741.767256470592, 29312.41295485651, 7600.442481093703, 38967.271324070854, 28295.11800946212, 39512.65388878035, 33878.248498231, 28054.523832145194, 24501.825809696416, 0.051750000000000004, 1.01421875, 0.19378125000000002, 192.0, 0.0, 0.0, 0.0, 0.0, 0.0, 0.0, 0.0, 0.0, 0.0, 1.7074742628528445E9, 0.0, 2024-02-09 11:24:22.852
154.0, -16643.086569677183, -8145.132141725081, 15371.071144470114, -2695.8886022434954, 46253.67179556749, 17083.684156380197, 33819.284596357895, 8681.1493255078, 29467.087026487236, 7644.833045581943, 39253.19483914314, 28323.460021431452, 39968.584772179696, 34013.4765521856, 28187.71787735437, 24682.204387450744, 0.051750000000000004, 1.01421875, 0.19378125000000002, 192.0, 0.0, 0.0, 0.0, 0.0, 0.0, 0.0, 0.0, 0.0, 0.0, 1.7074742628608837E9, 0.0, 2024-02-09 11:24:22.860
156.0, -16565.458961183904, -8148.864883049117, 15411.10311878957, -2702.571773835632, 46201.36871354207, 17102.81724963394, 33809.561587519835, 8668.967624779658, 29185.00801146126, 7631.645516353312, 38808.61864192708, 28250.995665907347, 39371.346160333895, 33793.08835185628, 27971.777674171648, 24448.85217533734, 0.051750000000000004, 1.01421875, 0.19378125000000002, 192.0, 0.0, 0.0, 0.0, 0.0, 0.0, 0.0, 0.0, 0.0, 0.0, 1.707474262867906E9, 0.0, 2024-02-09 11:24:22.867
158.0, -16509.04315817871, -8166.098078024159, 15424.223592784834, -2702.0576837131603, 46464.895780670144, 17146.87253795535, 33939.78285071646, 8782.827411034992, 29521.02178585789, 7726.126340165894, 39252.30076936493, 28355.713588680457, 39892.70059975393, 34035.76124140755, 28188.209615732387, 24651.11311091341, 0.056875, 1.012109375, 0.195890625, 192.0, 0.5, 120.0, 15.5, 72.0, 3.0, 24.0, 0.0, 0.0, 0.0, 1.7074742628759336E9, 0.0, 2024-02-09 11:24:22.875
160.0, -16512.865306480566, -8223.095026385192, 15369.70768805834, -2687.461994583845, 46088.425348809404, 17056.839711289373, 33743.82510707678, 8616.105749142856, 29285.07677138767, 7689.00009262563, 38996.216833140476, 28273.59327955166, 39649.312454380095, 33884.305820978385, 28056.759006590728, 24563.561327881973, 0.056875, 1.012109375, 0.195890625, 192.0, 0.0, 0.0, 0.0, 0.0, 0.0, 0.0, 0.0, 0.0, 0.0, 1.7074742628849304E9, 0.0, 2024-02-09 11:24:22.884
162.0, -16424.48650890428, -8198.038720850793, 15450.553947753186, -2704.158747691959, 46437.53724545685, 17136.97071516165, 33932.8091064464, 8733.810035444503, 29352.556687898243, 7737.548081582557, 38986.11384464668, 28316.0839457612, 39510.575176546, 33888.351486724794, 28058.502442658242, 24505.9832341651, 0.056875, 1.012109375, 0.195890625, 192.0, 0.0, 0.0, 0.0, 0.0, 0.0, 0.0, 0.0, 0.0, 0.0, 1.7074742628929312E9, 0.0, 2024-02-09 11:24:22.892
164.0, -16450.414532472438, -8249.87241624265, 15378.067240484625, -2696.4473958548783, 46258.3656619031, 17076.3304324544, 33827.37592785072, 8670.062860257967, 29491.763352365895, 7749.595671843967, 39266.203554416126, 28333.317140736242, 39969.277676257814, 34019.55622667745, 28181.593499373615, 24667.653401810338, 0.056875, 1.012109375, 0.195890625, 192.0, 0.0, 0.0, 0.0, 0.0, 0.0, 0.0, 0.0, 0.0, 0.0, 1.7074742629000869E9, 0.0, 2024-02-09 11:24:22.900
166.0, -16403.14059294946, -8246.162026663069, 15418.188621781901, -2695.8662504990402, 46204.11797811007, 17108.986331103602, 33808.89103518618, 8668.364127679364, 29211.092497240606, 7725.187566898771, 38824.75660142382, 28264.049084669245, 39376.42000632525, 33791.14375008867, 27964.69217117932, 24444.13595725727, 0.056875, 1.012109375, 0.195890625, 192.0, 0.0, 0.0, 0.0, 0.0, 0.0, 0.0, 0.0, 0.0, 0.0, 1.7074742629089444E9, 0.0, 2024-02-09 11:24:22.908
168.0, -16417.95979952333, -8300.16384126709, 15424.402406740477, -2713.2112041963583, 46463.28645506936, 17143.184500120224, 33922.683766208145, 8751.177340886277, 29518.16076256761, 7785.470221694734, 39247.29397860694, 28352.47258573444, 39895.114588155106, 34027.200523281164, 28168.62948758954, 24642.46298580921, 0.06243750000000001, 1.0090546875, 0.19694531250000002, 192.0, 1.0, 16.0, 15.5, 56.0, 3.0, 24.0, 0.0, 0.0, 0.0, 1.707474262916968E9, 0.0, 2024-02-09 11:24:22.916
170.0, -16513.021768691753, -8386.508630097942, 15365.99729847876, -2701.320076146135, 46080.98221790579, 17056.95147001165, 33719.461705620495, 8578.778335902492, 29257.338256518637, 7708.043778901551, 38978.62601025415, 28248.425215294985, 39661.98589348625, 33870.91712604966, 28027.34411088754, 24539.890830503802, 0.06243750000000001, 1.0090546875, 0.19694531250000002, 192.0, 0.0, 0.0, 0.0, 0.0, 0.0, 0.0, 0.0, 0.0, 0.0, 1.7074742629239683E9, 0.0, 2024-02-09 11:24:22.923
172.0, -16507.97027444485, -8412.526060643919, 15449.279898319233, -2711.6912855733976, 46427.88129185216, 17159.54597706151, 33926.57296974337, 8754.932433954767, 29274.97378289387, 7719.7784447405875, 38930.32389048623, 28265.83722422567, 39507.33417359998, 33878.18144299763, 28026.338282387052, 24489.84527466837, 0.06243750000000001, 1.0090546875, 0.19694531250000002, 192.0, 0.0, 0.0, 0.0, 0.0, 0.0, 0.0, 0.0, 0.0, 0.0, 1.7074742629319968E9, 0.0, 2024-02-09 11:24:22.931
174.0, -16637.185709140984, -8514.852346760315, 15366.869016512515, -2707.1538814489704, 46250.989586232856, 17093.09424079588, 33814.14369513318, 8672.722717848148, 29399.83062742122, 7692.844592671942, 39210.65946944469, 28273.302706873743, 39969.16591753554, 34012.49307542957, 28174.306830681187, 24678.78457054908, 0.06243750000000001, 1.0090546875, 0.19694531250000002, 192.0, 0.0, 0.0, 0.0, 0.0, 0.0, 0.0, 0.0, 0.0, 0.0, 1.7074742629409919E9, 0.0, 2024-02-09 11:24:22.940
176.0, -16627.216831113914, -8486.309169090888, 15399.010825039248, -2712.942983262895, 46188.829384902645, 17108.874572381326, 33792.864834411725, 8668.587645123916, 29068.957754249306, 7624.828234294443, 38740.17760040493, 28175.469121392864, 39354.157668847765, 33777.08450282628, 27951.795214628604, 24438.12333799879, 0.06243750000000001, 1.0090546875, 0.19694531250000002, 192.0, 0.0, 0.0, 0.0, 0.0, 0.0, 0.0, 0.0, 0.0, 0.0, 1.7074742629490335E9, 0.0, 2024-02-09 11:24:22.949
178.0, -16659.358639640646, -8468.003090381992, 15403.86115358605, -2731.8525590720847, 46452.602321219725, 17140.032904152027, 33899.683821163635, 8760.386259601863, 29393.728601184917, 7643.246071725616, 39175.63428588323, 28271.447512083952, 39862.12341333907, 34007.419229438216, 28156.581897328128, 24633.522288027085, 0.07021875, 1.01152734375, 0.19647265625000002, 192.0, 1.0, 56.0, 15.5, 88.0, 3.0, 16.0, 0.0, 0.0, 0.0, 1.7074742629559772E9, 0.0, 2024-02-09 11:24:22.955
180.0, -16748.922079673062, -8476.720270719561, 15346.707743013829, -2722.8671578010512, 46086.771319719715, 17053.576356598896, 33730.369356914685, 8599.69956871266, 29138.225810316304, 7451.557511276903, 38905.84873030767, 28159.867603763058, 39634.4038408284, 33860.03182649992, 28013.061346180602, 24523.37289135133, 0.07021875, 1.01152734375, 0.19647265625000002, 192.0, 0.0, 0.0, 0.0, 0.0, 0.0, 0.0, 0.0, 0.0, 0.0, 1.707474262964255E9, 0.0, 2024-02-09 11:24:22.964
182.0, -16732.69471319851, -8388.833211521294, 15436.315886535156, -2730.8914340605065, 46423.0086115609, 17159.814197994972, 33910.50206548, 8778.178248188287, 29173.96624970034, 7376.03096676242, 38867.24726763336, 28197.39618270352, 39478.14279534135, 33868.301971948385, 28009.73093625676, 24469.438131980674, 0.07021875, 1.01152734375, 0.19647265625000002, 192.0, 0.0, 0.0, 0.0, 0.0, 0.0, 0.0, 0.0, 0.0, 0.0, 1.7074742629730098E9, 0.0, 2024-02-09 11:24:22.973
184.0, -16860.837264160786, -8393.23650517899, 15372.345193904066, -2721.8836810450175, 46261.20433344893, 17101.073813566425, 33826.0348231834, 8703.903401363303, 29326.583960841177, 7305.265343816918, 39155.00362575098, 28216.909255613, 39958.57119066372, 34014.281214986, 28151.463347847864, 24648.475605067684, 0.07021875, 1.01152734375, 0.19647265625000002, 192.0, 0.0, 0.0, 0.0, 0.0, 0.0, 0.0, 0.0, 0.0, 0.0, 1.7074742629803596E9, 0.0, 2024-02-09 11:24:22.980
186.0, -16837.09971154925, -8293.771242352872, 15410.007883311258, -2733.9089195619727, 46189.94697212541, 17102.727842656117, 33791.54608148886, 8669.28054920203, 29032.07737589805, 7185.66115923657, 38711.34385005759, 28148.80349025768, 39355.342311303895, 33782.73949417347, 27944.620304658452, 24410.45187836312, 0.07021875, 1.01152734375, 0.19647265625000002, 192.0, 0.0, 0.0, 0.0, 0.0, 0.0, 0.0, 0.0, 0.0, 0.0, 1.7074742629880407E9, 0.0, 2024-02-09 11:24:22.988
188.0, -16925.031474236428, -8271.397146153111, 15412.108947290058, -2756.7076989063858, 46468.472059782995, 17132.29920057049, 33938.37469081577, 8797.177230975298, 29345.47118490591, 7131.279364976807, 39132.42836385112, 28232.466069753897, 39859.12827958206, 34000.132560745784, 28148.37880711303, 24592.77505788506, 0.07021875, 1.01152734375, 0.19647265625000002, 192.0, 0.0, 0.0, 0.0, 0.0, 0.0, 0.0, 0.0, 0.0, 0.0, 1.707474262996072E9, 0.0, 2024-02-09 11:24:22.996
190.0, -17062.964089270128, -8274.25816944339, 15342.483263311777, -2749.9574720808832, 46087.84420345357, 17042.020504715503, 33735.55496162832, 8650.035697226012, 29106.6204436565, 6968.335147897619, 38880.77007302881, 28140.913324464957, 39653.13460268195, 33845.1902681816, 28023.11963118549, 24505.022109153524, 0.064, 1.002, 0.198, 192.0, 1.0, 0.0, 15.5, 40.0, 3.0, 24.0, 0.0, 0.0, 0.0, 1.7074742630041146E9, 0.0, 2024-02-09 11:24:23.004
192.0, -17070.47427540711, -8175.798735117762, 15415.372301980533, -2768.3976612565116, 46418.359448714196, 17127.515927257053, 33915.44180100463, 8785.867248280912, 29142.80791792964, 6951.817208745148, 38828.53404623676, 28169.367095156565, 39473.29246679455, 33835.37785236572, 28008.30042461162, 24435.351721686333, 0.064, 1.002, 0.198, 192.0, 0.0, 0.0, 0.0, 0.0, 0.0, 0.0, 0.0, 0.0, 0.0, 1.7074742630121293E9, 0.0, 2024-02-09 11:24:23.012
194.0, -17141.776340219538, -8164.511104167832, 15338.303487098634, -2757.4229547289556, 46264.35592941713, 17070.653089362753, 33825.54308480538, 8732.468930777184, 29320.593693327155, 6964.669461806949, 39140.34088138829, 28203.364098473085, 39947.35061494716, 33976.46206336762, 28153.43030135993, 24617.607845974904, 0.064, 1.002, 0.198, 192.0, 0.0, 0.0, 0.0, 0.0, 0.0, 0.0, 0.0, 0.0, 0.0, 1.7074742630201304E9, 0.0, 2024-02-09 11:24:23.020
196.0, -17138.937668673716, -8108.788205240751, 15368.992432235771, -2760.865123375073, 46190.796338414715, 17073.335298697388, 33800.84440718227, 8692.146383779811, 29024.88011418344, 6904.252696544254, 38681.10193980956, 28124.99888241278, 39337.32680527292, 33749.70361586852, 27931.499830663186, 24386.73667749604, 0.064, 1.002, 0.198, 192.0, 0.0, 0.0, 0.0, 0.0, 0.0, 0.0, 0.0, 0.0, 0.0, 1.7074742630293195E9, 0.0, 2024-02-09 11:24:23.029
198.0, -17136.836604694916, -8066.632815198042, 15386.09151674408, -2771.0798705911484, 46468.472059782995, 17108.1369648143, 33936.34068207034, 8787.655387837338, 29351.394397186566, 6964.311833895664, 39103.84048269278, 28219.14443005853, 39823.87957857604, 33985.603926849835, 28135.124222651033, 24582.62736590235, 0.064, 1.002, 0.198, 192.0, 0.0, 0.0, 0.0, 0.0, 0.0, 0.0, 0.0, 0.0, 0.0, 1.7074742630362852E9, 0.0, 2024-02-09 11:24:23.036
200.0, -17164.083381185937, -8040.347163718601, 15333.073178896091, -2743.475466188844, 46082.278619084194, 17037.28193489098, 33743.89216231015, 8658.1940839522, 29136.705891693342, 6915.3168100496305, 38866.86728797761, 28136.08534766261, 39625.686660490835, 33841.74809953548, 28019.83392475056, 24513.76164123555, 0.064, 1.006, 0.2, 192.0, 1.0, 0.0, 15.5, 56.0, 3.0, 32.0, 0.0, 0.0, 0.0, 1.7074742630441349E9, 0.0, 2024-02-09 11:24:23.044
202.0, -17094.122421040825, -7936.590365957066, 15430.750302165783, -2741.799085354696, 46414.492596923425, 17141.68693324172, 33941.6603972507, 8826.703885400759, 29190.886520253007, 6996.207773233387, 38835.284273062265, 28192.724668112358, 39454.51700145209, 33853.16984095214, 28014.625968292472, 24463.35845748883, 0.064, 1.006, 0.2, 192.0, 0.0, 0.0, 0.0, 0.0, 0.0, 0.0, 0.0, 0.0, 0.0, 1.7074742630521765E9, 0.0, 2024-02-09 11:24:23.052
204.0, -17117.524697485533, -7933.863453133518, 15361.303432143144, -2728.25392821478, 46263.46185963892, 17098.615121676343, 33851.13583220671, 8782.268617423608, 29369.18638577299, 7065.319367089197, 39160.636265353714, 28236.042348866744, 39940.51098114383, 34010.86139808433, 28167.444845133406, 24672.615489079417, 0.064, 1.006, 0.2, 192.0, 0.0, 0.0, 0.0, 0.0, 0.0, 0.0, 0.0, 0.0, 0.0, 1.707474263060176E9, 0.0, 2024-02-09 11:24:23.060
206.0, -17043.518071594008, -7847.071629413561, 15398.899066316972, -2717.413332153956, 46181.766233654766, 17107.667578180743, 33827.15241040616, 8727.171567341276, 29086.593280624544, 7078.819820740202, 38718.3399460721, 28170.283516679232, 39333.392898248785, 33782.381866262185, 27955.326790252544, 24450.103873026834, 0.064, 1.006, 0.2, 192.0, 0.0, 0.0, 0.0, 0.0, 0.0, 0.0, 0.0, 0.0, 0.0, 1.707474263068224E9, 0.0, 2024-02-09 11:24:23.068
208.0, -16993.539570991943, -7824.876347169441, 15411.259581000755, -2729.2374049708137, 46463.59937949174, 17144.503253043087, 33956.83723173586, 8834.147016304376, 29430.787793491818, 7217.445339852016, 39162.0444252544, 28284.45622735694, 39822.761991353276, 34019.511523188536, 28164.181490442934, 24649.302619612532, 0.064, 1.006, 0.2, 192.0, 0.0, 0.0, 0.0, 0.0, 0.0, 0.0, 0.0, 0.0, 0.0, 1.7074742630762331E9, 0.0, 2024-02-09 11:24:23.076
210.0, -16975.725230661064, -7891.015159012695, 15348.004144192237, -2721.5037013892775, 46084.245572596265, 17038.354818624834, 33746.52966815587, 8641.162054677256, 29222.849514824095, 7219.367589875173, 38949.009948850864, 28205.77808687426, 39639.90236996441, 33873.86755631775, 28045.136099473966, 24559.38155166883, 0.064, 1.01, 0.20400000000000001, 192.0, 1.0, 0.0, 15.5, 72.0, 3.0, 48.0, 0.0, 0.0, 0.0, 1.7074742630852292E9, 0.0, 2024-02-09 11:24:23.085
212.0, -16841.927688351596, -7890.702234590321, 15431.62202019954, -2732.0760765166374, 46412.5032916669, 17126.91243015676, 33906.65756543369, 8788.54945761555, 29272.872718915074, 7304.795957183356, 38908.84386406468, 28249.855726940124, 39461.80367014452, 33850.21941068404, 28023.723128285783, 24483.60913796534, 0.064, 1.01, 0.20400000000000001, 192.0, 0.0, 0.0, 0.0, 0.0, 0.0, 0.0, 0.0, 0.0, 0.0, 1.7074742630922792E9, 0.0, 2024-02-09 11:24:23.092
214.0, -16818.681874118076, -8003.399730133979, 15359.694106542363, -2721.68251534492, 46267.10519398513, 17065.04280150447, 33805.76179096244, 8703.992808341123, 29461.58849735123, 7380.143687742197, 39245.796411728435, 28291.65348907155, 39963.17565002151, 34012.58248240739, 28169.9482405124, 24668.055733210535, 0.064, 1.01, 0.20400000000000001, 192.0, 0.0, 0.0, 0.0, 0.0, 0.0, 0.0, 0.0, 0.0, 0.0, 1.7074742631002257E9, 0.0, 2024-02-09 11:24:23.100
216.0, -16726.63739045112, -8038.715486373364, 15390.986548779792, -2719.4696926438446, 46182.99557959981, 17077.984461544092, 33797.29047981388, 8678.66828187326, 29156.308371580646, 7385.485754667015, 38783.405874181495, 28208.527351442262, 39349.35204378987, 33761.70650264103, 27940.90991507887, 24417.53738135545, 0.064, 1.01, 0.20400000000000001, 192.0, 0.0, 0.0, 0.0, 0.0, 0.0, 0.0, 0.0, 0.0, 0.0, 1.7074742631083412E9, 0.0, 2024-02-09 11:24:23.108
218.0, -16647.646325546066, -8063.1682948074695, 15415.662874658452, -2719.6038031105763, 46466.8180306933, 17126.264229567558, 33920.739164440536, 8792.975103017701, 29494.490265189444, 7506.341636936861, 39213.74401017952, 28321.493067919382, 39836.9553490824, 34001.49601715756, 28152.245658903797, 24618.077232608466, 0.064, 1.01, 0.20400000000000001, 192.0, 0.0, 0.0, 0.0, 0.0, 0.0, 0.0, 0.0, 0.0, 0.0, 1.7074742631162975E9, 0.0, 2024-02-09 11:24:23.116
220.0, -16637.520985307812, -8130.402342129033, 15360.252900153746, -2701.7894627796964, 46081.31749407262, 17044.23332741658, 33725.1614004566, 8630.969659205635, 29292.631661013565, 7486.649750071735, 39005.87278674517, 28250.481575784874, 39662.49998360872, 33874.33694295132, 28034.764890046703, 24543.467109616653, 0.07, 1.01, 0.196, 192.0, 1.0, 24.0, 15.5, 72.0, 3.0, 16.0, 0.0, 0.0, 0.0, 1.7074742631242993E9, 0.0, 2024-02-09 11:24:23.124
222.0, -16533.89829801301, -8102.485013304355, 15448.654049474484, -2711.579526851121, 46403.62964911815, 17134.713188971662, 33893.35827748278, 8752.853721720425, 29325.913408507517, 7551.44745724767, 38948.89819012859, 28293.084000716688, 39463.72592016768, 33874.82868132933, 28009.999157190225, 24467.918213357712, 0.07, 1.01, 0.196, 192.0, 0.0, 0.0, 0.0, 0.0, 0.0, 0.0, 0.0, 0.0, 0.0, 1.7074742631322887E9, 0.0, 2024-02-09 11:24:23.132
224.0, -16541.564946361177, -8155.056316263237, 15385.957406277348, -2694.1451661759816, 46272.223743465394, 17088.28861573799, 33831.9356837196, 8715.52630848006, 29511.902274120126, 7596.8662019808535, 39283.79437730245, 28335.529963437315, 39971.95988559245, 34040.25394204306, 28171.579917857638, 24666.44640760975, 0.07, 1.01, 0.196, 192.0, 0.0, 0.0, 0.0, 0.0, 0.0, 0.0, 0.0, 0.0, 0.0, 1.7074742631413383E9, 0.0, 2024-02-09 11:24:23.141
226.0, -16491.49703878129, -8149.647194105053, 15422.010770083758, -2690.546535318677, 46177.429995230435, 17097.788107131495, 33788.64035470967, 8680.255255729588, 29211.651290851987, 7570.133515612307, 38831.97621488288, 28258.684665999972, 39376.77763423653, 33805.448866540064, 27962.546403711607, 24443.26423922351, 0.07, 1.01, 0.196, 192.0, 0.0, 0.0, 0.0, 0.0, 0.0, 0.0, 0.0, 0.0, 0.0, 1.7074742631473265E9, 0.0, 2024-02-09 11:24:23.147
228.0, -16466.06075359115, -8162.767668100318, 15444.161348838968, -2698.7496255337746, 46476.40692906463, 17150.87350021285, 33927.82466743287, 8796.529030386095, 29527.928474894583, 7649.7504293621105, 39245.84111521734, 28360.698027693994, 39853.450936490415, 34029.2792355155, 28164.963801498867, 24633.432881049263, 0.07, 1.01, 0.196, 192.0, 0.0, 0.0, 0.0, 0.0, 0.0, 0.0, 0.0, 0.0, 0.0, 1.70747426315631E9, 0.0, 2024-02-09 11:24:23.156
230.0, -16505.824506977144, -8227.185395620512, 15382.828162053605, -2677.806040979152, 46095.51085180174, 17078.632662133296, 33727.977720257964, 8650.90741525977, 29320.3701758826, 7605.225754407139, 39037.83578131626, 28280.567023821717, 39692.87600432349, 33913.251330048006, 28061.74344560426, 24576.838264088427, 0.074, 1.01, 0.2, 192.0, 1.0, 40.0, 15.5, 72.0, 3.0, 32.0, 0.0, 0.0, 0.0, 1.707474263164314E9, 0.0, 2024-02-09 11:24:23.164
232.0, -16431.415549685426, -8181.3866712315885, 15460.522825780254, -2698.034369711205, 46408.43527417604, 17157.78018924954, 33899.30384150789, 8775.78661153157, 29328.95324575344, 7627.331629673437, 38958.95647513348, 28299.45424788645, 39476.6675802073, 33892.46420770457, 28028.662863810405, 24494.60619623735, 0.074, 1.01, 0.2, 192.0, 0.0, 0.0, 0.0, 0.0, 0.0, 0.0, 0.0, 0.0, 0.0, 1.70747426317235E9, 0.0, 2024-02-09 11:24:23.172
234.0, -16479.40474503097, -8251.928776732539, 15389.556037134653, -2694.614552809543, 46276.60468537864, 17097.788107131495, 33820.71510800304, 8707.77025315407, 29511.45523923102, 7643.827217081454, 39285.984848259075, 28328.779736611814, 39980.98999035239, 34050.24517181458, 28171.8481387911, 24679.857454282937, 0.074, 1.01, 0.2, 192.0, 0.0, 0.0, 0.0, 0.0, 0.0, 0.0, 0.0, 0.0, 0.0, 1.7074742631805787E9, 0.0, 2024-02-09 11:24:23.180
236.0, -16470.35228852657, -8257.226140168446, 15416.445185714387, -2698.928439489417, 46179.84398363161, 17098.749232143073, 33796.73168620249, 8665.234883455621, 29204.29756692619, 7599.056672937474, 38825.136581079554, 28236.467032011395, 39387.30530587499, 33806.96878516302, 27963.68634267883, 24446.92992531418, 0.074, 1.01, 0.2, 192.0, 0.0, 0.0, 0.0, 0.0, 0.0, 0.0, 0.0, 0.0, 0.0, 1.707474263188328E9, 0.0, 2024-02-09 11:24:23.188
238.0, -16510.31720761266, -8300.83439360075, 15428.358665509066, -2717.9274222764284, 46473.210629607514, 17162.407000351788, 33925.32127205387, 8808.9789520477, 29503.386259482657, 7639.423923423758, 39229.16671385369, 28327.63979764459, 39857.407195259, 34024.29479650197, 28165.52259511025, 24630.48245078116, 0.074, 1.01, 0.2, 192.0, 0.0, 0.0, 0.0, 0.0, 0.0, 0.0, 0.0, 0.0, 0.0, 1.7074742631963823E9, 0.0, 2024-02-09 11:24:23.196
240.0, -16618.454947287435, -8352.802199459338, 15356.564862318619, -2715.6698960864423, 46091.35342733305, 17062.829978803395, 33719.662871320594, 8630.053237682967, 29263.015599610284, 7505.514622392014, 38998.83198724175, 28203.811133362193, 39696.42993169188, 33883.03177154443, 28039.88343952697, 24547.401016640786, 0.076, 1.016, 0.20600000000000002, 192.0, 1.0, 48.0, 15.5, 96.0, 3.0, 56.0, 0.0, 0.0, 0.0, 1.7074742632034004E9, 0.0, 2024-02-09 11:24:23.203
242.0, -16626.501575291346, -8295.849954587216, 15425.251773029779, -2747.1411522795147, 46406.71418985298, 17140.01055240757, 33897.4039432292, 8756.54175955555, 29243.92720984545, 7451.691621743635, 38894.561099357736, 28214.62937767856, 39470.92318188229, 33860.56826836685, 28010.53559905715, 24447.4216636922, 0.076, 1.016, 0.20600000000000002, 192.0, 0.0, 0.0, 0.0, 0.0, 0.0, 0.0, 0.0, 0.0, 0.0, 1.7074742632124407E9, 0.0, 2024-02-09 11:24:23.212
244.0, -16734.192280077015, -8329.466978247998, 15356.587214063074, -2749.1751610249476, 46283.913705815525, 17083.90767382475, 33825.76660224993, 8709.133709565844, 29396.075534352727, 7307.567573495815, 39206.27852753145, 28214.83054337866, 39969.52354544682, 33999.46200841213, 28158.370036884553, 24629.655436236317, 0.076, 1.016, 0.20600000000000002, 192.0, 0.0, 0.0, 0.0, 0.0, 0.0, 0.0, 0.0, 0.0, 0.0, 1.7074742632204018E9, 0.0, 2024-02-09 11:24:23.220
246.0, -16744.965820904472, -8240.842311482706, 15391.56769413563, -2743.2072452553807, 46183.68848367793, 17097.274017009022, 33783.074770340296, 8667.805334067982, 29066.700228059322, 7128.351286453162, 38730.65575726697, 28123.076632389624, 39362.65133174078, 33765.193374776056, 27941.647522645897, 24396.68320377865, 0.076, 1.016, 0.20600000000000002, 192.0, 0.0, 0.0, 0.0, 0.0, 0.0, 0.0, 0.0, 0.0, 0.0, 1.707474263227498E9, 0.0, 2024-02-09 11:24:23.227
248.0, -16747.759788961386, -8178.23507526339, 15418.702711904374, -2757.892341362517, 46497.70814153054, 17146.58196527743, 33944.58847577435, 8788.147126215354, 29378.507063210855, 7087.112317933121, 39135.199980163576, 28227.839258651646, 39822.87375007555, 33991.34832517485, 28155.330199638633, 24579.72163912316, 0.076, 1.016, 0.20600000000000002, 192.0, 0.0, 0.0, 0.0, 0.0, 0.0, 0.0, 0.0, 0.0, 0.0, 1.707474263236434E9, 0.0, 2024-02-09 11:24:23.236
250.0, -16817.787804339863, -8174.569389172721, 15355.916661729416, -2737.2169777413583, 46117.236747412295, 17066.026278260502, 33743.89216231015, 8638.479845342617, 29181.074104437128, 6961.853142005581, 38937.16352428956, 28154.726702538337, 39677.58741111606, 33866.29031494741, 28052.556878633128, 24518.56726629344, 0.076, 1.002, 0.214, 192.0, 1.0, 48.0, 15.5, 40.0, 3.0, 88.0, 0.0, 0.0, 0.0, 1.7074742632445002E9, 0.0, 2024-02-09 11:24:23.244
252.0, -16762.578995535256, -8074.344167035123, 15432.24786904429, -2752.97495758235, 46428.01540231889, 17151.454645568687, 33919.35335628431, 8777.530047599084, 29187.846683007087, 6941.401295828974, 38846.3707383121, 28182.57697612965, 39446.7609461261, 33849.72767230603, 28011.54142755764, 24435.396425175244, 0.076, 1.002, 0.214, 192.0, 0.0, 0.0, 0.0, 0.0, 0.0, 0.0, 0.0, 0.0, 0.0, 1.707474263251443E9, 0.0, 2024-02-09 11:24:23.251
254.0, -16819.508888662924, -8074.545332735221, 15368.008955479736, -2742.9837278108275, 46309.9311363615, 17093.653034407263, 33848.40891938316, 8743.957727427212, 29386.777208659318, 6947.0115836872565, 39198.589527438824, 28227.615741207093, 39969.90352510256, 34026.015880825034, 28175.871452793057, 24653.97413420369, 0.076, 1.002, 0.214, 192.0, 0.0, 0.0, 0.0, 0.0, 0.0, 0.0, 0.0, 0.0, 0.0, 1.7074742632595215E9, 0.0, 2024-02-09 11:24:23.259
0.0, -16793.69262381704, -8012.943925016395, 15403.637636141497, -2737.932233563928, 46194.976114627854, 17087.14867677077, 33801.537311260385, 8684.926770320746, 29072.08699847305, 6852.106076730022, 38734.38849859101, 28145.853059989582, 39366.96521842066, 33778.805587149334, 27951.549345439595, 24412.932921997657, 0.076, 1.002, 0.214, 192.0, 0.0, 0.0, 0.0, 0.0, 0.0, 0.0, 0.0, 0.0, 0.0, 1.7074742632685483E9, 0.0, 2024-02-09 11:24:23.268
2.0, -16773.821922996274, -7983.976064202317, 15434.594802212097, -2744.0566115446823, 46508.34757189126, 17146.00081992159, 33958.424205592186, 8823.015847565634, 29400.05414486577, 6857.604605866028, 39149.77331754843, 28256.762415976813, 39828.57344491166, 34007.95567130514, 28157.81124327317, 24595.233749775143, 0.076, 1.002, 0.214, 192.0, 0.0, 0.0, 0.0, 0.0, 0.0, 0.0, 0.0, 0.0, 0.0, 1.7074742632765598E9, 0.0, 2024-02-09 11:24:23.276
4.0, -16814.144469993647, -7985.875962481018, 15359.112961186525, -2740.0109457982717, 46123.87521551552, 17052.86110077633, 33744.428604177076, 8653.56727284995, 29213.97587227534, 6777.29478803811, 38961.92925714603, 28173.993906258813, 39690.685533366865, 33886.250422745994, 28056.73665484627, 24538.125042691834, 0.07, 1.008, 0.21, 192.0, 1.0, 24.0, 15.5, 64.0, 3.0, 72.0, 0.0, 0.0, 0.0, 1.707474263283523E9, 0.0, 2024-02-09 11:24:23.283
6.0, -16741.098969113704, -7875.704214060809, 15434.505395234275, -2753.4666959603665, 46423.81327436129, 17134.936706416214, 33907.52928346745, 8770.198675417743, 29217.30628219918, 6836.705724800316, 38855.35613958313, 28198.78199085975, 39432.61229188589, 33847.49249786049, 28006.19936063282, 24436.22343972009, 0.07, 1.008, 0.21, 192.0, 0.0, 0.0, 0.0, 0.0, 0.0, 0.0, 0.0, 0.0, 0.0, 1.7074742632915573E9, 0.0, 2024-02-09 11:24:23.291
8.0, -16776.392373608636, -7893.4067956694125, 15367.51721710172, -2748.8622366025734, 46308.92530786101, 17073.268243464023, 33842.46335535805, 8705.333913008442, 29422.472944554444, 6892.898010360958, 39202.52343446296, 28242.79257569225, 39953.81026909474, 34020.80792436694, 28168.987115500822, 24643.468814309697, 0.07, 1.008, 0.21, 192.0, 0.0, 0.0, 0.0, 0.0, 0.0, 0.0, 0.0, 0.0, 0.0, 1.707474263300712E9, 0.0, 2024-02-09 11:24:23.300
10.0, -16738.729684201444, -7834.577004263045, 15392.752336591762, -2744.9506813228945, 46184.984884856334, 17077.448019677166, 33801.71612521602, 8685.709081376683, 29111.85075185904, 6884.225533512299, 38739.06001318217, 28157.967705484356, 39354.358834547864, 33773.93290685808, 27943.390958713408, 24411.301244652423, 0.07, 1.008, 0.21, 192.0, 0.0, 0.0, 0.0, 0.0, 0.0, 0.0, 0.0, 0.0, 0.0, 1.707474263307541E9, 0.0, 2024-02-09 11:24:23.307
12.0, -16692.707442367966, -7778.138849513394, 15418.322732248633, -2747.968166824361, 46492.522536816905, 17133.170918604246, 33964.88385973976, 8827.642658667883, 29436.263970883367, 7013.463319952884, 39146.42055588014, 28271.201642894943, 39811.87669180354, 33999.84198806786, 28145.115452422557, 24605.739069669136, 0.07, 1.008, 0.21, 192.0, 0.0, 0.0, 0.0, 0.0, 0.0, 0.0, 0.0, 0.0, 0.0, 1.7074742633155932E9, 0.0, 2024-02-09 11:24:23.315
14.0, -16714.701558911987, -7792.8015938760755, 15349.680525026384, -2728.6339078705205, 46107.51373857424, 17050.84944377535, 33773.8211481358, 8671.962758536669, 29262.2556402988, 7036.932651630957, 38975.20619335249, 28212.52831369976, 39694.28416422417, 33889.91610883667, 28051.774567577195, 24558.37572316834, 0.074, 1.01, 0.20600000000000002, 192.0, 1.0, 40.0, 15.5, 72.0, 3.0, 56.0, 0.0, 0.0, 0.0, 1.7074742633245988E9, 0.0, 2024-02-09 11:24:23.324
16.0, -16617.270304831305, -7725.768712254609, 15437.81345341366, -2737.5969573970983, 46402.64617236211, 17131.293372070002, 33925.902417409714, 8796.461975152728, 29271.93394564795, 7151.1053623086655, 38880.591259073175, 28250.883907185067, 39442.22354200167, 33849.37004439474, 28003.181875131355, 24466.13007380129, 0.074, 1.01, 0.20600000000000002, 192.0, 0.0, 0.0, 0.0, 0.0, 0.0, 0.0, 0.0, 0.0, 0.0, 1.7074742633325913E9, 0.0, 2024-02-09 11:24:23.332
18.0, -16626.367464824612, -7802.681064925321, 15380.23535969679, -2718.9779542658275, 46295.15663327654, 17077.51507491053, 33829.924026718625, 8743.73420998266, 29484.02964878436, 7256.2926717153405, 39253.48541182106, 28308.685518346494, 39973.56921119323, 34027.84872387037, 28172.38458065803, 24671.87788151239, 0.074, 1.01, 0.20600000000000002, 192.0, 0.0, 0.0, 0.0, 0.0, 0.0, 0.0, 0.0, 0.0, 0.0, 1.7074742633396125E9, 0.0, 2024-02-09 11:24:23.339
20.0, -16567.336507718148, -7836.4098473083795, 15417.76393863725, -2701.3647796350456, 46178.86050687558, 17083.0806592799, 33794.94354664606, 8698.58368618294, 29187.06437195115, 7295.005893111932, 38806.04819131472, 28242.79257569225, 39379.795119738, 33789.35561053224, 27958.05370307609, 24449.545079415453, 0.074, 1.01, 0.20600000000000002, 192.0, 0.0, 0.0, 0.0, 0.0, 0.0, 0.0, 0.0, 0.0, 0.0, 1.707474263347652E9, 0.0, 2024-02-09 11:24:23.347
22.0, -16512.798251247197, -7885.673092087876, 15447.737627951818, -2705.9245355039284, 46498.468100842016, 17142.11161638637, 33959.85471723732, 8817.874946340913, 29509.13065780767, 7431.217423822573, 39215.68861194714, 28356.40649275857, 39827.90289257799, 34018.68450864369, 28165.388484643518, 24633.76815721609, 0.074, 1.01, 0.20600000000000002, 192.0, 0.0, 0.0, 0.0, 0.0, 0.0, 0.0, 0.0, 0.0, 0.0, 1.707474263356639E9, 0.0, 2024-02-09 11:24:23.356
24.0, -16523.61649556357, -7989.9663317163395, 15383.722231831818, -2686.6573317834536, 46106.44085484038, 17055.655068833243, 33755.2692002379, 8647.062915213457, 29331.881324277085, 7445.56724376288, 39052.61028440121, 28290.111218704133, 39719.76515290322, 33911.44083874713, 28073.36635272102, 24588.237653760632, 0.07200000000000001, 1.01, 0.20400000000000001, 192.0, 1.0, 32.0, 15.5, 72.0, 3.0, 48.0, 0.0, 0.0, 0.0, 1.7074742633636417E9, 0.0, 2024-02-09 11:24:23.363
26.0, -16437.29405847717, -7979.081032166605, 15462.266261847766, -2699.8225092676294, 46392.65494259059, 17140.904622185783, 33907.305766022895, 8764.074297436988, 29322.158315439025, 7521.362009210827, 38941.90209411408, 28319.682576618503, 39461.2672282776, 33872.3923411837, 28024.147811430434, 24484.74907693256, 0.07200000000000001, 1.01, 0.20400000000000001, 192.0, 0.0, 0.0, 0.0, 0.0, 0.0, 0.0, 0.0, 0.0, 0.0, 1.7074742633717518E9, 0.0, 2024-02-09 11:24:23.371
28.0, -16458.30469826516, -8043.0293730532385, 15398.295569216678, -2687.5961050505766, 46290.59687740766, 17099.15156354327, 33844.74323329249, 8732.20070984372, 29533.78463194187, 7577.442536049192, 39307.68839212518, 28370.46574002096, 39998.89373766109, 34054.26848581654, 28186.376772687054, 24695.70484110175, 0.07200000000000001, 1.01, 0.20400000000000001, 192.0, 0.0, 0.0, 0.0, 0.0, 0.0, 0.0, 0.0, 0.0, 0.0, 1.7074742633796432E9, 0.0, 2024-02-09 11:24:23.379
30.0, -16424.10652924854, -8046.873873099551, 15420.446147971887, -2683.7292532598085, 46156.41935544245, 17107.399357247275, 33798.43041878109, 8698.114299549377, 29219.005014777784, 7564.053841120463, 38847.62243600159, 28284.36682037912, 39397.564756579966, 33816.53533178989, 27973.34229628352, 24474.601384949852, 0.07200000000000001, 1.01, 0.20400000000000001, 192.0, 0.0, 0.0, 0.0, 0.0, 0.0, 0.0, 0.0, 0.0, 0.0, 1.7074742633887317E9, 0.0, 2024-02-09 11:24:23.388
32.0, -16383.873389228987, -8046.628003910542, 15447.648220973995, -2697.1402999329925, 46471.48954528446, 17152.996915936103, 33954.60205729032, 8819.864251597435, 29529.828373173284, 7659.987528322641, 39237.43685930215, 28385.66492625057, 39823.61135764258, 34027.53579944799, 28162.81803403116, 24646.061616666513, 0.07200000000000001, 1.01, 0.20400000000000001, 192.0, 0.0, 0.0, 0.0, 0.0, 0.0, 0.0, 0.0, 0.0, 0.0, 1.7074742633960044E9, 0.0, 2024-02-09 11:24:23.396
34.0, -16422.474851903302, -8100.227487114369, 15378.111943973536, -2684.95859920485, 46086.279581341696, 17055.14097871077, 33742.70751985401, 8643.62074656734, 29351.61791463112, 7625.029399994541, 39068.94940959804, 28309.31136719124, 39717.44057147987, 33916.06764984938, 28070.639439897473, 24594.33967999693, 0.07200000000000001, 1.0070000000000001, 0.203, 192.0, 1.0, 32.0, 15.5, 48.0, 3.0, 40.0, 0.0, 0.0, 0.0, 1.7074742634038188E9, 0.0, 2024-02-09 11:24:23.403
36.0, -16348.647039967424, -8059.793181394718, 15455.381924555531, -2706.840957026596, 46376.87461100514, 17132.500366270586, 33908.423353245664, 8756.430000833274, 29338.005702257837, 7660.769839378577, 38945.813649393756, 28328.198591255976, 39451.41010897281, 33869.956001038074, 28019.610407306005, 24486.42545776671, 0.07200000000000001, 1.0070000000000001, 0.203, 192.0, 0.0, 0.0, 0.0, 0.0, 0.0, 0.0, 0.0, 0.0, 0.0, 1.7074742634118237E9, 0.0, 2024-02-09 11:24:23.411
38.0, -16383.7169270178, -8109.682275018964, 15388.706670845351, -2703.130567447015, 46277.85638306813, 17082.633624390797, 33839.423518112126, 8720.287230049042, 29549.833184460782, 7693.76101419461, 39315.131523028795, 28375.919565668057, 39990.668295701544, 34042.9361513777, 28189.506016910796, 24693.380259678397, 0.07200000000000001, 1.0070000000000001, 0.203, 192.0, 0.0, 0.0, 0.0, 0.0, 0.0, 0.0, 0.0, 0.0, 0.0, 1.7074742634198124E9, 0.0, 2024-02-09 11:24:23.419
40.0, -16352.111560357996, -8099.109899891603, 15408.934999577405, -2700.9177447459397, 46132.03360224171, 17068.88730155078, 33782.15834881763, 8653.589624594406, 29234.673587640955, 7647.381144449848, 38845.99075865636, 28280.388209866072, 39393.07205594445, 33790.0261628659, 27962.613458944972, 24449.36626545981, 0.07200000000000001, 1.0070000000000001, 0.203, 192.0, 0.0, 0.0, 0.0, 0.0, 0.0, 0.0, 0.0, 0.0, 0.0, 1.7074742634277747E9, 0.0, 2024-02-09 11:24:23.427
42.0, -16325.334170500539, -8099.042844658237, 15436.986438868815, -2717.6815530874196, 46447.43906825055, 17125.23604932261, 33938.53115302696, 8778.714690055214, 29543.306475079833, 7726.506319821635, 39235.156981367705, 28381.306336081787, 39823.76781985376, 34013.074220785405, 28146.791833256702, 24622.279360566066, 0.07200000000000001, 1.0070000000000001, 0.203, 192.0, 0.0, 0.0, 0.0, 0.0, 0.0, 0.0, 0.0, 0.0, 0.0, 1.707474263437768E9, 0.0, 2024-02-09 11:24:23.437
44.0, -16369.456514055315, -8147.501426637344, 15369.37241189151, -2695.7991952656744, 46061.91617988541, 17047.56373734042, 33732.64923484912, 8620.933725945202, 29367.644115405576, 7681.288740788548, 39069.66466542061, 28303.74578282187, 39727.52120822921, 33903.64007993222, 28055.1720327344, 24578.738162367128, 0.07100000000000001, 1.0085000000000002, 0.20650000000000002, 192.0, 1.0, 24.0, 15.5, 72.0, 3.0, 72.0, 0.0, 0.0, 0.0, 1.707474263444772E9, 0.0, 2024-02-09 11:24:23.444
46.0, -16311.006702304687, -8111.045731430738, 15446.53063375123, -2708.8302622831184, 46342.72114547744, 17122.933819643717, 33864.36806492425, 8717.448558503218, 29336.351673168145, 7714.2575638601265, 38934.905998099566, 28322.32008246423, 39439.34016696694, 33854.376835152725, 27993.704735482304, 24469.885166869783, 0.07100000000000001, 1.0085000000000002, 0.20650000000000002, 192.0, 0.0, 0.0, 0.0, 0.0, 0.0, 0.0, 0.0, 0.0, 0.0, 1.7074742634519238E9, 0.0, 2024-02-09 11:24:23.451
48.0, -16362.438066296349, -8164.153476256547, 15397.312092460645, -2683.2151631373363, 46267.37341491859, 17091.10493553936, 33828.40410809566, 8715.72747418016, 29552.649504262154, 7760.503323138157, 39313.27632823901, 28378.020629646857, 39986.44381599949, 34044.8360496564, 28173.412760902975, 24692.84381781147, 0.07100000000000001, 1.0085000000000002, 0.20650000000000002, 192.0, 0.0, 0.0, 0.0, 0.0, 0.0, 0.0, 0.0, 0.0, 0.0, 1.7074742634598331E9, 0.0, 2024-02-09 11:24:23.459
50.0, -16384.789810751656, -8198.463403995444, 15428.313962020155, -2674.162706632937, 46135.40871565446, 17090.032051805505, 33801.91729091612, 8672.588607381416, 29222.35777644608, 7718.303229606538, 38842.1686103545, 28285.193834923964, 39397.78827402452, 33801.06792462682, 27967.262621791677, 24468.633469180284, 0.07100000000000001, 1.0085000000000002, 0.20650000000000002, 192.0, 0.0, 0.0, 0.0, 0.0, 0.0, 0.0, 0.0, 0.0, 0.0, 1.7074742634678197E9, 0.0, 2024-02-09 11:24:23.467
52.0, -16447.508805693247, -8278.281483445346, 15438.841633658605, -2710.327829161624, 46457.40794627761, 17136.501328528087, 33960.927600971176, 8799.904143798845, 29502.514541448898, 7763.587863872989, 39204.98212635305, 28366.420074274552, 39815.184749982924, 34006.88278757129, 28164.986153243324, 24636.651532250828, 0.07100000000000001, 1.0085000000000002, 0.20650000000000002, 192.0, 0.0, 0.0, 0.0, 0.0, 0.0, 0.0, 0.0, 0.0, 0.0, 1.7074742634757943E9, 0.0, 2024-02-09 11:24:23.475
54.0, -16569.728144374865, -8387.670920809618, 15355.111998929026, -2709.1208349610374, 46075.41663353642, 17040.56764132591, 33753.59281940375, 8627.99687719308, 29284.406219054013, 7661.686260901244, 39016.266347916884, 28246.994703649845, 39720.9274436149, 33884.50698667848, 28069.231279996788, 24584.616671158874, 0.07350000000000001, 1.00825, 0.20725000000000002, 192.0, 1.0, 48.0, 15.5, 64.0, 3.0, 64.0, 0.0, 0.0, 0.0, 1.7074742634838982E9, 0.0, 2024-02-09 11:24:23.483
56.0, -16556.94294654643, -8390.643702822174, 15428.96216260936, -2730.06441951566, 46359.10497416317, 17122.173860332234, 33916.98407137204, 8741.141407625844, 29219.653215366987, 7665.508409203102, 38854.439718060465, 28243.798404192738, 39422.7551725811, 33821.184494636596, 27999.44913380732, 24460.877413854294, 0.07350000000000001, 1.00825, 0.20725000000000002, 192.0, 0.0, 0.0, 0.0, 0.0, 0.0, 0.0, 0.0, 0.0, 0.0, 1.7074742634918313E9, 0.0, 2024-02-09 11:24:23.491
58.0, -16625.786319468774, -8406.580496618808, 15360.588176320574, -2722.934213034417, 46279.93509530248, 17082.14188601278, 33858.0425212434, 8709.67015143277, 29428.262046368367, 7663.139124290839, 39229.45728653161, 28281.528148833295, 39977.97250485093, 34012.49307542957, 28179.179510972444, 24681.243262439166, 0.07350000000000001, 1.00825, 0.20725000000000002, 192.0, 0.0, 0.0, 0.0, 0.0, 0.0, 0.0, 0.0, 0.0, 0.0, 1.7074742634998355E9, 0.0, 2024-02-09 11:24:23.499
60.0, -16640.449063831456, -8404.233563451, 15374.669775327418, -2726.6893061029086, 46119.628384069016, 17070.51897889602, 33778.604421449236, 8645.028906468024, 29081.43002765537, 7578.336605827404, 38748.38069062003, 28180.185339472933, 39374.922439446746, 33760.499508440436, 27940.06054878957, 24433.049492007434, 0.07350000000000001, 1.00825, 0.20725000000000002, 192.0, 0.0, 0.0, 0.0, 0.0, 0.0, 0.0, 0.0, 0.0, 0.0, 1.7074742635078647E9, 0.0, 2024-02-09 11:24:23.507
62.0, -16641.20902314294, -8387.46975510952, 15406.118679776035, -2744.25777724478, 46448.891931640144, 17130.39930229179, 33936.743013470536, 8783.319149413008, 29371.24274626288, 7551.335698525393, 39115.128113642706, 28267.40184633754, 39781.34420887759, 33975.47858661158, 28120.95321666637, 24591.590415428927, 0.07350000000000001, 1.00825, 0.20725000000000002, 192.0, 0.0, 0.0, 0.0, 0.0, 0.0, 0.0, 0.0, 0.0, 0.0, 1.7074742635158772E9, 0.0, 2024-02-09 11:24:23.515
64.0, -16717.361416502168, -8393.012987734435, 15330.301562583634, -2743.0060795552827, 46067.9735026328, 17021.255734116523, 33743.95921754351, 8604.549897259461, 29202.598834347587, 7397.958028073076, 38966.489013014914, 28186.28736570923, 39709.39394347596, 33878.80729184238, 28041.336302916567, 24543.444757872196, 0.07875000000000001, 1.0081250000000002, 0.208625, 192.0, 1.0, 80.0, 15.5, 64.0, 3.0, 72.0, 0.0, 0.0, 0.0, 1.7074742635240483E9, 0.0, 2024-02-09 11:24:23.524
66.0, -16687.566541143246, -8318.581678698263, 15409.404386210965, -2756.864161117573, 46344.4869332894, 17108.516944470044, 33897.96273684058, 8737.63218374636, 29150.09458662207, 7328.5558615393475, 38803.83536861365, 28187.136731998533, 39408.18183519624, 33811.75205847646, 27961.920554866858, 24414.07286096488, 0.07875000000000001, 1.0081250000000002, 0.208625, 192.0, 0.0, 0.0, 0.0, 0.0, 0.0, 0.0, 0.0, 0.0, 0.0, 1.7074742635308664E9, 0.0, 2024-02-09 11:24:23.530
68.0, -16750.665515740577, -8309.93155359406, 15357.41422860792, -2746.6494139014976, 46270.32384518669, 17063.656993348242, 33849.86178277276, 8700.170660039266, 29381.748066156873, 7280.968997593999, 39192.66631515817, 28246.905296672023, 39964.65086515556, 34010.771991106514, 28143.48377507732, 24639.40079681883, 0.07875000000000001, 1.0081250000000002, 0.208625, 192.0, 0.0, 0.0, 0.0, 0.0, 0.0, 0.0, 0.0, 0.0, 0.0, 1.7074742635399296E9, 0.0, 2024-02-09 11:24:23.539
70.0, -16801.783955309864, -8284.11528874818, 15371.160551447934, -2751.700908148397, 46111.24647989828, 17050.313001908424, 33779.297325527354, 8645.1406651903, 29043.499117314714, 7109.3746554106065, 38707.43229477791, 28139.035777930712, 39367.34519807639, 33756.655008394126, 27917.552342123076, 24397.68903227914, 0.07875000000000001, 1.0081250000000002, 0.208625, 192.0, 0.0, 0.0, 0.0, 0.0, 0.0, 0.0, 0.0, 0.0, 0.0, 1.7074742635480275E9, 0.0, 2024-02-09 11:24:23.548
72.0, -16794.832562784264, -8196.451746994466, 15403.101194274568, -2760.2392745303246, 46447.14849557263, 17115.110709084358, 33939.760498972, 8773.819658019502, 29333.80357430024, 7068.985053179867, 39074.49264222296, 28239.596276235137, 39774.638685541, 33962.29105738295, 28105.955196136856, 24564.991839527112, 0.07875000000000001, 1.0081250000000002, 0.208625, 192.0, 0.0, 0.0, 0.0, 0.0, 0.0, 0.0, 0.0, 0.0, 0.0, 1.7074742635559516E9, 0.0, 2024-02-09 11:24:23.555
74.0, -16886.67588075112, -8210.57804949022, 15342.259745867223, -2726.286974702713, 46076.154241103446, 17058.873720034804, 33769.26139226692, 8675.67314811625, 29180.69412478139, 6915.741493194282, 38953.48029774193, 28192.076467523155, 39719.09460056956, 33881.75772211048, 28040.64339883845, 24541.678970060228, 0.083375, 1.0100625, 0.2073125, 192.0, 1.0, 96.0, 15.5, 80.0, 3.0, 56.0, 0.0, 0.0, 0.0, 1.7074742635639591E9, 0.0, 2024-02-09 11:24:23.563
76.0, -16872.281357321903, -8116.812481500207, 15419.865002616049, -2741.553216165688, 46341.35768906566, 17140.591697763408, 33899.88498686373, 8782.581541845982, 29126.66995843291, 6794.148003357412, 38794.40293245351, 28200.234854249342, 39408.02537298505, 33821.47506731452, 27975.622174217962, 24432.289532695955, 0.083375, 1.0100625, 0.2073125, 192.0, 0.0, 0.0, 0.0, 0.0, 0.0, 0.0, 0.0, 0.0, 0.0, 1.7074742635719833E9, 0.0, 2024-02-09 11:24:23.571
78.0, -16972.55128294841, -8129.485920606366, 15360.655231553941, -2739.586262653621, 46288.27229598431, 17089.629720405308, 33881.66831513266, 8743.063657649, 29355.417711188522, 6745.868235333948, 39183.435044698126, 28255.175442120486, 39963.57798142171, 34013.09657252987, 28152.647990303994, 24647.290962611554, 0.083375, 1.0100625, 0.2073125, 192.0, 0.0, 0.0, 0.0, 0.0, 0.0, 0.0, 0.0, 0.0, 0.0, 1.707474263581002E9, 0.0, 2024-02-09 11:24:23.581
80.0, -16992.489039002543, -8080.334434549146, 15376.346156161566, -2737.8875300750174, 46129.2396341848, 17081.448981934667, 33811.193264865076, 8704.663360674782, 29024.187210105327, 6607.130957499857, 38706.1358935995, 28146.90359197898, 39367.88163994332, 33766.62388642119, 27934.137336508913, 24410.78715452995, 0.083375, 1.0100625, 0.2073125, 192.0, 0.0, 0.0, 0.0, 0.0, 0.0, 0.0, 0.0, 0.0, 0.0, 1.7074742635870087E9, 0.0, 2024-02-09 11:24:23.587
82.0, -17012.672664245685, -8047.477370199844, 15407.348025721078, -2757.73587915133, 46470.30490282833, 17148.615974022865, 33972.01406622101, 8853.861254913958, 29321.28659740527, 6601.610076619396, 39067.58595318627, 28244.960694904414, 39756.77964172121, 33974.09277845535, 28109.397364782973, 24570.557423896484, 0.083375, 1.0100625, 0.2073125, 192.0, 0.0, 0.0, 0.0, 0.0, 0.0, 0.0, 0.0, 0.0, 0.0, 1.7074742635960145E9, 0.0, 2024-02-09 11:24:23.596
84.0, -17086.053441292457, -8062.967129107372, 15336.537699286664, -2739.7203731203526, 46096.494328557776, 17061.66768809172, 33791.65784021113, 8698.717796649671, 29159.325857082113, 6502.703607404663, 38936.716489400445, 28172.406932402486, 39712.366725488515, 33888.7985216139, 28046.70072158584, 24550.440853886706, 0.0796875, 1.00303125, 0.20765625000000001, 192.0, 1.0, 48.0, 15.5, 16.0, 3.0, 64.0, 0.0, 0.0, 0.0, 1.707474263604345E9, 0.0, 2024-02-09 11:24:23.604
86.0, -17048.435455374176, -7989.0275584492165, 15411.840726356593, -2758.093507062615, 46355.8416194727, 17136.031941894526, 33933.2114378466, 8798.920667042812, 29110.487295447267, 6515.913488377749, 38765.52447861725, 28178.598365616606, 39390.993343710106, 33822.860875470746, 27974.661049206385, 24427.618018104797, 0.0796875, 1.00303125, 0.20765625000000001, 192.0, 0.0, 0.0, 0.0, 0.0, 0.0, 0.0, 0.0, 0.0, 0.0, 1.7074742636120257E9, 0.0, 2024-02-09 11:24:23.612
88.0, -17098.793935631984, -8013.189794205403, 15346.283059869178, -2750.6280244145423, 46294.195508264966, 17089.33914772739, 33889.24555650301, 8766.711803282715, 29342.252533704348, 6558.113581909369, 39137.88218949821, 28219.792630647735, 39941.96384453343, 34008.89444457227, 28147.37297861254, 24639.803128219024, 0.0796875, 1.00303125, 0.20765625000000001, 192.0, 0.0, 0.0, 0.0, 0.0, 0.0, 0.0, 0.0, 0.0, 0.0, 1.707474263620041E9, 0.0, 2024-02-09 11:24:23.620
90.0, -17085.204075003156, -7976.130601898504, 15355.693144284862, -2745.0847917896263, 46117.34850613457, 17072.41887717472, 33798.20690133654, 8707.189107798233, 29010.440887265315, 6542.467360790653, 38672.4294629609, 28131.123260393535, 39352.10130835787, 33767.18268003257, 27928.750566095183, 24423.75116631403, 0.0796875, 1.00303125, 0.20765625000000001, 192.0, 0.0, 0.0, 0.0, 0.0, 0.0, 0.0, 0.0, 0.0, 0.0, 1.70747426362807E9, 0.0, 2024-02-09 11:24:23.628
92.0, -17060.3265834244, -7954.494113265767, 15383.766935320727, -2773.2926932922237, 46448.266082795395, 17116.518868985044, 33956.77017650249, 8821.585335920494, 29306.020355942295, 6656.662423212818, 39026.972833510976, 28218.429174235964, 39731.321004786616, 33960.435862593156, 28093.527626219708, 24568.81398782897, 0.0796875, 1.00303125, 0.20765625000000001, 192.0, 0.0, 0.0, 0.0, 0.0, 0.0, 0.0, 0.0, 0.0, 0.0, 1.7074742636360412E9, 0.0, 2024-02-09 11:24:23.636
94.0, -17101.63260717781, -7985.026596191717, 15316.59994323253, -2758.6299489295425, 46075.39428179196, 17027.80479524193, 33780.03493309438, 8677.304825461486, 29168.802996731163, 6640.569167204996, 38908.21801521993, 28149.00465595778, 39703.24721375075, 33869.978352782535, 28032.239142923256, 24555.67116208925, 0.07284375, 1.002515625, 0.20682812500000003, 192.0, 1.0, 8.0, 15.5, 40.0, 3.0, 56.0, 0.0, 0.0, 0.0, 1.7074742636431623E9, 0.0, 2024-02-09 11:24:23.643
96.0, -17048.077827462894, -7912.718702878798, 15392.528819147208, -2777.74069043883, 46331.41116278305, 17105.365348501844, 33916.91701613868, 8771.271559151597, 29118.556275195635, 6693.9004294753595, 38734.23203637982, 28154.43612986042, 39371.614381267354, 33774.29053476936, 27952.421063473354, 24426.79100355995, 0.07284375, 1.002515625, 0.20682812500000003, 192.0, 0.0, 0.0, 0.0, 0.0, 0.0, 0.0, 0.0, 0.0, 0.0, 1.7074742636520898E9, 0.0, 2024-02-09 11:24:23.652
98.0, -17067.434438161188, -7931.896499621452, 15332.827309707083, -2774.030300859249, 46281.924400559, 17070.80955157394, 33879.544899409404, 8757.59229154495, 29366.370065971623, 6790.907000411392, 39135.9375877306, 28210.024918320767, 39932.151428717545, 33982.16175820372, 28134.386615084008, 24643.468814309697, 0.07284375, 1.002515625, 0.20682812500000003, 192.0, 0.0, 0.0, 0.0, 0.0, 0.0, 0.0, 0.0, 0.0, 0.0, 1.7074742636600735E9, 0.0, 2024-02-09 11:24:23.660
100.0, -17024.362626595812, -7888.623522355977, 15346.372466847, -2762.83207688714, 46100.808215237645, 17055.76682755552, 33784.99702036346, 8691.408776212786, 29049.93641971784, 6810.017741920679, 38674.99991357326, 28110.62671072802, 39344.90404664326, 33736.49373489544, 27918.24524620119, 24425.472250637085, 0.07284375, 1.002515625, 0.20682812500000003, 192.0, 0.0, 0.0, 0.0, 0.0, 0.0, 0.0, 0.0, 0.0, 0.0, 1.707474263668317E9, 0.0, 2024-02-09 11:24:23.668
102.0, -16931.088796983815, -7851.094943415516, 15395.792173837683, -2760.6192541860646, 46457.698518955534, 17122.687950454707, 33964.74974927303, 8816.310324229042, 29352.04259777577, 6989.725767341348, 39052.18560125656, 28229.292122041243, 39724.61548145002, 33939.38051931626, 28098.668527444428, 24582.96264206918, 0.07284375, 1.002515625, 0.20682812500000003, 192.0, 0.0, 0.0, 0.0, 0.0, 0.0, 0.0, 0.0, 0.0, 0.0, 1.7074742636751196E9, 0.0, 2024-02-09 11:24:23.675
104.0, -16911.82159326334, -7926.353266996535, 15333.408455062921, -2723.671820601442, 46085.81019470814, 17044.367437883313, 33788.103912842744, 8678.020081284056, 29220.636692123022, 7043.928747645467, 38961.124594345645, 28187.53906339873, 39707.42698996389, 33875.99097204101, 28048.69002684236, 24578.24642398911, 0.076421875, 1.0052578125, 0.20741406250000002, 192.0, 1.0, 64.0, 15.5, 64.0, 3.0, 64.0, 0.0, 0.0, 0.0, 1.7074742636840887E9, 0.0, 2024-02-09 11:24:23.684
106.0, -16770.93854796154, -7903.934467307862, 15428.179851553423, -2716.809835053663, 46349.0913926472, 17151.387590335322, 33936.56419951489, 8833.275298270619, 29183.555148071668, 7159.353156012673, 38804.57297618067, 28221.044328337233, 39379.70571276018, 33825.431326083104, 27981.880662665448, 24471.382733748287, 0.076421875, 1.0052578125, 0.20741406250000002, 192.0, 0.0, 0.0, 0.0, 0.0, 0.0, 0.0, 0.0, 0.0, 0.0, 1.707474263692138E9, 0.0, 2024-02-09 11:24:23.692
108.0, -16745.055227882294, -7993.095575940082, 15376.32380441711, -2704.9187070034395, 46318.62596495461, 17112.00381660507, 33921.43206851865, 8802.921629300312, 29449.026816967347, 7263.624043896681, 39231.29012957694, 28297.196721696466, 39964.20383026646, 34032.56494195043, 28182.442865662917, 24712.669815143327, 0.076421875, 1.0052578125, 0.20741406250000002, 192.0, 0.0, 0.0, 0.0, 0.0, 0.0, 0.0, 0.0, 0.0, 0.0, 1.7074742636991127E9, 0.0, 2024-02-09 11:24:23.699
110.0, -16693.467401679445, -8036.569718905655, 15385.063336499135, -2703.510547102755, 46133.73233482031, 17083.639452891286, 33820.60334928076, 8705.445671730718, 29134.4260137589, 7271.938892834055, 38779.96370553538, 28208.795572375726, 39388.48994833112, 33783.16417731812, 27961.093540322014, 24478.758809418538, 0.076421875, 1.0052578125, 0.20741406250000002, 192.0, 0.0, 0.0, 0.0, 0.0, 0.0, 0.0, 0.0, 0.0, 0.0, 1.7074742637081327E9, 0.0, 2024-02-09 11:24:23.708
112.0, -16615.415110041515, -8049.421971967456, 15428.33631376461, -2715.9604687643614, 46478.15036513214, 17146.58196527743, 33989.381371662785, 8830.12370230242, 29435.883991227627, 7401.08727229682, 39140.05030871038, 28319.146134751576, 39761.69702550137, 33984.39693264925, 28130.09508014859, 24618.323101797476, 0.076421875, 1.0052578125, 0.20741406250000002, 192.0, 0.0, 0.0, 0.0, 0.0, 0.0, 0.0, 0.0, 0.0, 0.0, 1.7074742637161272E9, 0.0, 2024-02-09 11:24:23.716
114.0, -16636.00106668485, -8121.2157751579025, 15355.46962684031, -2705.6563145704645, 46099.93649720389, 17050.067132719414, 33789.4226657656, 8670.28637770252, 29310.535408322266, 7398.673283895646, 39044.16132499711, 28260.606916023127, 39750.252932340256, 33907.752800912, 28071.22058525331, 24602.073383578467, 0.0792109375, 1.00662890625, 0.20870703125, 192.0, 1.0, 72.0, 15.5, 64.0, 3.0, 72.0, 0.0, 0.0, 0.0, 1.7074742637241223E9, 0.0, 2024-02-09 11:24:23.724
116.0, -16537.474577125857, -8087.107013119104, 15447.335296551622, -2713.3453146630904, 46357.60740728467, 17131.561593003466, 33936.34068207034, 8775.45133536474, 29255.55011696221, 7461.369927092783, 38863.13454665358, 28270.911070217022, 39415.96024226669, 33827.44298308408, 27994.1070668825, 24470.80158839245, 0.0792109375, 1.00662890625, 0.20870703125, 192.0, 0.0, 0.0, 0.0, 0.0, 0.0, 0.0, 0.0, 0.0, 0.0, 1.707474263732138E9, 0.0, 2024-02-09 11:24:23.732
118.0, -16543.576603362155, -8137.733714310374, 15406.453955942865, -2694.5922010650875, 46319.274165543815, 17098.86099086535, 33893.89471934971, 8745.947032683735, 29510.002375841425, 7532.359067482837, 39272.283228907974, 28333.85358260317, 39987.382589266614, 34029.41334598224, 28191.920005311968, 24702.07508827151, 0.0792109375, 1.00662890625, 0.20870703125, 192.0, 0.0, 0.0, 0.0, 0.0, 0.0, 0.0, 0.0, 0.0, 0.0, 1.7074742637394538E9, 0.0, 2024-02-09 11:24:23.739
120.0, -16497.73317548432, -8129.776493284285, 15419.082691560114, -2678.163668890437, 46129.887834774, 17091.306101239457, 33802.297270571864, 8674.756726593581, 29194.06046796566, 7514.030637029486, 38818.34165076514, 28256.762415976813, 39411.1546172088, 33785.22053780801, 27969.654258448394, 24482.80447516495, 0.0792109375, 1.00662890625, 0.20870703125, 192.0, 0.0, 0.0, 0.0, 0.0, 0.0, 0.0, 0.0, 0.0, 0.0, 1.7074742637471516E9, 0.0, 2024-02-09 11:24:23.747
122.0, -16443.954878324854, -8118.555917567721, 15442.954354638381, -2698.995494722783, 46477.81508896531, 17149.30887810098, 33966.85081325183, 8814.656295139348, 29488.634108142152, 7602.342379372404, 39169.12992824673, 28355.579478213727, 39772.71643551784, 33984.21811869361, 28136.46532731835, 24629.11899436939, 0.0792109375, 1.00662890625, 0.20870703125, 192.0, 0.0, 0.0, 0.0, 0.0, 0.0, 0.0, 0.0, 0.0, 0.0, 1.7074742637561948E9, 0.0, 2024-02-09 11:24:23.756
124.0, -16471.134599582507, -8162.320633211212, 15370.512350858731, -2676.733157245297, 46101.21054663784, 17062.31588868092, 33758.93488632856, 8663.938482277214, 29369.99104857338, 7573.553332513969, 39083.58980221627, 28300.951814764958, 39767.19555463738, 33925.32127205387, 28078.730771390292, 24620.91590415429, 0.07760546874999999, 1.0083144531250001, 0.207353515625, 192.0, 1.0, 48.0, 15.5, 72.0, 3.0, 56.0, 0.0, 0.0, 0.0, 1.7074742637632213E9, 0.0, 2024-02-09 11:24:23.763
126.0, -16390.19893290984, -8115.940763466449, 15456.097180378101, -2679.8847532134955, 46357.04861367329, 17156.372029348855, 33922.43789701914, 8799.814736821025, 29306.243873386848, 7607.282114897027, 38897.08684648119, 28309.333718935697, 39415.20028295521, 33840.541105334894, 27997.72804948426, 24492.348670047366, 0.07760546874999999, 1.0083144531250001, 0.207353515625, 192.0, 0.0, 0.0, 0.0, 0.0, 0.0, 0.0, 0.0, 0.0, 0.0, 1.7074742637714365E9, 0.0, 2024-02-09 11:24:23.771
128.0, -16402.850020271544, -8145.668583592008, 15411.214877511846, -2661.422212293412, 46324.92915689101, 17132.165090103757, 33897.35923974028, 8777.887675510368, 29563.780673000896, 7654.667813142278, 39314.662136395236, 28383.47445529395, 39995.63038297062, 34060.8398986864, 28194.28929022423, 24724.09155655999, 0.07760546874999999, 1.0083144531250001, 0.207353515625, 192.0, 0.0, 0.0, 0.0, 0.0, 0.0, 0.0, 0.0, 0.0, 0.0, 1.7074742637802448E9, 0.0, 2024-02-09 11:24:23.780
130.0, -16389.10369743153, -8139.745371311352, 15414.81350836915, -2661.6233779935096, 46123.45053237087, 17110.930932871215, 33801.939642660574, 8701.556468195495, 29242.809622622684, 7616.535737101524, 38857.61366577312, 28298.783695552793, 39418.32952717895, 33817.56351203484, 27965.452130490798, 24494.94147240418, 0.07760546874999999, 1.0083144531250001, 0.207353515625, 192.0, 0.0, 0.0, 0.0, 0.0, 0.0, 0.0, 0.0, 0.0, 0.0, 1.7074742637882135E9, 0.0, 2024-02-09 11:24:23.788
132.0, -16366.349621576026, -8140.572385856198, 15446.86590991806, -2686.813793994641, 46472.83064995178, 17160.618860795363, 33980.26185992502, 8831.621269180927, 29516.149105566634, 7678.181848309261, 39189.581774423335, 28385.307298339285, 39766.92733370392, 33998.523235145, 28131.95027493838, 24630.951837414723, 0.07760546874999999, 1.0083144531250001, 0.207353515625, 192.0, 0.0, 0.0, 0.0, 0.0, 0.0, 0.0, 0.0, 0.0, 0.0, 1.707474263795321E9, 0.0, 2024-02-09 11:24:23.795
134.0, -16433.091930519575, -8215.875412926127, 15380.123600974513, -2677.4037095789563, 46113.36989562153, 17069.602557373353, 33803.10193337225, 8683.250389486599, 29379.356429500156, 7624.358847660881, 39095.749151199954, 28312.619425370627, 39772.87289772903, 33926.394155787726, 28088.0290970837, 24620.982959387657, 0.07760546874999999, 1.0083144531250001, 0.207353515625, 192.0, 0.0, 0.0, 0.0, 0.0, 0.0, 0.0, 0.0, 0.0, 0.0, 1.7074742638033032E9, 0.0, 2024-02-09 11:24:23.803
136.0, -16382.599339795035, -8176.446935706966, 15470.625814274052, -2687.5290498172108, 46362.41303234256, 17155.232090381633, 33943.22501936257, 8791.656350094838, 29287.490759788845, 7623.822405793954, 38884.94984924196, 28300.12480022011, 39411.691059075725, 33832.49447733098, 28006.64639552193, 24481.664536197728, 0.078, 1.012, 0.216, 192.0, 1.0, 56.0, 15.5, 80.0, 3.0, 96.0, 0.0, 0.0, 0.0, 1.7074742638122957E9, 0.0, 2024-02-09 11:24:23.812
138.0, -16447.55350918216, -8238.182453892525, 15419.932057849415, -2679.035386924194, 46335.74740120738, 17123.58202023292, 33909.29507127942, 8769.237550406164, 29533.78463194187, 7648.230510739149, 39304.6262031348, 28361.055655605276, 39995.831548670714, 34047.45120375767, 28207.0074328193, 24718.302454746063, 0.078, 1.012, 0.216, 192.0, 0.0, 0.0, 0.0, 0.0, 0.0, 0.0, 0.0, 0.0, 0.0, 1.707474263819283E9, 0.0, 2024-02-09 11:24:23.819
140.0, -16505.13160289903, -8299.06860578878, 15416.66870315894, -2682.544610803677, 46124.32225040463, 17089.450906449667, 33794.07182861231, 8656.964738007156, 29185.16447367245, 7574.44740229218, 38829.49517124834, 28248.045235639245, 39420.60940511339, 33802.587843249785, 27976.53859574063, 24481.217501308623, 0.078, 1.012, 0.216, 192.0, 0.0, 0.0, 0.0, 0.0, 0.0, 0.0, 0.0, 0.0, 0.0, 1.7074742638275664E9, 0.0, 2024-02-09 11:24:23.827
142.0, -16525.494042097813, -8280.740175335428, 15451.291555320211, -2692.6923027863863, 46484.67707451309, 17173.58287257944, 33967.633124307766, 8831.196586036276, 29436.040453438814, 7596.843850236399, 39148.00752973647, 28319.21318998494, 39759.03716791119, 33987.50382512854, 28131.257370860265, 24607.840133647936, 0.078, 1.012, 0.216, 192.0, 0.0, 0.0, 0.0, 0.0, 0.0, 0.0, 0.0, 0.0, 0.0, 1.7074742638353305E9, 0.0, 2024-02-09 11:24:23.835
144.0, -16662.35377339766, -8374.639853792174, 15365.75142928975, -2677.0237299232163, 46116.92382298992, 17090.546141927975, 33765.10396779823, 8681.23873248562, 29287.98249816686, 7530.816797115422, 39060.25458100493, 28250.034540895766, 39775.53275531921, 33932.20560934611, 28089.526663962206, 24626.615598990393, 0.078, 1.012, 0.216, 192.0, 0.0, 0.0, 0.0, 0.0, 0.0, 0.0, 0.0, 0.0, 0.0, 1.707474263844414E9, 0.0, 2024-02-09 11:24:23.844
146.0, -16667.29350892228, -8326.896527635638, 15439.690999947907, -2699.889564500995, 46369.833811501725, 17165.424485853255, 33938.553504771415, 8776.88184700988, 29163.39387457298, 7449.367040320282, 38822.141447322545, 28222.944226615935, 39398.63764031382, 33830.43811684109, 27987.647412734917, 24472.925004115703, 0.08, 1.016, 0.21, 192.0, 1.0, 64.0, 15.5, 96.0, 3.0, 72.0, 0.0, 0.0, 0.0, 1.7074742638513305E9, 0.0, 2024-02-09 11:24:23.851
148.0, -16754.59942276471, -8320.660390932608, 15385.353909177054, -2709.7913872946965, 46344.866912945145, 17131.449834281186, 33911.083210835845, 8775.920721998302, 29402.06580186675, 7353.008669973454, 39225.38926904074, 28272.54274756226, 39981.45937698596, 34043.07026184443, 28184.096894752613, 24695.570730635016, 0.08, 1.016, 0.21, 192.0, 0.0, 0.0, 0.0, 0.0, 0.0, 0.0, 0.0, 0.0, 0.0, 1.7074742638593564E9, 0.0, 2024-02-09 11:24:23.859
150.0, -16842.508833707434, -8280.650768357607, 15394.160496492446, -2718.3297536766236, 46129.64196558499, 17098.458659465156, 33792.84248266727, 8681.23873248562, 29062.833376268554, 7150.188940785997, 38747.33015863063, 28163.756807298283, 39405.58903283942, 33795.100008857255, 27954.522127452154, 24455.2224225071, 0.08, 1.016, 0.21, 192.0, 0.0, 0.0, 0.0, 0.0, 0.0, 0.0, 0.0, 0.0, 0.0, 1.7074742638684123E9, 0.0, 2024-02-09 11:24:23.868
152.0, -16870.828493932306, -8202.665531953042, 15435.824148157139, -2743.184893510925, 46482.57601053429, 17158.20487239419, 33956.43490033566, 8829.050818568567, 29326.829830030183, 7112.906231034545, 39067.474194464, 28252.292067085753, 39741.49104851378, 33968.750711530534, 28108.816219427135, 24571.38443844133, 0.08, 1.016, 0.21, 192.0, 0.0, 0.0, 0.0, 0.0, 0.0, 0.0, 0.0, 0.0, 0.0, 1.7074742638754408E9, 0.0, 2024-02-09 11:24:23.875
154.0, -16996.13237334876, -8190.461479480444, 15359.068257697614, -2737.5299021637325, 46123.5846428376, 17055.94564151116, 33786.226366308496, 8674.756726593581, 29216.43456416542, 6964.580054829127, 38998.63082154165, 28197.887921081536, 39778.32672337612, 33904.86942587727, 28073.276945743197, 24568.38930468432, 0.08, 1.016, 0.21, 192.0, 0.0, 0.0, 0.0, 0.0, 0.0, 0.0, 0.0, 0.0, 0.0, 1.707474263883414E9, 0.0, 2024-02-09 11:24:23.883
156.0, -17010.661007244707, -8101.4121295705, 15431.823185899639, -2758.1382105515254, 46358.83675322971, 17124.029055122024, 33921.8567516633, 8780.614588333916, 29116.924597850397, 6828.033247951656, 38770.21834495287, 28186.220310475866, 39396.514224590566, 33799.97268914851, 27979.712543453283, 24413.223494675578, 0.084, 1.006, 0.216, 192.0, 1.0, 80.0, 15.5, 56.0, 3.0, 96.0, 0.0, 0.0, 0.0, 1.7074742638913891E9, 0.0, 2024-02-09 11:24:23.891
158.0, -17086.031089548003, -8088.828097442162, 15385.778592321705, -2752.2149982708693, 46351.103049648176, 17090.65790065025, 33907.864559634276, 8774.35609988643, 29371.86859510763, 6777.853581649492, 39183.5468034204, 28237.428157022972, 39980.78882465229, 34003.217101480615, 28173.703333580892, 24643.915849198802, 0.084, 1.006, 0.216, 192.0, 0.0, 0.0, 0.0, 0.0, 0.0, 0.0, 0.0, 0.0, 0.0, 1.7074742638994424E9, 0.0, 2024-02-09 11:24:23.899
160.0, -17106.32647351342, -8041.35299221909, 15390.33834819059, -2737.8428265861066, 46135.09579123209, 17071.703621352153, 33795.88231991319, 8692.392252968819, 29043.36500684798, 6699.845993500471, 38728.107658399065, 28140.84626923159, 39409.098256718906, 33757.92905782808, 27958.567793198563, 24428.154459971724, 0.084, 1.006, 0.216, 192.0, 0.0, 0.0, 0.0, 0.0, 0.0, 0.0, 0.0, 0.0, 0.0, 1.7074742639078228E9, 0.0, 2024-02-09 11:24:23.907
162.0, -17071.81538007443, -7981.875000223518, 15430.683246932418, -2734.870044573551, 46505.799473023355, 17158.54014856102, 34021.09849704486, 8868.322833576542, 29321.08543170517, 6794.550334757607, 39049.481040177474, 28243.59723849264, 39732.997385620765, 33951.15988864421, 28125.021234157233, 24580.660412390283, 0.084, 1.006, 0.216, 192.0, 0.0, 0.0, 0.0, 0.0, 0.0, 0.0, 0.0, 0.0, 0.0, 1.7074742639154687E9, 0.0, 2024-02-09 11:24:23.915
164.0, -17108.62870319232, -8005.947829001883, 15346.350115102545, -2711.959506506861, 46137.46507614435, 17065.62394686031, 33838.730614034015, 8728.57972724196, 29217.552151388187, 6779.619369461462, 38983.699856245505, 28196.837389092136, 39769.117804660535, 33907.797504400914, 28089.571367451117, 24609.449459248717, 0.084, 1.006, 0.216, 192.0, 0.0, 0.0, 0.0, 0.0, 0.0, 0.0, 0.0, 0.0, 0.0, 1.7074742639244747E9, 0.0, 2024-02-09 11:24:23.924
166.0, -17023.84853647334, -7921.033551816172, 15426.279953274723, -2717.3462769205903, 46361.47425907544, 17140.412883807767, 33960.637028293255, 8820.735969631192, 29131.497935235257, 6841.220777180288, 38761.21059193738, 28202.425325205964, 39374.073073157444, 33804.86772118422, 27986.708639467794, 24469.438131980674, 0.088, 1.004, 0.214, 192.0, 1.0, 96.0, 15.5, 48.0, 3.0, 88.0, 0.0, 0.0, 0.0, 1.707474263931517E9, 0.0, 2024-02-09 11:24:23.931
168.0, -17041.506414593034, -7931.248299032248, 15381.174132963914, -2719.4920443882997, 46353.85231421618, 17113.09905208338, 33945.2143246191, 8829.274336013119, 29411.92292117154, 6939.054362661167, 39193.51568144747, 28270.374628350095, 39963.51092618834, 34033.07903207291, 28190.467141922374, 24708.60179765246, 0.088, 1.004, 0.214, 192.0, 0.0, 0.0, 0.0, 0.0, 0.0, 0.0, 0.0, 0.0, 0.0, 1.7074742639394996E9, 0.0, 2024-02-09 11:24:23.939
170.0, -17006.66004498721, -7909.209478999314, 15391.299473202167, -2714.552308863677, 46127.67501207293, 17093.541275684987, 33825.27486387192, 8736.134616867856, 29091.980051038274, 6941.445999317885, 38742.233960894824, 28175.33501092613, 39398.57058508046, 33783.49945348495, 27969.117816581467, 24496.774315449515, 0.088, 1.004, 0.214, 192.0, 0.0, 0.0, 0.0, 0.0, 0.0, 0.0, 0.0, 0.0, 0.0, 1.7074742639474852E9, 0.0, 2024-02-09 11:24:23.947
172.0, -16927.91484927116, -7902.66041787391, 15437.344066780099, -2728.097466003593, 46485.459385569025, 17156.886119471328, 34008.20154049415, 8863.56191200756, 29379.80346438926, 7084.005425453834, 39070.379921243184, 28287.674878558504, 39711.6738214104, 33964.63799055076, 28125.66943474644, 24620.06653786499, 0.088, 1.004, 0.214, 192.0, 0.0, 0.0, 0.0, 0.0, 0.0, 0.0, 0.0, 0.0, 0.0, 1.7074742639555328E9, 0.0, 2024-02-09 11:24:23.955
174.0, -16914.01206421996, -7999.756395787764, 15359.18001641989, -2705.902183759473, 46119.628384069016, 17063.053496247947, 33811.103857887254, 8704.708064163693, 29291.782294724264, 7118.874146804113, 39034.28185394786, 28240.892677413547, 39771.12946166151, 33909.47388523506, 28089.906643617946, 24626.83911643495, 0.088, 1.004, 0.214, 192.0, 0.0, 0.0, 0.0, 0.0, 0.0, 0.0, 0.0, 0.0, 0.0, 1.7074742639635248E9, 0.0, 2024-02-09 11:24:23.963
176.0, -16794.07260347278, -8014.977933761827, 15442.14969183799, -2708.2044134383696, 46342.922311177535, 17147.63249726683, 33936.318330325885, 8819.171347519321, 29211.53953212971, 7198.871040209657, 38819.95097636592, 28246.190040849455, 39380.53272730503, 33810.36625032023, 27987.49095052373, 24483.497379243065, 0.08, 1.008, 0.216, 192.0, 1.0, 64.0, 15.5, 64.0, 3.0, 96.0, 0.0, 0.0, 0.0, 1.7074742639715805E9, 0.0, 2024-02-09 11:24:23.971
178.0, -16772.480818328957, -8109.235240129858, 15396.507429660252, -2698.615515067043, 46349.0913926472, 17128.141776101802, 33921.94615864112, 8827.0838650565, 29489.438770942543, 7285.975788351988, 39251.27258911998, 28314.27345446032, 39971.7363681479, 34026.7311366476, 28196.34565071412, 24721.1858297808, 0.08, 1.008, 0.216, 192.0, 0.0, 0.0, 0.0, 0.0, 0.0, 0.0, 0.0, 0.0, 0.0, 1.7074742639808125E9, 0.0, 2024-02-09 11:24:23.980
180.0, -16708.376015231137, -8128.1448159390475, 15407.48213618781, -2682.5669625481323, 46128.904358017964, 17105.29829326848, 33801.8278839383, 8713.134671823344, 29172.602793288566, 7285.193477296052, 38810.13856055005, 28230.141488330544, 39416.51903587807, 33796.79874143586, 27981.835959176537, 24499.456524784153, 0.08, 1.008, 0.216, 192.0, 0.0, 0.0, 0.0, 0.0, 0.0, 0.0, 0.0, 0.0, 0.0, 1.7074742639865415E9, 0.0, 2024-02-09 11:24:23.986
182.0, -16625.94278167996, -8116.9912954558495, 15457.01360190077, -2689.0489684401714, 46502.446711355056, 17184.378765151356, 34007.66509862722, 8865.975900408734, 29451.485508857433, 7401.355493230283, 39128.15918066015, 28336.625198915626, 39724.21315004983, 33983.52521461549, 28138.56639129715, 24618.367805286387, 0.08, 1.008, 0.216, 192.0, 0.0, 0.0, 0.0, 0.0, 0.0, 0.0, 0.0, 0.0, 0.0, 1.7074742639957511E9, 0.0, 2024-02-09 11:24:23.995
184.0, -16644.897060978063, -8176.290473495779, 15370.132371202992, -2674.810907222141, 46135.833398799114, 17087.61806340433, 33803.19134035007, 8706.250334531109, 29362.52556592531, 7399.880278096232, 39095.36917154422, 28288.390134381072, 39790.06138921516, 33945.08021415237, 28110.336138050097, 24640.853660208424, 0.08, 1.008, 0.216, 192.0, 0.0, 0.0, 0.0, 0.0, 0.0, 0.0, 0.0, 0.0, 0.0, 1.7074742640035987E9, 0.0, 2024-02-09 11:24:24.003
186.0, -16552.94198428893, -8136.3032026652345, 15448.162311096468, -2685.1821166494033, 46352.0418229153, 17157.802540993995, 33914.52537948196, 8791.388129161374, 29252.97966634985, 7432.335011045338, 38858.93241869598, 28280.83524475518, 39379.45984357117, 33835.020224454434, 27994.777619216162, 24479.45171349665, 0.08, 1.006, 0.20800000000000002, 192.0, 1.0, 64.0, 15.5, 56.0, 3.0, 64.0, 0.0, 0.0, 0.0, 1.70747426401163E9, 0.0, 2024-02-09 11:24:24.011
188.0, -16562.62028963808, -8183.644197421575, 15406.364548965044, -2682.38814859249, 46372.80659351428, 17135.4955000276, 33937.90530418221, 8777.462992365718, 29534.499887764443, 7499.636113600268, 39298.94886004315, 28354.37248401314, 39984.85684214316, 34060.70578821967, 28207.63328166405, 24717.65425415686, 0.08, 1.006, 0.20800000000000002, 192.0, 0.0, 0.0, 0.0, 0.0, 0.0, 0.0, 0.0, 0.0, 0.0, 1.7074742640195649E9, 0.0, 2024-02-09 11:24:24.019
190.0, -16534.07711196865, -8187.443993978977, 15407.213915254346, -2674.229761866303, 46138.493256389294, 17112.763775916552, 33814.16604687763, 8701.176488539755, 29206.242168693803, 7453.166836877685, 38842.3697760546, 28247.8664216836, 39432.05349827451, 33814.09899164426, 27986.73099121225, 24496.193170093677, 0.08, 1.006, 0.20800000000000002, 192.0, 0.0, 0.0, 0.0, 0.0, 0.0, 0.0, 0.0, 0.0, 0.0, 1.7074742640276232E9, 0.0, 2024-02-09 11:24:24.027
192.0, -16476.275500807227, -8175.99990081786, 15450.44218903091, -2697.29676214418, 46502.513766588425, 17183.127067461857, 33992.19769146415, 8846.596937965982, 29479.961631293492, 7534.773055884011, 39150.13094545972, 28346.929353109525, 39730.78456291969, 33990.65542109674, 28142.343836110096, 24623.44165127774, 0.08, 1.006, 0.20800000000000002, 192.0, 0.0, 0.0, 0.0, 0.0, 0.0, 0.0, 0.0, 0.0, 0.0, 1.7074742640355945E9, 0.0, 2024-02-09 11:24:24.035
194.0, -16516.732158271334, -8232.750979989885, 15377.307281173145, -2683.1481079039704, 46136.90628253297, 17083.594749402375, 33788.75211343195, 8684.926770320746, 29389.012383104848, 7497.62445659929, 39117.139770643684, 28290.44649487096, 39803.517139377254, 33936.78771695944, 28112.86188517355, 24643.290000354053, 0.08, 1.006, 0.20800000000000002, 192.0, 0.0, 0.0, 0.0, 0.0, 0.0, 0.0, 0.0, 0.0, 0.0, 1.7074742640426185E9, 0.0, 2024-02-09 11:24:24.042
196.0, -16453.58848018509, -8194.23892429339, 15466.267224105266, -2689.5630585626436, 46349.001985669376, 17168.084343443436, 33916.35822252729, 8785.97900700319, 29280.896995174528, 7512.175442239695, 38872.0752444357, 28284.970317479412, 39389.62988729833, 33822.39148883718, 27995.984613416746, 24476.18835880618, 0.084, 1.01, 0.21, 192.0, 1.0, 80.0, 15.5, 72.0, 3.0, 72.0, 0.0, 0.0, 0.0, 1.7074742640517888E9, 0.0, 2024-02-09 11:24:24.051
198.0, -16474.93439613991, -8232.035724167315, 15427.464595730853, -2681.874058470018, 46366.10107017768, 17151.856976968884, 33913.452495748104, 8796.685492597282, 29553.878850207195, 7558.108277095352, 39304.6262031348, 28355.333609024718, 39991.49531024639, 34052.860325915855, 28208.460296208897, 24720.69409140278, 0.084, 1.01, 0.21, 192.0, 0.0, 0.0, 0.0, 0.0, 0.0, 0.0, 0.0, 0.0, 0.0, 1.7074742640596254E9, 0.0, 2024-02-09 11:24:24.059
200.0, -16481.662271220957, -8250.788837765318, 15416.378130481022, -2676.755508989753, 46125.59629983858, 17109.276903781523, 33783.49945348495, 8669.548770135496, 29224.190619491415, 7504.978180525087, 38845.476668533884, 28249.386340306562, 39443.341129224435, 33809.74040147548, 27987.043915634626, 24494.069754370423, 0.084, 1.01, 0.21, 192.0, 0.0, 0.0, 0.0, 0.0, 0.0, 0.0, 0.0, 0.0, 0.0, 1.7074742640676372E9, 0.0, 2024-02-09 11:24:24.067
202.0, -16470.754619926767, -8252.82284651075, 15454.130226866035, -2689.093671929082, 46493.282496128384, 17192.179523966257, 33982.16175820372, 8837.678591928316, 29470.104511988702, 7567.585416744401, 39130.21554115004, 28330.545524423782, 39727.14122857347, 33984.10635997133, 28129.402176070475, 24597.334813753943, 0.084, 1.01, 0.21, 192.0, 0.0, 0.0, 0.0, 0.0, 0.0, 0.0, 0.0, 0.0, 0.0, 1.7074742640746963E9, 0.0, 2024-02-09 11:24:24.074
204.0, -16584.547350948735, -8354.970318671503, 15355.98371696278, -2687.6184567950318, 46129.79842779618, 17099.19626703218, 33786.561642475324, 8678.534171406529, 29358.345789712166, 7515.572907396902, 39094.20688083254, 28270.844014983657, 39806.244052200804, 33957.17250790269, 28107.31865254863, 24635.533945028063, 0.084, 1.01, 0.21, 192.0, 0.0, 0.0, 0.0, 0.0, 0.0, 0.0, 0.0, 0.0, 0.0, 1.7074742640836833E9, 0.0, 2024-02-09 11:24:24.083
206.0, -16582.714507903398, -8351.684612236573, 15431.53261322172, -2703.577602336121, 46334.62981398461, 17172.040602212026, 33918.772210928466, 8783.363852901919, 29209.86315129556, 7492.170630952196, 38815.79355189724, 28237.338750045154, 39370.9438289337, 33829.34288136278, 27976.002153873702, 24455.60240216284, 0.078, 1.008, 0.214, 192.0, 1.0, 56.0, 15.5, 64.0, 3.0, 88.0, 0.0, 0.0, 0.0, 1.7074742640907304E9, 0.0, 2024-02-09 11:24:24.090
208.0, -16655.20121517196, -8416.348208945778, 15391.52299064672, -2704.6281343255205, 46366.07871843323, 17151.16407289077, 33924.650719720215, 8803.726292100704, 29475.156006235604, 7518.836262087377, 39249.19387688564, 28303.58932061068, 39970.57407743622, 34057.01775038454, 28200.525426927263, 24704.287910972587, 0.078, 1.008, 0.214, 192.0, 0.0, 0.0, 0.0, 0.0, 0.0, 0.0, 0.0, 0.0, 0.0, 1.7074742640987911E9, 0.0, 2024-02-09 11:24:24.098
210.0, -16698.474192437436, -8442.320936002843, 15393.199371480869, -2703.063512213649, 46127.49619811728, 17114.618970706342, 33806.09706712927, 8689.978264567646, 29114.130629793483, 7438.928775659654, 38786.11043526059, 28189.684830866438, 39424.72212609317, 33808.5781107638, 27980.71837195377, 24483.94441413217, 0.078, 1.008, 0.214, 192.0, 0.0, 0.0, 0.0, 0.0, 0.0, 0.0, 0.0, 0.0, 0.0, 1.7074742641077907E9, 0.0, 2024-02-09 11:24:24.107
212.0, -16708.97951233143, -8439.348153990288, 15437.455825502377, -2730.131474749026, 46493.10368217274, 17179.55078834901, 33992.86824379781, 8828.246155768175, 29355.305952466246, 7475.809154010911, 39067.16127004162, 28266.373666092597, 39701.68259163888, 33965.84498475135, 28131.81616447165, 24589.779924128048, 0.078, 1.008, 0.214, 192.0, 0.0, 0.0, 0.0, 0.0, 0.0, 0.0, 0.0, 0.0, 0.0, 1.707474264116021E9, 0.0, 2024-02-09 11:24:24.116
214.0, -16823.733368364974, -8499.854326230803, 15345.523100557699, -2728.768018337252, 46130.58073885211, 17076.598653387864, 33790.38379077718, 8664.273758444042, 29250.78919539323, 7356.182617686108, 39025.63172884366, 28181.05705750669, 39794.33057240612, 33911.86552189178, 28105.686975203393, 24609.270645293076, 0.078, 1.008, 0.214, 192.0, 0.0, 0.0, 0.0, 0.0, 0.0, 0.0, 0.0, 0.0, 0.0, 1.7074742641227534E9, 0.0, 2024-02-09 11:24:24.122
216.0, -16795.816039540296, -8442.790322636405, 15419.149746793479, -2741.553216165688, 46331.4335145275, 17151.186424635223, 33898.342716496314, 8746.170550128289, 29108.989728568762, 7292.5695529663035, 38747.95600747538, 28154.57024032715, 39359.3432735614, 33790.58495647728, 27977.20914807429, 24431.037835006457, 0.078, 0.998, 0.214, 192.0, 1.0, 56.0, 15.5, 24.0, 3.0, 88.0, 0.0, 0.0, 0.0, 1.7074742641309137E9, 0.0, 2024-02-09 11:24:24.130
218.0, -16829.99185681246, -8439.258747012467, 15380.99531900827, -2731.2714137162466, 46363.79884049879, 17133.573250004443, 33902.075457820356, 8752.674907764782, 29390.10761858316, 7300.504422247937, 39188.687704645126, 28229.716805185893, 39954.14554526157, 34021.14320053378, 28183.985136030333, 24674.090704213468, 0.078, 0.998, 0.214, 192.0, 0.0, 0.0, 0.0, 0.0, 0.0, 0.0, 0.0, 0.0, 0.0, 1.7074742641397462E9, 0.0, 2024-02-09 11:24:24.139
220.0, -16843.581717441288, -8411.631990865706, 15383.543417876175, -2715.938117019906, 46132.52534061973, 17102.794897889486, 33804.30892757284, 8664.251406699588, 29070.544728105633, 7213.310267127785, 38746.43608885242, 28132.33025459412, 39421.48112314715, 33776.369247003706, 27972.694095694318, 24464.02900982249, 0.078, 0.998, 0.214, 192.0, 0.0, 0.0, 0.0, 0.0, 0.0, 0.0, 0.0, 0.0, 0.0, 1.7074742641477573E9, 0.0, 2024-02-09 11:24:24.147
222.0, -16794.13965870615, -8325.398960757133, 15439.266316803256, -2720.5649281221545, 46510.78391203689, 17189.854942542905, 33992.98000252009, 8860.27620557263, 29327.723899808396, 7270.776602122379, 39039.9144935506, 28239.551572746226, 39688.450358921335, 33959.83236549287, 28124.149516123478, 24588.371764227362, 0.078, 0.998, 0.214, 192.0, 0.0, 0.0, 0.0, 0.0, 0.0, 0.0, 0.0, 0.0, 0.0, 1.7074742641548E9, 0.0, 2024-02-09 11:24:24.154
224.0, -16848.163825054628, -8346.566062756308, 15352.161568660924, -2712.875928029529, 46163.05782354568, 17087.126325026315, 33806.83467469629, 8690.648816901305, 29262.2556402988, 7226.833072523245, 39031.13025797967, 28195.876264080558, 39790.06138921516, 33929.8586761783, 28109.397364782973, 24626.280322823564, 0.078, 0.998, 0.214, 192.0, 0.0, 0.0, 0.0, 0.0, 0.0, 0.0, 0.0, 0.0, 0.0, 1.707474264162998E9, 0.0, 2024-02-09 11:24:24.162
226.0, -16783.500228345423, -8258.969576235959, 15423.933020106915, -2724.5211868907436, 46361.69777651999, 17156.550843304496, 33921.72264119657, 8781.843934278957, 29142.092662107072, 7220.328714886751, 38762.26112392678, 28179.447731905908, 39354.0906136144, 33799.79387519287, 27978.86317716398, 24448.002809048037, 0.074, 1.0, 0.214, 192.0, 1.0, 40.0, 15.5, 32.0, 3.0, 88.0, 0.0, 0.0, 0.0, 1.7074742641718135E9, 0.0, 2024-02-09 11:24:24.171
228.0, -16775.922986975074, -8234.695581757496, 15392.417060424932, -2715.200509452881, 46405.14956774111, 17146.738427488617, 33943.940275185145, 8807.324922958007, 29442.991845964414, 7278.264436514907, 39217.23088231455, 28265.88192771458, 39964.20383026646, 34042.69028218869, 28195.317470469174, 24689.26753869862, 0.074, 1.0, 0.214, 192.0, 0.0, 0.0, 0.0, 0.0, 0.0, 0.0, 0.0, 0.0, 0.0, 1.70747426417882E9, 0.0, 2024-02-09 11:24:24.178
230.0, -16752.54306227482, -8203.693712197984, 15396.99916803827, -2701.543593590688, 46151.077288517634, 17112.830831149917, 33822.12326790372, 8702.852869373903, 29133.33077828059, 7236.5113778723935, 38789.15027250651, 28179.403028416997, 39440.43540244525, 33811.97557592101, 27990.083752880546, 24491.2310828246, 0.074, 1.0, 0.214, 192.0, 0.0, 0.0, 0.0, 0.0, 0.0, 0.0, 0.0, 0.0, 0.0, 1.7074742641868615E9, 0.0, 2024-02-09 11:24:24.186
232.0, -16693.422698190534, -8150.317746438712, 15464.523788037754, -2709.5678698501433, 46517.22121444002, 17184.602282595908, 34007.419229438216, 8846.865158899445, 29393.61684246264, 7315.502442777449, 39073.68797942257, 28280.343506377165, 39700.94498407185, 33973.086949954864, 28129.737452237303, 24598.0053660876, 0.074, 1.0, 0.214, 192.0, 0.0, 0.0, 0.0, 0.0, 0.0, 0.0, 0.0, 0.0, 0.0, 1.7074742641959631E9, 0.0, 2024-02-09 11:24:24.195
234.0, -16736.226288822447, -8185.81231663374, 15384.795115565672, -2691.10532893006, 46168.064614303665, 17086.38871745929, 33818.27876785741, 8683.026872042044, 29341.649036604053, 7296.414053012616, 39081.35462777074, 28246.391206549553, 39822.2479012308, 33961.844022493846, 28129.916266192948, 24642.731206742672, 0.074, 1.0, 0.214, 192.0, 0.0, 0.0, 0.0, 0.0, 0.0, 0.0, 0.0, 0.0, 0.0, 1.7074742642030632E9, 0.0, 2024-02-09 11:24:24.203
236.0, -16654.553014582754, -8138.828949788684, 15461.43924730292, -2692.714654530842, 46358.70264276298, 17164.284546886032, 33942.01802516199, 8809.805966592547, 29218.78149733323, 7319.5704602683145, 38809.60211868311, 28233.002511620823, 39378.87869821533, 33832.96386396454, 28005.908787954904, 24476.210710550633, 0.078, 1.002, 0.214, 192.0, 1.0, 72.0, 15.5, 48.0, 3.0, 88.0, 0.0, 0.0, 0.0, 1.7074742642108765E9, 0.0, 2024-02-09 11:24:24.210
238.0, -16645.76877901182, -8182.951293343461, 15410.946656578382, -2688.7583957622523, 46396.0524077478, 17141.843395452906, 33934.82076344738, 8818.433739952296, 29519.010128856913, 7396.460461194571, 39267.29878989444, 28320.531942907804, 39981.61583919714, 34069.33356157941, 28216.43986897944, 24724.292722260085, 0.078, 1.002, 0.214, 192.0, 0.0, 0.0, 0.0, 0.0, 0.0, 0.0, 0.0, 0.0, 0.0, 1.7074742642189152E9, 0.0, 2024-02-09 11:24:24.218
240.0, -16604.708624447423, -8205.034816865304, 15399.793136095184, -2682.4105003369455, 46135.72164007684, 17093.51892394053, 33794.742380945965, 8692.302845990998, 29199.737811057308, 7357.277853164417, 38830.053964859726, 28219.30089226972, 39448.392623471336, 33816.64709051217, 27989.59201450253, 24507.257283599054, 0.078, 1.002, 0.214, 192.0, 0.0, 0.0, 0.0, 0.0, 0.0, 0.0, 0.0, 0.0, 0.0, 1.7074742642278821E9, 0.0, 2024-02-09 11:24:24.227
242.0, -16522.36479787407, -8175.038775806282, 15461.685116491928, -2681.6952445143756, 46514.36019114974, 17181.674204072264, 34007.82156083841, 8861.349089306485, 29462.393160151623, 7453.8597409558, 39111.68594499659, 28321.627178386116, 39701.14614977195, 33984.24047043806, 28129.580990026116, 24610.410584260295, 0.078, 1.002, 0.214, 192.0, 0.0, 0.0, 0.0, 0.0, 0.0, 0.0, 0.0, 0.0, 0.0, 1.7074742642349343E9, 0.0, 2024-02-09 11:24:24.234
244.0, -16547.689324341933, -8233.041552667804, 15379.52010387422, -2668.3959565634677, 46159.3474339661, 17086.52282792602, 33816.33416608979, 8701.19884028421, 29412.995804905393, 7441.52157801647, 39131.9366254731, 28287.674878558504, 39836.68712814893, 33967.27549639648, 28129.223362114833, 24662.847776752445, 0.078, 1.002, 0.214, 192.0, 0.0, 0.0, 0.0, 0.0, 0.0, 0.0, 0.0, 0.0, 0.0, 1.7074742642428873E9, 0.0, 2024-02-09 11:24:24.242
246.0, -16462.6856401784, -8189.992092846882, 15448.58699424112, -2687.193773650381, 46336.26149132985, 17150.359410090376, 33902.477789220546, 8762.532027069572, 29277.544233506233, 7458.643014269235, 38855.423194816496, 28269.905241716537, 39391.552137321494, 33834.32732037632, 27999.806761718606, 24479.40701000774, 0.079, 1.002, 0.21000000000000002, 192.0, 1.0, 64.0, 15.5, 40.0, 3.0, 56.0, 0.0, 0.0, 0.0, 1.7074742642519453E9, 0.0, 2024-02-09 11:24:24.251
248.0, -16460.11518956604, -8216.791834448795, 15411.99718856778, -2687.7302155173084, 46383.31191340827, 17140.099959385392, 33914.078344592854, 8791.633998350382, 29572.319039382823, 7517.651619631246, 39307.5766334029, 28345.655303675572, 39991.3388480352, 34063.3879975543, 28203.408801961996, 24707.59596915197, 0.079, 1.002, 0.21000000000000002, 192.0, 0.0, 0.0, 0.0, 0.0, 0.0, 0.0, 0.0, 0.0, 0.0, 1.7074742642589476E9, 0.0, 2024-02-09 11:24:24.258
250.0, -16435.86354683203, -8213.662590225053, 15415.19348802489, -2673.447450810367, 46132.23476794181, 17110.4391944932, 33804.48774152848, 8712.285305534042, 29254.968971606373, 7478.089031945352, 38877.21614566042, 28253.07437814169, 39476.10878659592, 33842.39630012468, 27993.995308160225, 24505.491495787086, 0.079, 1.002, 0.21000000000000002, 192.0, 0.0, 0.0, 0.0, 0.0, 0.0, 0.0, 0.0, 0.0, 0.0, 1.7074742642669716E9, 0.0, 2024-02-09 11:24:24.266
252.0, -16378.62072928199, -8188.539229457288, 15481.309948123688, -2685.5620963051438, 46514.36019114974, 17181.204817438702, 34010.23554923959, 8852.184874079809, 29503.18509378256, 7557.907111395253, 39151.5391053604, 28350.058597333267, 39722.15678955994, 34004.17822649219, 28146.18833615641, 24612.042261605533, 0.079, 1.002, 0.21000000000000002, 192.0, 0.0, 0.0, 0.0, 0.0, 0.0, 0.0, 0.0, 0.0, 0.0, 1.7074742642749481E9, 0.0, 2024-02-09 11:24:24.274
254.0, -16427.369883939016, -8245.469122584955, 15398.742604105784, -2673.156878132448, 46162.968416567855, 17087.975691315616, 33807.34876481876, 8692.52636343555, 29446.478718099443, 7531.666163404723, 39164.57017237785, 28305.533922378294, 39863.10689009511, 33992.98000252009, 28149.071711191144, 24656.723398771694, 0.079, 1.002, 0.21000000000000002, 192.0, 0.0, 0.0, 0.0, 0.0, 0.0, 0.0, 0.0, 0.0, 0.0, 1.7074742642839875E9, 0.0, 2024-02-09 11:24:24.283
0.0, -16350.211662079295, -8191.556714958753, 15475.856122476593, -2677.224895623314, 46343.391697811094, 17162.272889885055, 33908.065725334374, 8767.427059105285, 29303.80753324122, 7536.628250673802, 38876.21031715993, 28285.663221557526, 39403.800893283, 33856.88023053172, 28016.727032271272, 24474.71314367213, 0.0775, 1.0070000000000001, 0.20600000000000002, 192.0, 1.0, 48.0, 15.5, 80.0, 3.0, 40.0, 0.0, 0.0, 0.0, 1.7074742642910326E9, 0.0, 2024-02-09 11:24:24.291
2.0, -16367.28839484315, -8220.368113561644, 15430.90676437697, -2675.8614392115405, 46391.04561698981, 17144.659715254274, 33911.642004447225, 8795.389091418874, 29601.24219670799, 7596.6873880252115, 39329.034308079994, 28370.46574002096, 40009.28729883281, 34089.40542810028, 28229.58269471916, 24717.22957101221, 0.0775, 1.0070000000000001, 0.20600000000000002, 192.0, 0.0, 0.0, 0.0, 0.0, 0.0, 0.0, 0.0, 0.0, 0.0, 1.707474264299034E9, 0.0, 2024-02-09 11:24:24.299
4.0, -16359.353525561515, -8214.690770469997, 15424.491813718298, -2655.253130823747, 46120.56715733614, 17118.396415519288, 33791.389619277674, 8707.949067109712, 29279.466483529388, 7543.8031606439545, 38890.8283580337, 28274.8226254967, 39489.43042629128, 33849.50415486147, 28005.126476898968, 24505.491495787086, 0.0775, 1.0070000000000001, 0.20600000000000002, 192.0, 0.0, 0.0, 0.0, 0.0, 0.0, 0.0, 0.0, 0.0, 0.0, 1.707474264307036E9, 0.0, 2024-02-09 11:24:24.307
6.0, -16312.41486220537, -8188.159249801547, 15478.87360797806, -2662.092764627071, 46491.15908040513, 17203.48950666064, 33979.792473291454, 8863.316042818553, 29517.154934067123, 7622.7495220600995, 39155.182439706616, 28375.31606856776, 39715.920652856905, 34008.71563061662, 28135.347740095585, 24611.68463369425, 0.0775, 1.0070000000000001, 0.20600000000000002, 192.0, 0.0, 0.0, 0.0, 0.0, 0.0, 0.0, 0.0, 0.0, 0.0, 1.707474264315065E9, 0.0, 2024-02-09 11:24:24.315
