%OpenBCI Raw EXG Data
%Number of channels = 16
%Sample Rate = 125 Hz
%Board = OpenBCI_GUI$BoardCytonSerialDaisy
Sample Index, EXG Channel 0, EXG Channel 1, EXG Channel 2, EXG Channel 3, EXG Channel 4, EXG Channel 5, EXG Channel 6, EXG Channel 7, EXG Channel 8, EXG Channel 9, EXG Channel 10, EXG Channel 11, EXG Channel 12, EXG Channel 13, EXG Channel 14, EXG Channel 15, Accel Channel 0, Accel Channel 1, Accel Channel 2, Other, Other, Other, Other, Other, Other, Other, Analog Channel 0, Analog Channel 1, Analog Channel 2, Timestamp, Other, Timestamp (Formatted)
92.0, -14136.137263314398, -16130.851641994912, 17430.180898926366, -1622.9601648998457, 47017.609717560976, 18286.81150517601, 34984.50338655751, 9847.776275608096, 31401.809323049703, 5474.009272338066, 39251.00436818652, 28813.23144593614, 40496.06358958049, 34930.836848120314, 29686.804674482904, 24955.476815161328, 0.0, 0.0, 0.0, 192.0, 0.0, 0.0, 0.0, 0.0, 0.0, 0.0, 0.0, 0.0, 0.0, 1.707474397253216E9, 0.0, 2024-02-09 11:26:37.253
94.0, -14182.964167948267, -16139.501767099115, 17392.2052850968, -1604.4305687463964, 46723.61722274032, 18228.294638192016, 34829.29287305986, 9733.938841097217, 31149.77105257166, 5436.659507353247, 38972.166356106565, 28729.74768039557, 40216.823246100335, 34768.45142465251, 29561.14316715517, 24858.179671547376, 0.0, 0.0, 0.0, 192.0, 0.0, 0.0, 0.0, 0.0, 0.0, 0.0, 0.0, 0.0, 0.0, 1.7074743972532747E9, 0.0, 2024-02-09 11:26:37.253
0.0, -6253.436953239078, -8563.065059550412, 8857.214016582253, -652.8497520506087, 23426.81866011842, 9174.295863425239, 17448.889309035458, 4873.216733123867, 15571.901568401048, 2729.0585910151713, 19441.457920248264, 14375.770315619746, 20003.42547934359, 17365.517302217162, 14760.712058629044, 12387.49323934236, 0.124, 1.024, 0.08, 192.0, 1.5, 112.0, 16.0, 0.0, 1.0, 64.0, 0.0, 0.0, 0.0, 1.7074743973763564E9, 0.0, 2024-02-09 11:26:37.376
2.0, -12442.567937680238, -17106.19236304669, 17755.2423185399, -1307.5994023799185, 47149.35089938056, 18429.97442841225, 35031.91143654721, 9909.15416588237, 31640.369491621197, 5370.319529809896, 38996.57446105176, 28151.128071681032, 40309.314764656396, 34640.35357717914, 29854.353350919886, 24923.625579312513, 0.124, 1.024, 0.08, 192.0, 0.0, 0.0, 0.0, 0.0, 0.0, 0.0, 0.0, 0.0, 0.0, 1.7074743973830876E9, 0.0, 2024-02-09 11:26:37.383
4.0, -12551.845616322234, -17145.687895499217, 17676.67593677949, -1305.319524445477, 46884.28156188507, 18350.715142573732, 34899.09737099378, 9821.490624128655, 31647.49969810244, 5340.792875384435, 39090.18356683059, 28130.050376659678, 40538.6660145123, 34669.187327526495, 29892.261909516088, 25003.600120973602, 0.124, 1.024, 0.08, 192.0, 0.0, 0.0, 0.0, 0.0, 0.0, 0.0, 0.0, 0.0, 0.0, 1.7074743973901176E9, 0.0, 2024-02-09 11:26:37.390
6.0, -12479.381260798129, -17120.072796353437, 17729.73897811639, -1317.970611807181, 46979.54469675359, 18386.097954046483, 34935.664824922664, 9836.019258024604, 31455.721730675905, 5312.428511670651, 38773.7499205768, 28085.525701704708, 40063.42322390356, 34503.04681099019, 29750.976532814093, 24843.42752020687, 0.124, 1.024, 0.08, 192.0, 0.0, 0.0, 0.0, 0.0, 0.0, 0.0, 0.0, 0.0, 0.0, 1.7074743973981235E9, 0.0, 2024-02-09 11:26:37.398
8.0, -12495.18394412803, -17126.53245050102, 17711.432899407497, -1309.4098936807984, 47087.83889863955, 18395.798611140086, 34977.01555216498, 9878.375813767412, 31747.590809773304, 5355.656785447215, 39183.636210398225, 28161.901612508493, 40613.633765415405, 34712.68382223652, 29925.811877943503, 25005.634129719037, 0.11800000000000001, 1.036, 0.058, 192.0, 1.5, 88.0, 16.0, 48.0, 0.5, 104.0, 0.0, 0.0, 0.0, 1.7074743974071484E9, 0.0, 2024-02-09 11:26:37.407
10.0, -12525.381150887151, -17121.190383576202, 17697.105431211643, -1289.3156754154772, 46813.31477323947, 18347.87647102791, 34839.64173074266, 9775.915417184284, 31461.332018534187, 5310.640372114226, 38832.02091837179, 28083.156416792444, 40201.445245915085, 34535.94857882841, 29773.149463313755, 24881.291375314162, 0.11800000000000001, 1.036, 0.058, 192.0, 0.0, 0.0, 0.0, 0.0, 0.0, 0.0, 0.0, 0.0, 0.0, 1.707474397415148E9, 0.0, 2024-02-09 11:26:37.415
12.0, -12432.420245697529, -17096.402298975267, 17764.585347722215, -1303.35257093341, 47137.28095737469, 18422.710111464276, 34978.937802188135, 9883.740232436685, 31641.151802677134, 5366.944416397145, 39008.7561617799, 28155.643124061004, 40318.546035116444, 34640.71120509043, 29844.04919672599, 24923.22324791232, 0.11800000000000001, 1.036, 0.058, 192.0, 0.0, 0.0, 0.0, 0.0, 0.0, 0.0, 0.0, 0.0, 0.0, 1.707474397422199E9, 0.0, 2024-02-09 11:26:37.422
14.0, -12533.628944591159, -17132.00862789257, 17695.116125955123, -1289.583896348941, 46871.65282626782, 18351.11747397393, 34848.29185584687, 9794.869696482385, 31646.2703521574, 5345.933776609156, 39106.63445074969, 28135.638312773506, 40542.197590136246, 34673.300048506266, 29872.704133117695, 24990.144370811508, 0.11800000000000001, 1.036, 0.058, 192.0, 0.0, 0.0, 0.0, 0.0, 0.0, 0.0, 0.0, 0.0, 0.0, 1.7074743974301827E9, 0.0, 2024-02-09 11:26:37.430
16.0, -12447.060638315754, -17092.15546752876, 17771.581443736726, -1281.8054892784942, 46980.841097931996, 18401.364195509457, 34923.237255005515, 9827.860871298417, 31467.724617448406, 5340.234081773053, 38806.405819226005, 28115.90172241947, 40064.31729368178, 34532.81933460466, 29752.13882352577, 24854.983372090268, 0.11800000000000001, 1.036, 0.058, 192.0, 0.0, 0.0, 0.0, 0.0, 0.0, 0.0, 0.0, 0.0, 0.0, 1.7074743974395716E9, 0.0, 2024-02-09 11:26:37.439
18.0, -12472.27340606134, -17120.698645198187, 17750.771969648835, -1288.6674748262733, 47086.251924783224, 18399.6431111864, 34942.86208663727, 9848.849159341951, 31779.285583410932, 5400.024998190999, 39230.552522009915, 28209.466124709386, 40616.74065789469, 34754.526287856854, 29939.669959505794, 25030.824545720166, 0.094, 1.066, 0.052000000000000005, 192.0, 1.0, 120.0, 16.5, 40.0, 0.5, 80.0, 0.0, 0.0, 0.0, 1.7074743974462266E9, 0.0, 2024-02-09 11:26:37.446
20.0, -12508.438528590028, -17133.372084304345, 17726.632085637106, -1284.331236401944, 46812.33129648343, 18340.366284890926, 34808.59515769424, 9729.06616080596, 31470.04919887176, 5333.1485787807205, 38873.393997358566, 28116.281702075208, 40202.16050173766, 34546.43154697795, 29783.788893674482, 24893.16015161993, 0.094, 1.066, 0.052000000000000005, 192.0, 0.0, 0.0, 0.0, 0.0, 0.0, 0.0, 0.0, 0.0, 0.0, 1.7074743974542246E9, 0.0, 2024-02-09 11:26:37.454
22.0, -12420.0820827582, -17108.271075281034, 17789.306377089786, -1296.5129371300861, 47154.983538983295, 18428.432158044834, 34965.19147934813, 9850.480836687188, 31653.378206894187, 5395.420538833206, 39040.36152843971, 28197.35147921461, 40315.953232759624, 34651.95413255145, 29855.67210384275, 24930.375806138018, 0.094, 1.066, 0.052000000000000005, 192.0, 0.0, 0.0, 0.0, 0.0, 0.0, 0.0, 0.0, 0.0, 0.0, 1.70747439746225E9, 0.0, 2024-02-09 11:26:37.462
24.0, -12521.760168285391, -17143.05038965349, 17707.096660983167, -1288.9803992486477, 46888.66250379831, 18347.80941579454, 34833.98673939547, 9733.938841097217, 31658.74262556346, 5382.389471815762, 39138.26216915395, 28180.319449939663, 40551.764136763115, 34685.459397489954, 29894.430028728253, 24996.581673214638, 0.094, 1.066, 0.052000000000000005, 192.0, 0.0, 0.0, 0.0, 0.0, 0.0, 0.0, 0.0, 0.0, 0.0, 1.7074743974712553E9, 0.0, 2024-02-09 11:26:37.471
26.0, -12446.881824360113, -17113.367273016844, 17754.32589701723, -1300.6927133432287, 46978.09183336399, 18383.035765056105, 34869.63777180169, 9752.513140739578, 31464.50596624684, 5366.9667681416, 38819.906272877015, 28150.256353647277, 40061.8586017917, 34522.4481251774, 29743.734567610572, 24828.38479618845, 0.094, 1.066, 0.052000000000000005, 192.0, 0.0, 0.0, 0.0, 0.0, 0.0, 0.0, 0.0, 0.0, 0.0, 1.7074743974782596E9, 0.0, 2024-02-09 11:26:37.478
28.0, -12468.339499037207, -17123.492613255097, 17735.93041133051, -1295.551812118508, 47094.18679406486, 18395.35157625098, 34934.614292933264, 9804.548001831532, 31770.32253388435, 5408.608068061837, 39236.02869940147, 28236.57879073367, 40613.25378575966, 34741.91990398406, 29927.309444822007, 25004.650652963002, 0.074, 1.052, 0.05, 192.0, 1.0, 40.0, 16.0, 112.0, 0.5, 72.0, 0.0, 0.0, 0.0, 1.7074743974863255E9, 0.0, 2024-02-09 11:26:37.486
30.0, -12510.09255767972, -17133.30502907098, 17706.13553597159, -1296.1553092188012, 46819.70737215369, 18329.011598707628, 34814.853646141724, 9686.955474252161, 31475.860652430136, 5344.860892875301, 38873.237535147375, 28146.031873945223, 40204.77565583893, 34546.56565744468, 29776.658687193238, 24867.008610607223, 0.074, 1.052, 0.05, 192.0, 0.0, 0.0, 0.0, 0.0, 0.0, 0.0, 0.0, 0.0, 0.0, 1.7074743974943492E9, 0.0, 2024-02-09 11:26:37.494
32.0, -12421.154966492053, -17107.421708991733, 17764.406533766574, -1309.253431469611, 47152.36838488202, 18403.085279832518, 34970.265325339475, 9791.829859236463, 31645.689206801562, 5386.725710240092, 39026.905778277614, 28208.370889231075, 40313.29337516944, 34637.53725737778, 29844.026844981534, 24894.523608031704, 0.074, 1.052, 0.05, 192.0, 0.0, 0.0, 0.0, 0.0, 0.0, 0.0, 0.0, 0.0, 0.0, 1.707474397502378E9, 0.0, 2024-02-09 11:26:37.502
34.0, -12522.34131364123, -17134.4449680382, 17687.136553184577, -1293.7189690731727, 46888.37193112039, 18334.130148187895, 34848.96240818052, 9704.434538416212, 31660.530765119885, 5363.748116940036, 39124.31468061384, 28191.115342511577, 40551.04888094054, 34676.69751366347, 29884.25998500109, 24970.854815346578, 0.074, 1.052, 0.05, 192.0, 0.0, 0.0, 0.0, 0.0, 0.0, 0.0, 0.0, 0.0, 0.0, 1.7074743975105247E9, 0.0, 2024-02-09 11:26:37.510
36.0, -12440.690391145992, -17096.558761186454, 17754.437655739504, -1294.7918528070275, 46988.77596721363, 18378.386602209404, 34907.72514435353, 9724.752274126085, 31472.88787041758, 5353.086334834854, 38811.658479173006, 28160.851080519093, 40065.904267538106, 34528.84072409162, 29747.579067656883, 24820.941665284834, 0.074, 1.052, 0.05, 192.0, 0.0, 0.0, 0.0, 0.0, 0.0, 0.0, 0.0, 0.0, 0.0, 1.7074743975186107E9, 0.0, 2024-02-09 11:26:37.518
38.0, -12462.282176289818, -17106.974674102625, 17737.673847398026, -1295.1047772294019, 47108.51426226071, 18385.226236012728, 34959.24591532301, 9762.683184466743, 31773.38472287473, 5405.747044771558, 39234.64289124524, 28244.290142570753, 40624.49671322069, 34745.29501739681, 29934.39494781434, 24995.37467901405, 0.068, 1.036, 0.046, 192.0, 1.0, 16.0, 16.0, 48.0, 0.5, 56.0, 0.0, 0.0, 0.0, 1.7074743975273445E9, 0.0, 2024-02-09 11:26:37.527
40.0, -12506.784499500334, -17118.91050564176, 17701.151096958052, -1293.4954516286198, 46834.45952349419, 18322.28372362658, 34831.48334401647, 9661.25096812856, 31475.592431496672, 5338.803570127913, 38872.544631069264, 28148.71408327986, 40217.35968796727, 34546.342140000124, 29775.51874822602, 24864.549918717137, 0.068, 1.036, 0.046, 192.0, 0.0, 0.0, 0.0, 0.0, 0.0, 0.0, 0.0, 0.0, 0.0, 1.7074743975343869E9, 0.0, 2024-02-09 11:26:37.534
42.0, -12409.956742519946, -17088.91446458274, 17768.631013468625, -1300.6033063654074, 47176.307103193656, 18394.323396006035, 34997.757971019506, 9771.042736893027, 31647.902029502635, 5385.16108812822, 39028.023365500376, 28214.96465384539, 40317.38374440477, 34644.30983594774, 29844.20565893718, 24895.104753387543, 0.068, 1.036, 0.046, 192.0, 0.0, 0.0, 0.0, 0.0, 0.0, 0.0, 0.0, 0.0, 0.0, 1.707474397542506E9, 0.0, 2024-02-09 11:26:37.542
44.0, -12507.678569278547, -17127.828851679427, 17697.954797500945, -1283.7724427905612, 46922.27952745909, 18342.802625036555, 34874.46574860403, 9703.428709915723, 31667.728026834495, 5374.074622878387, 39132.473067340026, 28196.0550780362, 40556.48035484319, 34682.19604279948, 29888.752685636606, 24971.257146746775, 0.068, 1.036, 0.046, 192.0, 0.0, 0.0, 0.0, 0.0, 0.0, 0.0, 0.0, 0.0, 0.0, 1.707474397550456E9, 0.0, 2024-02-09 11:26:37.550
46.0, -12425.737074105391, -17089.696775638673, 17759.80207440878, -1284.5324021020415, 47019.53196758413, 18389.338956992502, 34926.81353411836, 9753.4519140067, 31476.531204763796, 5368.06200361991, 38819.81686589919, 28166.997810244302, 40068.832346061754, 34541.04477656422, 29755.022198560502, 24830.329397956062, 0.068, 1.036, 0.046, 192.0, 0.0, 0.0, 0.0, 0.0, 0.0, 0.0, 0.0, 0.0, 0.0, 1.707474397558418E9, 0.0, 2024-02-09 11:26:37.558
48.0, -12445.026629570322, -17106.170011302234, 17737.673847398026, -1293.3389894174325, 47140.45490508735, 18382.454619700267, 34972.00876140699, 9783.090327154438, 31786.9522317591, 5410.999704718555, 39247.249275118025, 28253.141433375054, 40627.38008825542, 34760.94123851553, 29940.49697405064, 25006.595254730615, 0.068, 1.032, 0.046, 192.0, 1.0, 16.0, 16.0, 32.0, 0.5, 56.0, 0.0, 0.0, 0.0, 1.7074743975665245E9, 0.0, 2024-02-09 11:26:37.566
50.0, -12482.778725955335, -17117.971732374637, 17708.773041817312, -1293.9201347732705, 46858.73351797265, 18322.239020137673, 34838.211219097524, 9656.311232603935, 31483.594356011672, 5343.698602163626, 38884.34635214166, 28156.38073162803, 40222.16531302516, 34553.24882903681, 29773.551794713952, 24860.48190122627, 0.068, 1.032, 0.046, 192.0, 0.0, 0.0, 0.0, 0.0, 0.0, 0.0, 0.0, 0.0, 0.0, 1.7074743975743928E9, 0.0, 2024-02-09 11:26:37.574
52.0, -12394.31052140123, -17086.94751107067, 17784.321938076253, -1298.8822220423488, 47199.57526917163, 18418.373873039945, 35015.6170148393, 9803.050434953027, 31659.54728836385, 5398.348617356851, 39045.1671534976, 28232.264904053798, 40332.60528237883, 34652.24470522937, 29853.280467186032, 24900.424468567904, 0.068, 1.032, 0.046, 192.0, 0.0, 0.0, 0.0, 0.0, 0.0, 0.0, 0.0, 0.0, 0.0, 1.7074743975837877E9, 0.0, 2024-02-09 11:26:37.583
54.0, -12497.977912184944, -17125.548973744986, 17708.258951694843, -1287.3040184144998, 46931.28728047458, 18335.404197621847, 34885.44045513159, 9701.797032570486, 31673.74064609297, 5374.901637423234, 39151.695567571594, 28216.082241068154, 40577.200421953254, 34685.77232191233, 29902.521360221075, 24982.36596374106, 0.068, 1.032, 0.046, 192.0, 0.0, 0.0, 0.0, 0.0, 0.0, 0.0, 0.0, 0.0, 0.0, 1.707474397590446E9, 0.0, 2024-02-09 11:26:37.590
56.0, -12418.182184479498, -17092.5354471845, 17762.976022121435, -1294.4342248957425, 47016.73799952722, 18375.480875430214, 34936.62594993424, 9728.663829405765, 31476.777073952806, 5356.8637796478015, 38823.34844152313, 28178.01722026077, 40085.50674742541, 34520.30235770969, 29762.42062597521, 24828.742424099735, 0.068, 1.032, 0.046, 192.0, 0.0, 0.0, 0.0, 0.0, 0.0, 0.0, 0.0, 0.0, 0.0, 1.7074743975984437E9, 0.0, 2024-02-09 11:26:37.598
58.0, -12439.885728345602, -17109.589828203898, 17737.36092297565, -1297.809338308494, 47129.100218904045, 18379.750058621175, 34983.698723757116, 9773.41202180529, 31779.75497004449, 5405.009437204532, 39239.47086804758, 28255.220145609397, 40629.81642840105, 34744.892685996616, 29939.96053218371, 25000.381469772037, 0.074, 1.018, 0.046, 192.0, 1.0, 40.0, 15.5, 104.0, 0.5, 56.0, 0.0, 0.0, 0.0, 1.7074743976064706E9, 0.0, 2024-02-09 11:26:37.606
60.0, -12490.244208603408, -17118.843450408396, 17709.7788703178, -1288.1533847038013, 46840.874474152864, 18330.28564814158, 34854.5279925499, 9678.573570081422, 31481.225071099412, 5337.216596271586, 38886.246250420365, 28165.72376081035, 40223.28290024792, 34552.846497636616, 29782.492492496076, 24878.117427601508, 0.074, 1.018, 0.046, 192.0, 0.0, 0.0, 0.0, 0.0, 0.0, 0.0, 0.0, 0.0, 0.0, 1.7074743976135364E9, 0.0, 2024-02-09 11:26:37.613
62.0, -12404.368806406119, -17098.369252487333, 17769.480379757926, -1309.0522657695135, 47160.079736719104, 18401.051271087083, 35009.53734034745, 9790.980492947161, 31646.113889946213, 5382.389471815762, 39031.242016701945, 28229.06860459669, 40312.71222981361, 34643.102841747146, 29847.267847927553, 24907.465268071326, 0.074, 1.018, 0.046, 192.0, 0.0, 0.0, 0.0, 0.0, 0.0, 0.0, 0.0, 0.0, 0.0, 1.7074743976225228E9, 0.0, 2024-02-09 11:26:37.622
64.0, -12511.031330946844, -17131.047502880992, 17684.990785716866, -1300.8938790433263, 46893.155204433824, 18330.978552219698, 34873.6834375481, 9713.77756759853, 31662.0730354873, 5355.656785447215, 39127.22040739303, 28203.67702289546, 40556.25683739863, 34680.430254987514, 29893.379496738853, 24986.52338820975, 0.074, 1.018, 0.046, 192.0, 0.0, 0.0, 0.0, 0.0, 0.0, 0.0, 0.0, 0.0, 0.0, 1.707474397630514E9, 0.0, 2024-02-09 11:26:37.630
66.0, -12429.291001473786, -17094.658862907752, 17748.55914694776, -1301.7208935881727, 46977.51068800816, 18375.570282408033, 34929.652205664184, 9750.322669782958, 31467.478748259397, 5339.630584672759, 38795.58757490964, 28164.762635798772, 40061.72449132496, 34530.42769794795, 29747.668474634705, 24837.079624781567, 0.074, 1.018, 0.046, 192.0, 0.0, 0.0, 0.0, 0.0, 0.0, 0.0, 0.0, 0.0, 0.0, 1.7074743976375656E9, 0.0, 2024-02-09 11:26:37.637
68.0, -12449.631088928116, -17106.72880491362, 17733.561126418248, -1305.3418761899325, 47093.538593475656, 18367.12132300393, 34963.425691536155, 9777.16711487378, 31766.47803383804, 5388.223277118597, 39223.33290855085, 28247.531145516772, 40617.94765209528, 34747.910171498086, 29934.797279214537, 25011.892618166523, 0.084, 1.02, 0.044, 192.0, 1.0, 80.0, 15.5, 112.0, 0.5, 48.0, 0.0, 0.0, 0.0, 1.7074743976456025E9, 0.0, 2024-02-09 11:26:37.645
70.0, -12500.99539768641, -17123.38085453282, 17688.567064829716, -1306.5935738794296, 46796.796834087, 18300.53547627157, 34816.4182682536, 9671.242197900081, 31466.60703022564, 5313.81431982688, 38862.97808444239, 28149.65285654698, 40213.694001876596, 34539.636616663534, 29764.275820765, 24872.417732765407, 0.084, 1.02, 0.044, 192.0, 0.0, 0.0, 0.0, 0.0, 0.0, 0.0, 0.0, 0.0, 0.0, 1.7074743976549952E9, 0.0, 2024-02-09 11:26:37.654
72.0, -12394.064652212222, -17080.085525522893, 17763.400705266085, -1304.3136959449882, 47139.180855653394, 18393.988119839207, 35012.51012236001, 9806.872583254884, 31640.436546854562, 5366.385622785762, 39011.170150181075, 28219.09972656962, 40306.99018323305, 34631.74815556385, 29842.261057169566, 24910.482753572793, 0.084, 1.02, 0.044, 192.0, 0.0, 0.0, 0.0, 0.0, 0.0, 0.0, 0.0, 0.0, 0.0, 1.707474397662645E9, 0.0, 2024-02-09 11:26:37.662
74.0, -12487.718461479959, -17103.510153712054, 17691.53984684227, -1288.7568818040945, 46879.185364149256, 18332.990209220676, 34875.203356171056, 9726.160434026771, 31667.03512275638, 5351.186436556153, 39128.40504984916, 28209.935511342945, 40561.353035134445, 34677.502176463866, 29892.172502538266, 24994.838237147123, 0.084, 1.02, 0.044, 192.0, 0.0, 0.0, 0.0, 0.0, 0.0, 0.0, 0.0, 0.0, 0.0, 1.70747439766963E9, 0.0, 2024-02-09 11:26:37.669
76.0, -12417.958667034945, -17078.94558655567, 17744.289963756797, -1300.7597685765945, 46965.39604251338, 18379.86181734345, 34920.26447299295, 9768.472286280667, 31464.95300113595, 5333.059171802899, 38802.1589877795, 28174.57505161465, 40065.01019775989, 34524.16920950046, 29748.204916501632, 24848.25549700922, 0.084, 1.02, 0.044, 192.0, 0.0, 0.0, 0.0, 0.0, 0.0, 0.0, 0.0, 0.0, 0.0, 1.7074743976786296E9, 0.0, 2024-02-09 11:26:37.678
78.0, -12436.17533876602, -17094.52475244102, 17727.50380367086, -1303.419626166776, 47089.18000330687, 18378.140733020395, 34963.64920898071, 9810.381807134367, 31766.23216464903, 5372.822925188891, 39215.174521824665, 28248.73813971736, 40612.9855648262, 34732.91215096857, 29936.02662515958, 25020.699205481913, 0.087, 1.0150000000000001, 0.041999999999999996, 192.0, 1.0, 104.0, 15.5, 72.0, 0.5, 32.0, 0.0, 0.0, 0.0, 1.7074743976865864E9, 0.0, 2024-02-09 11:26:37.686
80.0, -12483.605740500181, -17101.543200199987, 17696.993672489367, -1293.6295620953515, 46807.50331968109, 18326.01646495062, 34849.32003609181, 9707.83200357342, 31472.999629139857, 5312.964953537578, 38866.71082576643, 28155.486661849816, 40212.30819372037, 34540.01659631927, 29781.821940162416, 24897.07170689961, 0.087, 1.0150000000000001, 0.041999999999999996, 192.0, 0.0, 0.0, 0.0, 0.0, 0.0, 0.0, 0.0, 0.0, 0.0, 1.707474397694605E9, 0.0, 2024-02-09 11:26:37.694
82.0, -12384.609864307628, -17063.858159048337, 17773.32487980424, -1289.2486201821114, 47150.3790796255, 18426.26403883267, 35021.74139282005, 9854.615909411421, 31634.803907251826, 5365.558608240915, 39009.47141760247, 28223.078337082665, 40297.66950579519, 34643.05813825824, 29852.520507874553, 24934.197954439875, 0.087, 1.0150000000000001, 0.041999999999999996, 192.0, 0.0, 0.0, 0.0, 0.0, 0.0, 0.0, 0.0, 0.0, 0.0, 1.707474397701655E9, 0.0, 2024-02-09 11:26:37.701
84.0, -12484.253941089386, -17099.643301921285, 17703.20745744794, -1276.3069601424886, 46896.55266959103, 18360.14757873387, 34891.3860191567, 9778.59762651892, 31663.436491899076, 5355.142695324743, 39124.985232947496, 28216.037537579246, 40553.574628063994, 34703.89958666558, 29911.864389403392, 25024.990740417332, 0.087, 1.0150000000000001, 0.041999999999999996, 192.0, 0.0, 0.0, 0.0, 0.0, 0.0, 0.0, 0.0, 0.0, 0.0, 1.707474397710698E9, 0.0, 2024-02-09 11:26:37.710
86.0, -12416.997542023366, -17074.72110685362, 17759.064466841755, -1281.425509622754, 46981.06461537655, 18403.12998332143, 34941.67744418114, 9812.75109204663, 31459.812099911225, 5335.182587526154, 38798.42624645546, 28173.34570566961, 40051.777965042354, 34547.75029990081, 29771.40602724624, 24876.508102000727, 0.087, 1.0150000000000001, 0.041999999999999996, 192.0, 0.0, 0.0, 0.0, 0.0, 0.0, 0.0, 0.0, 0.0, 0.0, 1.707474397718888E9, 0.0, 2024-02-09 11:26:37.718
88.0, -12441.137426035099, -17089.80853436095, 17743.597059678683, -1283.191297434723, 47104.04391336965, 18405.16399206686, 34979.563651032884, 9848.469179686212, 31758.654923278682, 5385.339902083862, 39212.22409155656, 28252.962619419413, 40596.84760532947, 34763.86931703917, 29951.87401197839, 25043.118005170585, 0.08349999999999999, 1.0135, 0.037, 192.0, 1.0, 64.0, 15.5, 80.0, 0.5, 0.0, 0.0, 0.0, 0.0, 1.7074743977256193E9, 0.0, 2024-02-09 11:26:37.725
90.0, -12490.221856858952, -17116.25064805158, 17716.9314285435, -1273.3341781299328, 46818.858005864386, 18348.927003017307, 34830.00812888243, 9725.556936926478, 31468.641038971073, 5330.756942124002, 38870.28710487927, 28169.657667834483, 40203.3898476827, 34577.6122304931, 29799.70333572666, 24920.92101823342, 0.08349999999999999, 1.0135, 0.037, 192.0, 0.0, 0.0, 0.0, 0.0, 0.0, 0.0, 0.0, 0.0, 0.0, 1.7074743977336886E9, 0.0, 2024-02-09 11:26:37.733
92.0, -12431.012085796845, -17119.62576146433, 17779.51631301836, -1292.9590097616924, 47155.89996050596, 18425.5487830101, 35005.06699145639, 9856.538159434576, 31619.045927410836, 5368.285521064463, 39001.022458198364, 28215.992834090335, 40283.69966551062, 34663.71115013494, 29852.744025319105, 24937.394253896982, 0.08349999999999999, 1.0135, 0.037, 192.0, 0.0, 0.0, 0.0, 0.0, 0.0, 0.0, 0.0, 0.0, 0.0, 1.707474397742668E9, 0.0, 2024-02-09 11:26:37.742
94.0, -12588.01073885092, -17238.246469288646, 17707.208419705443, -1282.7666142900723, 46905.113387717414, 18358.091218243982, 34891.22955694551, 9793.79681274853, 31639.922456732093, 5343.050401574422, 39113.652898508655, 28197.865569337082, 40545.25977912662, 34705.48656052191, 29913.1607905818, 25022.08501363814, 0.08349999999999999, 1.0135, 0.037, 192.0, 0.0, 0.0, 0.0, 0.0, 0.0, 0.0, 0.0, 0.0, 0.0, 1.7074743977517197E9, 0.0, 2024-02-09 11:26:37.751
96.0, -12587.742517917457, -17336.258868725166, 17755.17526330653, -1303.844309311427, 46985.73612996771, 18388.40018372538, 34952.093357097314, 9819.903650272328, 31397.473084625377, 5302.660799343682, 38761.948199504404, 28137.9405424524, 40037.42814510204, 34536.5520759287, 29765.818091132416, 24864.415808250407, 0.08349999999999999, 1.0135, 0.037, 192.0, 0.0, 0.0, 0.0, 0.0, 0.0, 0.0, 0.0, 0.0, 0.0, 1.7074743977577393E9, 0.0, 2024-02-09 11:26:37.757
98.0, -12703.815126873867, -17476.27019599321, 17717.691387854982, -1331.6945829027395, 47100.84761391254, 18379.839465598998, 34979.362485332786, 9841.718952860709, 31669.69498034656, 5280.599627566294, 39150.06389022635, 28172.138711469022, 40572.9759422512, 34730.274645122845, 29928.762308211604, 25011.646748977513, 0.07974999999999999, 1.01775, 0.0315, 192.0, 1.0, 48.0, 15.5, 120.0, 0.0, 104.0, 0.0, 0.0, 0.0, 1.707474397766898E9, 0.0, 2024-02-09 11:26:37.766
100.0, -12886.004195929074, -17561.072714456644, 17680.386326359072, -1331.9851555806586, 46816.3993139743, 18323.736587016178, 34840.33463482078, 9735.861091120374, 31332.34010128261, 5138.286070619353, 38774.91221128848, 28053.786224578173, 40182.82624278382, 34528.9524828139, 29764.65580042074, 24872.30597404313, 0.07974999999999999, 1.01775, 0.0315, 192.0, 0.0, 0.0, 0.0, 0.0, 0.0, 0.0, 0.0, 0.0, 0.0, 1.7074743977746925E9, 0.0, 2024-02-09 11:26:37.774
102.0, -12980.842647652942, -17495.22447529131, 17744.669943412537, -1350.447696500742, 47151.58607382609, 18413.36708228196, 34988.48199707055, 9855.688793145275, 31460.639114456073, 5120.4270267995635, 38894.359933657644, 28111.945463650878, 40266.68998798013, 34630.96584450792, 29824.960806961157, 24892.8248754531, 0.07974999999999999, 1.01775, 0.0315, 192.0, 0.0, 0.0, 0.0, 0.0, 0.0, 0.0, 0.0, 0.0, 0.0, 1.7074743977819576E9, 0.0, 2024-02-09 11:26:37.781
104.0, -13358.698887669909, -17437.758140296715, 17661.007363916324, -1355.387432025365, 46907.54972786304, 18349.19522395077, 34863.51339382093, 9758.011669875583, 31447.161012549524, 4991.479813036896, 38980.81648121077, 28080.474207457806, 40521.34341255944, 34676.54105145229, 29868.68081911574, 24960.282440219216, 0.07974999999999999, 1.01775, 0.0315, 192.0, 0.0, 0.0, 0.0, 0.0, 0.0, 0.0, 0.0, 0.0, 0.0, 1.7074743977897675E9, 0.0, 2024-02-09 11:26:37.789
106.0, -13660.872120961205, -17423.564782567595, 17724.575725147217, -1378.2309148586887, 46997.06846440655, 18407.01918685665, 34925.13715328421, 9803.564525075499, 31211.394812034945, 4805.71446486884, 38629.98350024027, 28038.922314515392, 40029.29211012031, 34521.35288969909, 29727.2166284581, 24790.38683061443, 0.07974999999999999, 1.01775, 0.0315, 192.0, 0.0, 0.0, 0.0, 0.0, 0.0, 0.0, 0.0, 0.0, 0.0, 1.707474397798736E9, 0.0, 2024-02-09 11:26:37.798
108.0, -14005.737186162138, -17333.733121601716, 17715.97030353192, -1374.8781531903928, 47140.2760911317, 18449.88983272193, 34987.051485425414, 9884.589598725986, 31475.704190218952, 4575.3797382569, 39032.18078996906, 28128.46340280335, 40591.751407593656, 34760.11422397068, 29922.235598830655, 24961.444730930893, 0.06887499999999999, 1.030875, 0.02775, 192.0, 0.5, 104.0, 16.0, 80.0, 0.0, 96.0, 0.0, 0.0, 0.0, 1.7074743978057573E9, 0.0, 2024-02-09 11:26:37.805
110.0, -14321.947314971367, -17280.737135498184, 17667.511721552815, -1404.0918831934791, 46823.99890708911, 18370.3846776944, 34781.41543643659, 9758.615166975876, 31106.520427050644, 4163.101811778762, 38665.85805009104, 28038.117651715, 40202.71929534904, 34577.34400955964, 29765.728684154594, 24812.537409369637, 0.06887499999999999, 1.030875, 0.02775, 192.0, 0.0, 0.0, 0.0, 0.0, 0.0, 0.0, 0.0, 0.0, 0.0, 1.707474397813759E9, 0.0, 2024-02-09 11:26:37.813
112.0, -14575.349041861182, -17184.1552477068, 17742.88180385611, -1422.3756101579202, 47195.95428656987, 18455.52247232467, 35045.74716636505, 9943.77701804364, 31130.190924428814, 3786.1619932844633, 38789.86552832908, 28089.23609128429, 40273.01553166098, 34656.98327505389, 29827.553609317973, 24811.643339591425, 0.06887499999999999, 1.030875, 0.02775, 192.0, 0.0, 0.0, 0.0, 0.0, 0.0, 0.0, 0.0, 0.0, 0.0, 1.7074743978218088E9, 0.0, 2024-02-09 11:26:37.821
114.0, -14867.41928665868, -17194.705271089708, 17664.49423605135, -1419.961621756747, 46956.52239996462, 18402.16885830985, 34927.5958451743, 9928.242555647203, 31027.976397034694, 3380.187258742721, 38916.80108509077, 28092.74531516377, 40553.373462363896, 34726.05016542079, 29910.120953335878, 24912.203837895853, 0.06887499999999999, 1.030875, 0.02775, 192.0, 0.0, 0.0, 0.0, 0.0, 0.0, 0.0, 0.0, 0.0, 0.0, 1.7074743978298364E9, 0.0, 2024-02-09 11:26:37.829
116.0, -14998.311102188958, -17080.979595301105, 17717.914905299534, -1434.4679039082414, 47039.82735154955, 18448.5040245657, 34969.66182823919, 9982.512591184688, 30675.936421863607, 2919.3389915632, 38583.760092706696, 28044.800823307138, 40051.86737202017, 34580.65206773902, 29782.85012040736, 24757.306248820576, 0.06887499999999999, 1.030875, 0.02775, 192.0, 0.0, 0.0, 0.0, 0.0, 0.0, 0.0, 0.0, 0.0, 0.0, 1.7074743978378005E9, 0.0, 2024-02-09 11:26:37.837
118.0, -15150.414723207323, -17014.63961775775, 17677.815875746714, -1462.0723083105456, 47179.57045788413, 18452.46028333429, 35011.526645603975, 10051.624185040497, 30825.894275414263, 2592.735301582253, 38993.46756857247, 28082.239995269778, 40585.872898801914, 34805.55532044832, 29960.25591614913, 24915.713061775336, 0.0644375, 1.0334375, 0.028874999999999998, 192.0, 0.5, 112.0, 16.0, 48.0, 0.0, 120.0, 0.0, 0.0, 0.0, 1.7074743978458884E9, 0.0, 2024-02-09 11:26:37.845
120.0, -15271.695288621819, -16826.907316077628, 17646.456378275918, -1464.866276367459, 46903.61582083891, 18408.181477568327, 34900.57258612783, 10010.27345779818, 30384.11204625512, 2276.59222800639, 38645.11563123651, 27976.560947485086, 40191.163443465644, 34626.13786770557, 29805.224216607123, 24791.303252137095, 0.0644375, 1.0334375, 0.028874999999999998, 192.0, 0.0, 0.0, 0.0, 0.0, 0.0, 0.0, 0.0, 0.0, 0.0, 1.707474397854823E9, 0.0, 2024-02-09 11:26:37.854
122.0, -15347.400647091943, -16668.96988975643, 17701.709890569437, -1497.633933738939, 47223.46928399435, 18486.680804095366, 35045.21072449812, 10189.087413440635, 30347.14226092604, 2082.6461413676907, 38753.43218486693, 27998.82328496257, 40251.26728430597, 34723.25619736388, 29852.25228694109, 24809.318758168076, 0.0644375, 1.0334375, 0.028874999999999998, 192.0, 0.0, 0.0, 0.0, 0.0, 0.0, 0.0, 0.0, 0.0, 0.0, 1.7074743978618324E9, 0.0, 2024-02-09 11:26:37.861
124.0, -15428.24690678679, -16509.8478209791, 17618.67315991797, -1488.827346423548, 46968.56999022603, 18421.748986452698, 34903.1877402291, 10165.282805595732, 30217.189218662887, 1947.3957356686278, 38867.0237501888, 27949.336522738522, 40522.63981373785, 34779.58259339126, 29881.220147755164, 24876.910433400924, 0.0644375, 1.0334375, 0.028874999999999998, 192.0, 0.0, 0.0, 0.0, 0.0, 0.0, 0.0, 0.0, 0.0, 0.0, 1.7074743978698752E9, 0.0, 2024-02-09 11:26:37.869
126.0, -15448.162311096468, -16364.360316319504, 17684.946082227958, -1491.0401691246236, 47051.6067208775, 18470.833417276554, 34995.522796573976, 10279.924902907003, 29854.375702664343, 1901.3734938351506, 38523.38803093291, 27883.28711787309, 40022.608938528174, 34635.01151025433, 29735.486773906563, 24732.786385153104, 0.0644375, 1.0334375, 0.028874999999999998, 192.0, 0.0, 0.0, 0.0, 0.0, 0.0, 0.0, 0.0, 0.0, 0.0, 1.707474397877884E9, 0.0, 2024-02-09 11:26:37.877
128.0, -15443.334334294123, -16235.390750812383, 17663.644869762047, -1500.3161430735759, 47183.12438525252, 18489.09479249654, 35048.94346582216, 10390.409575749585, 30020.113887800442, 1904.6368485256255, 38941.477410969426, 27921.307435191567, 40565.93514274778, 34853.16453613812, 29923.44259303124, 24928.520611348227, 0.06121875, 1.02971875, 0.0324375, 192.0, 0.5, 104.0, 16.0, 8.0, 0.5, 16.0, 0.0, 0.0, 0.0, 1.707474397886943E9, 0.0, 2024-02-09 11:26:37.886
130.0, -15456.63362224503, -16125.397816347817, 17622.96469485339, -1499.377369806453, 46888.08135844247, 18429.437986545323, 34889.97785925602, 10291.681920490495, 29619.078888783326, 1863.8225631502348, 38598.06520915809, 27804.78779134605, 40167.895277487674, 34665.58869666919, 29750.1718700137, 24802.32266215356, 0.06121875, 1.02971875, 0.0324375, 192.0, 0.0, 0.0, 0.0, 0.0, 0.0, 0.0, 0.0, 0.0, 0.0, 1.7074743978939147E9, 0.0, 2024-02-09 11:26:37.893
132.0, -15417.830993870617, -16026.714864577636, 17678.464076335917, -1522.8019979956148, 47220.45179849289, 18494.772135588188, 35056.543058936964, 10423.870137199181, 29683.384857581244, 1917.2432323984185, 38718.09407688309, 27825.016120078104, 40215.03510654392, 34742.05401445079, 29797.75873395905, 24814.593769859526, 0.06121875, 1.02971875, 0.0324375, 192.0, 0.0, 0.0, 0.0, 0.0, 0.0, 0.0, 0.0, 0.0, 0.0, 1.7074743979019048E9, 0.0, 2024-02-09 11:26:37.901
134.0, -15402.810621596649, -15947.209709550109, 17595.628511384548, -1519.3821810939528, 46982.11514736595, 18417.92683815084, 34956.18372633264, 10356.09964801069, 29638.279037270433, 1917.6232120541588, 38835.68660446246, 27784.22418644717, 40475.432929448245, 34784.879956827164, 29847.29019967201, 24894.791828965168, 0.06121875, 1.02971875, 0.0324375, 192.0, 0.0, 0.0, 0.0, 0.0, 0.0, 0.0, 0.0, 0.0, 0.0, 1.7074743979102247E9, 0.0, 2024-02-09 11:26:37.910
136.0, -15321.718492712796, -15849.33142058032, 17659.152169126533, -1514.44244556933, 47055.18299999035, 18462.049181705617, 34999.09907568683, 10390.811907149782, 29371.62272591862, 1932.2636046723849, 38499.292850410086, 27739.63245625883, 39964.42734771101, 34622.31571940371, 29698.137008921745, 24742.777614924624, 0.06121875, 1.02971875, 0.0324375, 192.0, 0.0, 0.0, 0.0, 0.0, 0.0, 0.0, 0.0, 0.0, 0.0, 1.707474397917188E9, 0.0, 2024-02-09 11:26:37.917
138.0, -15287.02858531816, -15747.630983308673, 17640.86844216209, -1524.5677858075842, 47198.457681948865, 18465.84897826302, 35051.13393677878, 10441.528015318872, 29608.171237489136, 1988.7911663998566, 38913.60478563366, 27799.110448254403, 40511.48629325465, 34839.10528887573, 29874.67108662976, 24917.814125754136, 0.063609375, 1.025859375, 0.04021875, 192.0, 1.0, 8.0, 15.5, 120.0, 0.5, 64.0, 0.0, 0.0, 0.0, 1.7074743979259555E9, 0.0, 2024-02-09 11:26:37.925
140.0, -15254.283279691135, -15717.590238760738, 17611.76647088128, -1516.7893787371372, 46919.41850416881, 18426.196983599304, 34951.22163906356, 10381.178305289544, 29272.69390495943, 1964.7630411104014, 38558.234400538735, 27694.57133943693, 40136.155800361135, 34642.38758592458, 29711.83862827285, 24801.808572031092, 0.063609375, 1.025859375, 0.04021875, 192.0, 0.0, 0.0, 0.0, 0.0, 0.0, 0.0, 0.0, 0.0, 0.0, 1.7074743979339838E9, 0.0, 2024-02-09 11:26:37.933
142.0, -15185.864589913439, -15644.075351247235, 17674.26194837832, -1533.73200103426, 47245.7539732163, 18513.212324763816, 35103.41466705974, 10526.911679138146, 29384.922013869527, 2044.2905478823839, 38689.39443700248, 27737.330226579932, 40189.82233879833, 34722.11625839666, 29770.914288868225, 24842.376988217475, 0.063609375, 1.025859375, 0.04021875, 192.0, 0.0, 0.0, 0.0, 0.0, 0.0, 0.0, 0.0, 0.0, 0.0, 1.7074743979419863E9, 0.0, 2024-02-09 11:26:37.941
144.0, -15160.204787278748, -15648.635107116117, 17600.545895164716, -1517.6610967708943, 47009.83131049053, 18448.3028588656, 34992.55001456142, 10450.178140423077, 29383.044467335283, 2072.319635429339, 38815.88295887506, 27711.44690650069, 40463.117118253365, 34774.3075816998, 29820.848085981383, 24931.40398638296, 0.063609375, 1.025859375, 0.04021875, 192.0, 0.0, 0.0, 0.0, 0.0, 0.0, 0.0, 0.0, 0.0, 0.0, 1.7074743979499803E9, 0.0, 2024-02-09 11:26:37.949
146.0, -15091.830800989963, -15558.669335683506, 17658.8168929597, -1521.8855764729474, 47073.824354866076, 18477.89656852443, 35026.189389966654, 10461.443419628551, 29177.96721195784, 2118.386580751727, 38487.91581248234, 27684.75892362105, 39956.96186506294, 34624.90852176053, 29675.24882259951, 24778.875682219947, 0.063609375, 1.025859375, 0.04021875, 192.0, 0.0, 0.0, 0.0, 0.0, 0.0, 0.0, 0.0, 0.0, 0.0, 1.7074743979579823E9, 0.0, 2024-02-09 11:26:37.957
148.0, -15088.142763154838, -15560.83745489567, 17633.894697892036, -1535.9671754797907, 47206.52666169723, 18478.902397024918, 35070.177623054704, 10505.118728294221, 29448.959761733982, 2181.9325902381647, 38885.77686378681, 27732.524601522044, 40484.06070280799, 34828.33174804828, 29838.260094912064, 24939.160041708954, 0.0648046875, 1.0279296875, 0.047109374999999995, 192.0, 1.0, 8.0, 16.0, 24.0, 0.5, 88.0, 0.0, 0.0, 0.0, 1.707474397967255E9, 0.0, 2024-02-09 11:26:37.967
150.0, -15061.879463419851, -15535.937611572459, 17594.600331139605, -1533.0390969561456, 46901.93944000476, 18418.75385269569, 34934.43547897762, 10390.051947838301, 29165.67375250742, 2188.325189152383, 38551.461821968776, 27655.99222850707, 40102.89640461164, 34644.89098130357, 29672.074874886857, 24809.13994421243, 0.0648046875, 1.0279296875, 0.047109374999999995, 192.0, 0.0, 0.0, 0.0, 0.0, 0.0, 0.0, 0.0, 0.0, 0.0, 1.7074743979740014E9, 0.0, 2024-02-09 11:26:37.974
152.0, -15016.885401831318, -15526.840451579148, 17662.661393006016, -1545.2207976842878, 47230.06304860867, 18496.314405955603, 35094.630431488804, 10514.774681898914, 29307.07088793169, 2265.796335434477, 38667.288561736175, 27699.15344705027, 40147.33167258879, 34722.943272941506, 29721.360471410808, 24817.790069316634, 0.0648046875, 1.0279296875, 0.047109374999999995, 192.0, 0.0, 0.0, 0.0, 0.0, 0.0, 0.0, 0.0, 0.0, 0.0, 1.7074743979821732E9, 0.0, 2024-02-09 11:26:37.982
154.0, -14987.694023572687, -15491.837619762138, 17595.360290451084, -1530.7592190217042, 46991.614638759456, 18411.891867147908, 34980.56947953338, 10420.092692386233, 29354.501289665855, 2296.5523358049795, 38811.56907219518, 27694.794856881483, 40435.222141173144, 34780.85664282521, 29777.93273662719, 24905.36420409253, 0.0648046875, 1.0279296875, 0.047109374999999995, 192.0, 0.0, 0.0, 0.0, 0.0, 0.0, 0.0, 0.0, 0.0, 0.0, 1.7074743979900172E9, 0.0, 2024-02-09 11:26:37.990
156.0, -14956.803912735453, -15478.15835215549, 17651.977259156378, -1534.2013876678216, 47048.61158712049, 18446.157091397894, 35019.573273607886, 10430.240384368943, 29160.018761160227, 2319.2617081715716, 38475.93527745429, 27669.179757735703, 39930.58680660568, 34619.00766122433, 29630.43357496662, 24746.80092892658, 0.0648046875, 1.0279296875, 0.047109374999999995, 192.0, 0.0, 0.0, 0.0, 0.0, 0.0, 0.0, 0.0, 0.0, 0.0, 1.7074743979979997E9, 0.0, 2024-02-09 11:26:37.997
158.0, -14965.901072728762, -15483.276901635756, 17627.680912933458, -1550.7863820536593, 47184.35373119757, 18453.332001368046, 35079.29713479247, 10475.793239568859, 29461.20851769549, 2384.5511537255234, 38885.17336668651, 27728.590694497907, 40472.59425790242, 34833.09266961726, 29803.123152628323, 24912.49441057377, 0.06840234375000001, 1.02696484375, 0.0515546875, 192.0, 1.0, 32.0, 16.0, 8.0, 0.5, 96.0, 0.0, 0.0, 0.0, 1.707474398006291E9, 0.0, 2024-02-09 11:26:38.006
160.0, -14932.66402872372, -15478.046593433213, 17589.660595614983, -1543.700879061327, 46889.71303578771, 18406.236875800714, 34955.53552574343, 10375.925645342546, 29189.031325463216, 2348.4530864302023, 38539.548342174094, 27634.84747825235, 40098.35900048721, 34636.3749666661, 29642.123537316747, 24793.650185304905, 0.06840234375000001, 1.02696484375, 0.0515546875, 192.0, 0.0, 0.0, 0.0, 0.0, 0.0, 0.0, 0.0, 0.0, 0.0, 1.7074743980140808E9, 0.0, 2024-02-09 11:26:38.014
162.0, -14901.505696953023, -15457.617099001063, 17648.35627655462, -1560.0847077470671, 47213.32159201164, 18481.204626703817, 35113.56235904245, 10478.698966348049, 29360.29039147978, 2428.8299594914865, 38667.73559662528, 27696.538292948997, 40152.293759857865, 34718.58468277272, 29690.179787895657, 24814.616121603984, 0.06840234375000001, 1.02696484375, 0.0515546875, 192.0, 0.0, 0.0, 0.0, 0.0, 0.0, 0.0, 0.0, 0.0, 0.0, 1.707474398022055E9, 0.0, 2024-02-09 11:26:38.022
164.0, -14907.38420574477, -15462.132151381034, 17567.95705174888, -1551.1663617093996, 46974.20262982877, 18411.422480514346, 34991.8571104833, 10391.683625183538, 29402.57989198922, 2441.4363433642798, 38802.87424360207, 27687.843464355883, 40430.30475739298, 34764.316351928275, 29741.61115188732, 24899.865674956523, 0.06840234375000001, 1.02696484375, 0.0515546875, 192.0, 0.0, 0.0, 0.0, 0.0, 0.0, 0.0, 0.0, 0.0, 0.0, 1.7074743980290904E9, 0.0, 2024-02-09 11:26:38.029
166.0, -14881.99262404354, -15453.705543721384, 17626.675084432973, -1550.6746233313827, 47042.04017425063, 18471.101638210017, 35069.21649804312, 10488.913713564125, 29204.58813960411, 2431.601575803945, 38443.145268338354, 27641.687112055675, 39912.21367266341, 34579.914460171996, 29601.152789730168, 24755.629867986427, 0.06840234375000001, 1.02696484375, 0.0515546875, 192.0, 0.0, 0.0, 0.0, 0.0, 0.0, 0.0, 0.0, 0.0, 0.0, 1.7074743980381088E9, 0.0, 2024-02-09 11:26:38.038
168.0, -14863.686545334644, -15420.647313671985, 17616.460337216897, -1555.8825797894692, 47186.52185040973, 18464.194949173325, 35122.257187635565, 10522.396626758175, 29518.496038734444, 2500.8249283820305, 38860.87702046359, 27716.67721470323, 40456.880981550334, 34800.392067479144, 29797.490513025587, 24942.915134777446, 0.071201171875, 1.023482421875, 0.05377734375, 192.0, 1.0, 40.0, 15.5, 112.0, 0.5, 96.0, 0.0, 0.0, 0.0, 1.7074743980462525E9, 0.0, 2024-02-09 11:26:38.046
170.0, -14858.36683015428, -15429.543307965198, 17578.082391987133, -1548.0594692301117, 46880.37000660539, 18389.629529670423, 34973.215755607576, 10385.603950691695, 29253.78432915024, 2490.140794532394, 38532.55224615958, 27651.879507527294, 40090.67000039459, 34608.30117563024, 29643.48699372852, 24807.932950011844, 0.071201171875, 1.023482421875, 0.05377734375, 192.0, 0.0, 0.0, 0.0, 0.0, 0.0, 0.0, 0.0, 0.0, 0.0, 1.707474398054083E9, 0.0, 2024-02-09 11:26:38.054
172.0, -14842.810016013387, -15431.823185899639, 17655.73235222487, -1556.9107600344134, 47208.24774602029, 18462.049181705617, 35129.610911561365, 10486.432669929585, 29420.282473597825, 2545.394306825913, 38643.171029468904, 27703.042650585492, 40139.642672496164, 34681.480786976914, 29691.69970651862, 24811.44217389133, 0.071201171875, 1.023482421875, 0.05377734375, 192.0, 0.0, 0.0, 0.0, 0.0, 0.0, 0.0, 0.0, 0.0, 0.0, 1.7074743980621355E9, 0.0, 2024-02-09 11:26:38.062
174.0, -14817.373730823247, -15406.632769898508, 17586.91133104698, -1540.9069110044136, 46969.799336171076, 18400.671291431343, 35017.74043056255, 10400.937247388036, 29474.21723296848, 2559.1182779214714, 38786.91509806098, 27698.840522627896, 40430.43886785971, 34746.05497670829, 29758.64318116226, 24911.466230328828, 0.071201171875, 1.023482421875, 0.05377734375, 192.0, 0.0, 0.0, 0.0, 0.0, 0.0, 0.0, 0.0, 0.0, 0.0, 1.7074743980701423E9, 0.0, 2024-02-09 11:26:38.070
176.0, -14805.706120217577, -15416.489889203298, 17636.085168848655, -1558.0954024905448, 47021.16364492937, 18430.376759812447, 35052.54209667946, 10405.63111372365, 29284.428570798467, 2564.2368274017367, 38435.188047312266, 27654.919344773218, 39910.15731217353, 34565.430529764955, 29607.232464222012, 24749.974876639233, 0.071201171875, 1.023482421875, 0.05377734375, 192.0, 0.0, 0.0, 0.0, 0.0, 0.0, 0.0, 0.0, 0.0, 0.0, 1.7074743980771575E9, 0.0, 2024-02-09 11:26:38.077
178.0, -14824.07925415984, -15449.168139596957, 17610.782994125246, -1576.379129454986, 47167.4334606449, 18438.08811164953, 35117.04923117748, 10462.516303362407, 29594.22374894902, 2602.6818278648648, 38838.25705507482, 27710.4410780002, 40447.873228534845, 34773.480567154955, 29787.543986742974, 24916.02598619771, 0.071201171875, 1.023482421875, 0.05377734375, 192.0, 0.0, 0.0, 0.0, 0.0, 0.0, 0.0, 0.0, 0.0, 0.0, 1.7074743980851655E9, 0.0, 2024-02-09 11:26:38.085
180.0, -14839.881937489741, -15463.29444209271, 17562.324412146143, -1584.2245917587986, 46855.17959060426, 18370.20586373876, 34974.5568602749, 10345.773142072338, 29349.360388441135, 2580.777118298664, 38492.453216606766, 27620.832934478873, 40074.487337408944, 34582.52961427327, 29628.019586565446, 24779.725048509248, 0.076, 1.014, 0.06, 192.0, 1.0, 48.0, 15.5, 88.0, 0.5, 112.0, 0.0, 0.0, 0.0, 1.7074743980944495E9, 0.0, 2024-02-09 11:26:38.094
182.0, -14832.12588216375, -15486.093221437124, 17617.041482572735, -1609.4597112488404, 47168.97573101232, 18439.160995383383, 35129.52150458354, 10444.545500820339, 29529.493097006452, 2667.0548518961496, 38600.50154930372, 27662.295420443468, 40103.70106741203, 34641.60527486864, 29664.743502705518, 24773.913594950867, 0.076, 1.014, 0.06, 192.0, 0.0, 0.0, 0.0, 0.0, 0.0, 0.0, 0.0, 0.0, 0.0, 1.70747439810219E9, 0.0, 2024-02-09 11:26:38.102
184.0, -14837.490300833024, -15481.39935510151, 17537.625734523026, -1599.535536710684, 46921.60897512543, 18370.96582305024, 35000.59664256533, 10349.818807818749, 29633.763984890462, 2725.258794457769, 38751.48758309932, 27655.4781383846, 40400.398123311774, 34696.56821448424, 29724.377956912274, 24869.60141296404, 0.076, 1.014, 0.06, 192.0, 0.0, 0.0, 0.0, 0.0, 0.0, 0.0, 0.0, 0.0, 0.0, 1.7074743981092095E9, 0.0, 2024-02-09 11:26:38.109
186.0, -14807.918942918652, -15473.86681722007, 17592.43221192744, -1598.596763443561, 46968.14530708138, 18423.179498097837, 35041.34387270735, 10380.999491333901, 29497.01601231289, 2757.2664925177687, 38399.58171839496, 27613.635672764263, 39880.787119959256, 34524.70565136739, 29576.632926062695, 24718.056585557057, 0.076, 1.014, 0.06, 192.0, 0.0, 0.0, 0.0, 0.0, 0.0, 0.0, 0.0, 0.0, 0.0, 1.707474398117224E9, 0.0, 2024-02-09 11:26:38.117
188.0, -14823.565164037367, -15488.596616816118, 17557.85406325508, -1615.2935165516756, 47106.122625603995, 18431.02496040165, 35084.25922206154, 10420.383265064153, 29883.276508245053, 2820.70074328193, 38808.75275239381, 27668.196280979668, 40418.36892585384, 34747.261970908876, 29763.381750986788, 24903.374898836006, 0.076, 1.014, 0.06, 192.0, 0.0, 0.0, 0.0, 0.0, 0.0, 0.0, 0.0, 0.0, 0.0, 1.7074743981262379E9, 0.0, 2024-02-09 11:26:38.126
190.0, -14825.420358827158, -15512.35652117211, 17511.205972576856, -1614.1312258399996, 46793.2429067186, 18344.97074424872, 34936.46948772305, 10276.952120894448, 29703.367317124288, 2800.1147866385922, 38462.099547636455, 27569.60273618731, 40048.33579639623, 34540.50833469729, 29603.67853685362, 24770.940812938312, 0.082, 1.01, 0.07200000000000001, 192.0, 1.0, 72.0, 15.5, 72.0, 1.0, 32.0, 0.0, 0.0, 0.0, 1.707474398133244E9, 0.0, 2024-02-09 11:26:38.133
192.0, -14766.232939509504, -15538.910393585014, 17574.237891940822, -1627.3858103019966, 47122.34999207855, 18423.112442864473, 35105.22515836062, 10401.518392743874, 29997.672736367316, 2870.7239473729073, 38570.84078441153, 27635.696844541653, 40066.664226849585, 34603.58495755016, 29652.897078144204, 24782.56372005507, 0.082, 1.01, 0.07200000000000001, 192.0, 0.0, 0.0, 0.0, 0.0, 0.0, 0.0, 0.0, 0.0, 0.0, 1.7074743981412363E9, 0.0, 2024-02-09 11:26:38.141
194.0, -14807.941294663107, -15640.253202945378, 17499.784231160193, -1614.9358886403907, 46888.818966009494, 18338.53344184559, 34991.76770350548, 10319.576897570718, 30188.44487529336, 2740.480332431833, 38722.922053685434, 27639.876620754796, 40354.3758814783, 34650.41186218403, 29725.093212734846, 24883.79477069316, 0.082, 1.01, 0.07200000000000001, 192.0, 0.0, 0.0, 0.0, 0.0, 0.0, 0.0, 0.0, 0.0, 0.0, 1.7074743981502967E9, 0.0, 2024-02-09 11:26:38.150
196.0, -14761.24850049597, -15668.885787592626, 17548.108702672565, -1616.8804904080023, 46944.85478935895, 18362.44980841277, 35028.80454406793, 10330.261031420354, 30098.769676538668, 2478.6743496268214, 38389.43402641225, 27625.14682115875, 39833.64729090301, 34457.89628719047, 29583.13728369919, 24727.913704861847, 0.082, 1.01, 0.07200000000000001, 192.0, 0.0, 0.0, 0.0, 0.0, 0.0, 0.0, 0.0, 0.0, 0.0, 1.707474398158259E9, 0.0, 2024-02-09 11:26:38.158
198.0, -14758.610994650246, -15766.987594006969, 17556.155330676476, -1599.1108535660333, 47130.48602706028, 18389.11543954795, 35121.94426321319, 10387.302683270298, 30568.022199633386, 2403.0807498789727, 38791.653667885505, 27701.20980754016, 40383.343742292374, 34666.70628389195, 29793.109571112345, 24916.87535248701, 0.082, 1.01, 0.07200000000000001, 192.0, 0.0, 0.0, 0.0, 0.0, 0.0, 0.0, 0.0, 0.0, 0.0, 1.7074743981652536E9, 0.0, 2024-02-09 11:26:38.165
200.0, -14725.642171578667, -15854.271156104942, 17546.678191027426, -1562.9457310373464, 46861.013395907095, 18342.176776191805, 35008.95619499162, 10252.298146760244, 30415.315081514727, 2342.395763682814, 38505.50663536866, 27662.831862310395, 40040.73620328143, 34481.54443282419, 29697.73467752155, 24830.53056365616, 0.078, 1.006, 0.06, 192.0, 1.0, 56.0, 15.5, 56.0, 0.5, 112.0, 0.0, 0.0, 0.0, 1.7074743981732771E9, 0.0, 2024-02-09 11:26:38.173
202.0, -14608.809603310778, -15878.99218547251, 17621.62359018607, -1559.0788792465783, 47189.24876323328, 18423.73829170922, 35119.01618468955, 10309.004522443358, 30689.079247603328, 2561.778135511653, 38619.72404953528, 27745.287447606024, 40071.44750016302, 34560.84842215162, 29780.61494596183, 24874.988183377765, 0.078, 1.006, 0.06, 192.0, 0.0, 0.0, 0.0, 0.0, 0.0, 0.0, 0.0, 0.0, 0.0, 1.707474398182295E9, 0.0, 2024-02-09 11:26:38.182
204.0, -14568.26353886885, -15963.750000447037, 17564.626641825038, -1514.4871490582407, 46970.089908849, 18381.381735966414, 35041.38857619627, 10202.699625813917, 30849.162441392236, 2833.9106242550165, 38797.733342377345, 27774.702343309207, 40370.200916552654, 34633.111611975626, 29880.415484954774, 25008.539856498224, 0.078, 1.006, 0.06, 192.0, 0.0, 0.0, 0.0, 0.0, 0.0, 0.0, 0.0, 0.0, 0.0, 1.7074743981892953E9, 0.0, 2024-02-09 11:26:38.189
206.0, -14434.063665159187, -15982.994852423055, 17616.169764538976, -1498.7515209617045, 46996.75553998417, 18415.60225672749, 35038.25933197252, 10153.235215334322, 30718.516495050968, 3126.76318010845, 38461.49605053617, 27749.467223819167, 39846.00780558679, 34456.376368567515, 29756.765634628016, 24878.989145635267, 0.078, 1.006, 0.06, 192.0, 0.0, 0.0, 0.0, 0.0, 0.0, 0.0, 0.0, 0.0, 0.0, 1.7074743981973517E9, 0.0, 2024-02-09 11:26:38.197
208.0, -14325.50124233976, -16007.201791668153, 17612.14645053702, -1476.6009422064951, 47134.66580327342, 18444.123082652462, 35072.971591111615, 10129.05062783368, 31125.318244137557, 3480.3230739024966, 38898.763227315336, 27849.73714944567, 40388.57405049492, 34684.00653410036, 29965.59798307395, 25069.403656650025, 0.078, 1.006, 0.06, 192.0, 0.0, 0.0, 0.0, 0.0, 0.0, 0.0, 0.0, 0.0, 0.0, 1.707474398205356E9, 0.0, 2024-02-09 11:26:38.205
210.0, -14229.992238282233, -16011.135698692287, 17590.19703748191, -1446.6943081252944, 46818.94741284221, 18376.866683586442, 34892.883586035205, 9911.81402347255, 30916.30708173598, 3696.330332318584, 38594.243060856235, 27794.12600924087, 40043.26195040488, 34510.80286631618, 29833.76739427655, 24956.37088493954, 0.076, 1.036, 0.052000000000000005, 192.0, 1.0, 48.0, 16.0, 48.0, 0.5, 80.0, 0.0, 0.0, 0.0, 1.707474398214464E9, 0.0, 2024-02-09 11:26:38.214
212.0, -14067.293890392053, -15966.521616759494, 17666.68470700797, -1453.444534950797, 47143.40533535544, 18446.827643731554, 35030.92795979118, 9945.162826199869, 31107.414496828856, 3961.198504113973, 38722.49737054078, 27876.961574192235, 40077.59422988823, 34593.50432080082, 29884.774075123558, 24947.83251855761, 0.076, 1.036, 0.052000000000000005, 192.0, 0.0, 0.0, 0.0, 0.0, 0.0, 0.0, 0.0, 0.0, 0.0, 1.7074743982213378E9, 0.0, 2024-02-09 11:26:38.221
214.0, -14012.979151365656, -15953.781122419969, 17598.62364514156, -1443.1403807569004, 46911.23776569817, 18350.603383851456, 34894.02352500243, 9776.138934628838, 31221.095469128548, 4151.836532573287, 38910.65435536556, 27885.298774874067, 40401.09102738989, 34657.787937854286, 29951.203459644734, 25019.268693836773, 0.076, 1.036, 0.052000000000000005, 192.0, 0.0, 0.0, 0.0, 0.0, 0.0, 0.0, 0.0, 0.0, 0.0, 1.7074743982293713E9, 0.0, 2024-02-09 11:26:38.229
216.0, -13863.64714665975, -15904.115546240277, 17673.569044300206, -1443.0062702901687, 46967.81003091455, 18367.92598580432, 34931.90973185417, 9739.482073722134, 31049.65758915634, 4337.311308063425, 38581.56962175007, 27864.154024619347, 39900.54606205774, 34473.073121675625, 29799.457466537653, 24816.38190941595, 0.076, 1.036, 0.052000000000000005, 192.0, 0.0, 0.0, 0.0, 0.0, 0.0, 0.0, 0.0, 0.0, 0.0, 1.707474398238446E9, 0.0, 2024-02-09 11:26:38.238
218.0, -13771.312090314877, -15879.461572106073, 17672.742029755358, -1438.7594388436603, 47140.18668415388, 18386.276768002124, 35011.370183392784, 9778.821143963474, 31411.554683632217, 4538.208787227725, 39028.98449051195, 27966.748531669204, 40457.37271992835, 34692.746066182386, 30005.406439948852, 24983.550606197194, 0.076, 1.036, 0.052000000000000005, 192.0, 0.0, 0.0, 0.0, 0.0, 0.0, 0.0, 0.0, 0.0, 0.0, 1.7074743982454207E9, 0.0, 2024-02-09 11:26:38.245
220.0, -13707.587266872797, -15847.94561242409, 17642.00838112931, -1424.8566537924594, 46837.67817469576, 18329.369226618914, 34872.56585032533, 9671.62217755582, 31170.468767937276, 4628.018096449148, 38722.922053685434, 27906.04119372859, 40124.71170720002, 34511.16049422747, 29868.502005160095, 24881.403134036438, 0.08, 1.036, 0.048, 192.0, 1.0, 64.0, 16.0, 48.0, 0.5, 64.0, 0.0, 0.0, 0.0, 1.7074743982534113E9, 0.0, 2024-02-09 11:26:38.253
222.0, -13568.4029541496, -15777.604672623238, 17716.50674539885, -1429.1034852389678, 47169.69098683489, 18417.524506750644, 35030.72679409108, 9795.674359282775, 31338.196258329903, 4758.217007901312, 38839.0170143863, 27978.527900997153, 40160.56390530633, 34586.530576530764, 29919.911017407303, 24904.961872692333, 0.08, 1.036, 0.048, 192.0, 0.0, 0.0, 0.0, 0.0, 0.0, 0.0, 0.0, 0.0, 0.0, 1.707474398261432E9, 0.0, 2024-02-09 11:26:38.261
224.0, -13550.92388998555, -15756.191701435055, 17656.291145836254, -1393.8324324884932, 46943.848960858464, 18383.77337262313, 34924.46660095055, 9750.903815138796, 31426.68681462846, 4822.992363332792, 39019.976737496465, 27991.737781970238, 40481.62436266236, 34661.6324379006, 30003.70770737025, 25031.89742945402, 0.08, 1.036, 0.048, 192.0, 0.0, 0.0, 0.0, 0.0, 0.0, 0.0, 0.0, 0.0, 0.0, 1.707474398270606E9, 0.0, 2024-02-09 11:26:38.270
226.0, -13436.28179267428, -15692.176305315055, 17721.044149523277, -1391.284333620588, 46979.075310120024, 18429.08035863404, 34932.26735976546, 9767.64527173582, 31232.60661752303, 4872.993215679314, 38681.50427120975, 27970.593031715518, 39966.30489424526, 34491.535662595714, 29852.85578404138, 24881.850168925546, 0.08, 1.036, 0.048, 192.0, 0.0, 0.0, 0.0, 0.0, 0.0, 0.0, 0.0, 0.0, 0.0, 1.7074743982774255E9, 0.0, 2024-02-09 11:26:38.277
228.0, -13381.631777481054, -15664.348383468197, 17716.529097143306, -1393.2289353882, 47132.22946312779, 18451.02977168915, 34981.5082528005, 9821.043589239549, 31572.554298943796, 4953.347736996143, 39112.71412524154, 28055.97669553479, 40504.378438517866, 34708.72756346793, 30026.66294892585, 25053.936249486957, 0.08, 1.036, 0.048, 192.0, 0.0, 0.0, 0.0, 0.0, 0.0, 0.0, 0.0, 0.0, 0.0, 1.7074743982854278E9, 0.0, 2024-02-09 11:26:38.285
230.0, -13356.776637646752, -15639.180319211522, 17689.50583809684, -1372.3300543224877, 46833.16312231578, 18397.698509418788, 34836.959521408025, 9693.906866777763, 31318.14674355349, 4949.525588694285, 38808.931566349456, 27991.894244181425, 40168.67758854361, 34541.44710796441, 29887.188063524733, 24956.75086459528, 0.076, 1.038, 0.048, 192.0, 1.0, 48.0, 16.0, 56.0, 0.5, 64.0, 0.0, 0.0, 0.0, 1.7074743982934947E9, 0.0, 2024-02-09 11:26:38.293
232.0, -13231.562165208123, -15573.242673068366, 17778.33167056223, -1373.4476415452532, 47177.17882122741, 18484.959719772305, 35014.70059331663, 9817.623772337887, 31481.828568199704, 5031.690601311994, 38925.20534100597, 28065.096207272556, 40201.6911151041, 34610.84927449814, 29942.620389773896, 24958.717818107347, 0.076, 1.038, 0.048, 192.0, 0.0, 0.0, 0.0, 0.0, 0.0, 0.0, 0.0, 0.0, 0.0, 1.7074743983014636E9, 0.0, 2024-02-09 11:26:38.301
234.0, -13262.139351622982, -15584.03856564028, 17702.335739414186, -1369.7149002212168, 46951.269740017626, 18389.003680825674, 34916.241158991, 9718.940820567706, 31564.686484895527, 5050.778991076826, 39107.68498273909, 28077.836701612083, 40537.30255810053, 34685.8393771457, 30028.69695767128, 25062.7651885468, 0.076, 1.038, 0.048, 192.0, 0.0, 0.0, 0.0, 0.0, 0.0, 0.0, 0.0, 0.0, 0.0, 1.7074743983095093E9, 0.0, 2024-02-09 11:26:38.309
236.0, -13184.869371040986, -15543.447797709441, 17756.02462959583, -1377.158031124834, 46987.68073173532, 18406.236875800714, 34944.471412238054, 9702.936971537707, 31333.860019905573, 5042.799418306282, 38742.52453357274, 28033.021453979192, 40008.86261568816, 34495.044886475196, 29856.454414898686, 24859.386665747963, 0.076, 1.038, 0.048, 192.0, 0.0, 0.0, 0.0, 0.0, 0.0, 0.0, 0.0, 0.0, 0.0, 1.707474398317547E9, 0.0, 2024-02-09 11:26:38.317
238.0, -13160.46126609579, -15536.049370294735, 17746.726303902426, -1380.3766823263982, 47146.08754469008, 18409.32141653555, 34993.488787828544, 9739.392666744312, 31655.233401683978, 5105.831337670247, 39172.1474137482, 28121.556713766662, 40552.16646816331, 34717.91413043906, 30047.89710615839, 25032.456223065405, 0.076, 1.038, 0.048, 192.0, 0.0, 0.0, 0.0, 0.0, 0.0, 0.0, 0.0, 0.0, 0.0, 1.7074743983255413E9, 0.0, 2024-02-09 11:26:38.325
240.0, -13177.85092328202, -15545.07947505468, 17707.230771449897, -1366.9432839087588, 46843.44492476522, 18358.784122322097, 34892.16833021263, 9659.798104738964, 31385.49254959733, 5062.357194704676, 38855.53495353877, 28041.0680819831, 40213.06815303185, 34532.03702354873, 29906.187046311745, 24916.249503642262, 0.08, 1.028, 0.052000000000000005, 192.0, 1.0, 64.0, 16.0, 16.0, 0.5, 80.0, 0.0, 0.0, 0.0, 1.7074743983337753E9, 0.0, 2024-02-09 11:26:38.333
242.0, -13084.375927969924, -15504.06402397919, 17777.03526938382, -1373.7829177120827, 47167.366405411536, 18453.22024264577, 35039.24280872856, 9794.355606359912, 31516.697289549982, 5114.257945329899, 38958.50944024437, 28103.04946935767, 40229.25081601749, 34612.32448963219, 29957.46194809222, 24937.908344019455, 0.08, 1.028, 0.052000000000000005, 192.0, 0.0, 0.0, 0.0, 0.0, 0.0, 0.0, 0.0, 0.0, 0.0, 1.707474398341699E9, 0.0, 2024-02-09 11:26:38.341
244.0, -13143.540995543122, -15537.770454617794, 17690.48931485287, -1377.1803828692894, 46933.164827008826, 18377.716049875744, 34902.27131870644, 9697.527849379523, 31581.696162426015, 5111.843956928726, 39131.489590583995, 28098.93674837789, 40550.49008732916, 34683.60420270017, 30019.75625988916, 25029.461089308392, 0.08, 1.028, 0.052000000000000005, 192.0, 0.0, 0.0, 0.0, 0.0, 0.0, 0.0, 0.0, 0.0, 0.0, 1.707474398349605E9, 0.0, 2024-02-09 11:26:38.349
246.0, -13091.819058873542, -15521.766605587794, 17733.963457818445, -1393.5195080661188, 46966.15600182486, 18406.147468822895, 34920.39858345969, 9703.629875615821, 31347.673397978953, 5088.754604906393, 38755.645007568004, 28040.285770927167, 40018.96560418196, 34495.46956961985, 29852.453452641184, 24848.881345853966, 0.08, 1.028, 0.052000000000000005, 192.0, 0.0, 0.0, 0.0, 0.0, 0.0, 0.0, 0.0, 0.0, 0.0, 1.7074743983566182E9, 0.0, 2024-02-09 11:26:38.356
248.0, -13084.845314603486, -15521.476032909875, 17717.244352965874, -1406.7517407836606, 47140.72312602081, 18428.476861533745, 34999.25553789801, 9771.288606082035, 31652.55119234934, 5138.286070619353, 39164.413710166664, 28116.728736964316, 40550.847715240445, 34708.63815649011, 30032.005015850667, 25019.559266514694, 0.08, 1.028, 0.052000000000000005, 192.0, 0.0, 0.0, 0.0, 0.0, 0.0, 0.0, 0.0, 0.0, 0.0, 1.7074743983656404E9, 0.0, 2024-02-09 11:26:38.365
250.0, -13130.308762825582, -15553.148454803046, 17673.792561744758, -1404.1812901713004, 46830.14563681432, 18367.568357893033, 34854.72915825, 9654.590148280877, 31376.887127982038, 5093.403767753097, 38832.64676721654, 28024.416032363897, 40209.11189426326, 34530.94178807042, 29879.834339598936, 24901.720869746314, 0.074, 1.018, 0.064, 192.0, 1.0, 40.0, 15.5, 104.0, 1.0, 0.0, 0.0, 0.0, 0.0, 1.707474398373649E9, 0.0, 2024-02-09 11:26:38.373
252.0, -13058.693773590778, -15508.579076359163, 17754.124731317133, -1408.7857495290934, 47168.03695774519, 18443.273716363157, 35025.27296844399, 9781.860981209396, 31496.625423029116, 5127.467826302985, 38917.87396882462, 28073.03107655419, 40216.73383912252, 34583.87071894058, 29918.525209251075, 24899.709212745336, 0.074, 1.018, 0.064, 192.0, 0.0, 0.0, 0.0, 0.0, 0.0, 0.0, 0.0, 0.0, 0.0, 1.7074743983815932E9, 0.0, 2024-02-09 11:26:38.381
254.0, -13096.691739164798, -15498.990177987836, 17700.30173066875, -1381.8295457159932, 46952.67789991831, 18376.531407419614, 34924.10897303927, 9707.474375662134, 31566.340513985222, 5133.815721728292, 39109.71899148452, 28090.756009907247, 40549.48425882867, 34672.5847926837, 30008.714498128236, 25014.552475756704, 0.074, 1.018, 0.064, 192.0, 0.0, 0.0, 0.0, 0.0, 0.0, 0.0, 0.0, 0.0, 0.0, 1.7074743983896165E9, 0.0, 2024-02-09 11:26:38.389
0.0, -13163.970489975274, -15533.188347004456, 17740.378408477118, -1405.61180181644, 46980.282304320615, 18386.947320335785, 34943.95732211558, 9706.289733206002, 31328.42854600293, 5078.316340245765, 38737.85301898158, 28034.183744690865, 40017.40098207009, 34492.586194585114, 29847.67017932775, 24831.20111598982, 0.074, 1.018, 0.064, 192.0, 0.0, 0.0, 0.0, 0.0, 0.0, 0.0, 0.0, 0.0, 0.0, 1.7074743983975973E9, 0.0, 2024-02-09 11:26:38.397
2.0, -13215.33479873357, -15524.068835266691, 17726.140347259086, -1429.1705404723336, 47147.89803599096, 18395.843314628997, 35002.74241003304, 9767.265292080081, 31570.09560705371, 4974.64894946205, 39114.636375264694, 28064.515061916718, 40540.92354070229, 34697.14935984008, 30018.996300577677, 24979.236719517317, 0.074, 1.018, 0.064, 192.0, 0.0, 0.0, 0.0, 0.0, 0.0, 0.0, 0.0, 0.0, 0.0, 1.7074743984066648E9, 0.0, 2024-02-09 11:26:38.406
4.0, -13289.96727346984, -15604.870391472627, 17684.342585127662, -1443.7885813461044, 46834.92891012775, 18332.83374700949, 34844.87203894521, 9654.81366572543, 31275.2313941993, 4751.869112476005, 38776.36507467808, 27968.2013950588, 40209.849501830286, 34523.87863682254, 29868.345542948908, 24856.905622113423, 0.076, 1.032, 0.068, 192.0, 1.0, 48.0, 16.0, 32.0, 1.0, 16.0, 0.0, 0.0, 0.0, 1.7074743984126105E9, 0.0, 2024-02-09 11:26:38.412
6.0, -13281.674776276921, -15707.509602011396, 17739.059655554254, -1492.4930325142184, 47156.39169888398, 18407.98031186823, 35015.438200883655, 9775.714251484187, 31354.937714926928, 4457.228417066147, 38810.92087160598, 27979.48902600873, 40213.537539665405, 34565.4081780205, 29900.06266833099, 24824.09326125303, 0.076, 1.032, 0.068, 192.0, 0.0, 0.0, 0.0, 0.0, 0.0, 0.0, 0.0, 0.0, 0.0, 1.7074743984216125E9, 0.0, 2024-02-09 11:26:38.421
8.0, -13332.703808868386, -15796.134268776688, 17670.752724498838, -1482.188878320322, 46941.32321373501, 18370.518788161135, 34927.01469981846, 9768.964024658684, 31393.60623283461, 4078.835735182254, 38960.72226294545, 27976.58329922954, 40548.321968117, 34644.55570513674, 29967.408474374828, 24908.716965760825, 0.076, 1.032, 0.068, 192.0, 0.0, 0.0, 0.0, 0.0, 0.0, 0.0, 0.0, 0.0, 0.0, 1.7074743984296818E9, 0.0, 2024-02-09 11:26:38.429
10.0, -13394.84165845414, -15821.391740011186, 17713.019873263824, -1505.926430931858, 46964.904304135365, 18402.92881762133, 34940.224580791546, 9838.835577825974, 31127.039328460614, 3744.4536381308603, 38565.565772720074, 27916.01007175566, 40026.25227287439, 34476.515290321746, 29809.962786431646, 24730.439451985294, 0.076, 1.032, 0.068, 192.0, 0.0, 0.0, 0.0, 0.0, 0.0, 0.0, 0.0, 0.0, 0.0, 1.707474398437691E9, 0.0, 2024-02-09 11:26:38.437
12.0, -13527.119282140648, -15870.744391768503, 17698.535942856783, -1524.2325096407544, 47144.88055048949, 18424.587657998523, 35007.79390427994, 9968.319233455568, 31375.747189014815, 3444.2697100960863, 38966.98075139293, 27978.170273085867, 40564.92931424729, 34696.3894005286, 29993.515311898627, 24881.336078803073, 0.076, 1.032, 0.068, 192.0, 0.0, 0.0, 0.0, 0.0, 0.0, 0.0, 0.0, 0.0, 0.0, 1.7074743984456868E9, 0.0, 2024-02-09 11:26:38.445
14.0, -13740.95842134457, -15898.9522932711, 17640.264945061797, -1536.6153760689947, 46835.68886943923, 18349.61990709542, 34878.064379461335, 9933.53991908311, 31025.09302199996, 3032.6399842071514, 38656.40326218644, 27885.56699580753, 40237.92329286615, 34526.985529301826, 29854.085129986423, 24759.116740121455, 0.084, 1.018, 0.062, 192.0, 1.0, 80.0, 15.5, 104.0, 0.5, 120.0, 0.0, 0.0, 0.0, 1.707474398453713E9, 0.0, 2024-02-09 11:26:38.453
16.0, -13898.493516265575, -15840.234260587009, 17697.26189342283, -1564.7785740826816, 47170.1827252129, 18424.520602765155, 35021.3167096754, 10130.749360412283, 31000.79667577704, 2568.260141403692, 38729.784039233215, 27918.84874330148, 40231.86597011876, 34591.716181244396, 29879.09673203191, 24739.17898406732, 0.084, 1.018, 0.062, 192.0, 0.0, 0.0, 0.0, 0.0, 0.0, 0.0, 0.0, 0.0, 0.0, 1.707474398462109E9, 0.0, 2024-02-09 11:26:38.462
18.0, -14140.339391271997, -15808.919466605124, 17616.370930239074, -1569.0701090181005, 46955.33775750849, 18353.7326280752, 34927.66290040766, 10111.057473547158, 30865.747435778077, 2203.278506192983, 38887.94498299897, 27894.842969756482, 40565.35399739194, 34674.216470028936, 29935.043148403543, 24829.457679922307, 0.084, 1.018, 0.062, 192.0, 0.0, 0.0, 0.0, 0.0, 0.0, 0.0, 0.0, 0.0, 0.0, 1.7074743984686878E9, 0.0, 2024-02-09 11:26:38.468
20.0, -14293.650006490947, -15785.517190160417, 17669.635137276073, -1579.1283940229887, 46982.67394097733, 18397.609102440965, 34953.993255376015, 10175.497552811808, 30401.45699995244, 2010.0700271213088, 38512.97211801674, 27848.105472100437, 40021.647813516596, 34503.002107501285, 29760.02898931849, 24660.232622651176, 0.084, 1.018, 0.062, 192.0, 0.0, 0.0, 0.0, 0.0, 0.0, 0.0, 0.0, 0.0, 0.0, 1.707474398477732E9, 0.0, 2024-02-09 11:26:38.477
22.0, -14393.361138506072, -15749.039143209357, 17657.095808636645, -1595.4228157309076, 47158.73863205178, 18413.478841004235, 35032.4702301586, 10294.051205402757, 30464.153643149573, 1918.4502265990052, 38906.31811694123, 27882.124827161413, 40528.697136485236, 34722.228017118934, 29929.790488456547, 24844.63451440746, 0.084, 1.018, 0.062, 192.0, 0.0, 0.0, 0.0, 0.0, 0.0, 0.0, 0.0, 0.0, 0.0, 1.7074743984857483E9, 0.0, 2024-02-09 11:26:38.485
24.0, -14485.20445647293, -15687.974177357457, 17612.01234007029, -1588.0914435495667, 46851.73742195814, 18346.803587294053, 34911.3908304442, 10234.193233751444, 30023.399594235372, 1820.7060480959474, 38599.138092891946, 27794.4612854077, 40197.66780110214, 34541.69297715342, 29783.297155296466, 24737.480251488716, 0.085, 1.017, 0.069, 192.0, 1.0, 88.0, 15.5, 96.0, 1.0, 48.0, 0.0, 0.0, 0.0, 1.7074743984937642E9, 0.0, 2024-02-09 11:26:38.493
26.0, -14530.667904695023, -15625.322237649232, 17681.302747881742, -1600.4519582333517, 47178.20700147236, 18426.956942910783, 35058.04062581547, 10414.951791161513, 29961.418206860806, 1814.201690459453, 38658.70549186534, 27811.023928049082, 40178.937039248594, 34609.128190175084, 29808.062888152945, 24744.386940525408, 0.085, 1.017, 0.069, 192.0, 0.0, 0.0, 0.0, 0.0, 0.0, 0.0, 0.0, 0.0, 0.0, 1.7074743985007653E9, 0.0, 2024-02-09 11:26:38.500
28.0, -14632.301286733305, -15652.926642051536, 17604.166877766478, -1599.0661500771225, 46970.402833271364, 18360.326392689516, 34961.503441513, 10390.275465282853, 29904.890645133335, 1810.3571904131402, 38847.19775285694, 27799.82570407697, 40515.73312470116, 34690.62265045913, 29880.57194716596, 24863.655848938924, 0.085, 1.017, 0.069, 192.0, 0.0, 0.0, 0.0, 0.0, 0.0, 0.0, 0.0, 0.0, 0.0, 1.7074743985098033E9, 0.0, 2024-02-09 11:26:38.509
30.0, -14614.621056869157, -15586.631367997095, 17659.845073204648, -1591.2206877733097, 47020.895423995906, 18414.529372993635, 35021.517875375495, 10475.949701780046, 29542.99355065746, 1804.5457368547604, 38457.919771423316, 27726.355520052377, 39966.37194947862, 34505.21493020236, 29714.69965156313, 24701.04690802657, 0.085, 1.017, 0.069, 192.0, 0.0, 0.0, 0.0, 0.0, 0.0, 0.0, 0.0, 0.0, 0.0, 1.7074743985180724E9, 0.0, 2024-02-09 11:26:38.518
32.0, -14630.870775088166, -15589.112411631635, 17652.357238812117, -1602.1953943008655, 47213.47805422283, 18433.282486591637, 35103.68288799321, 10548.145836370688, 29769.61788768982, 1874.5737522332374, 38889.107273710644, 27794.394230174334, 40495.01305759109, 34736.779002759344, 29904.62242419987, 24888.73450621778, 0.085, 1.017, 0.069, 192.0, 0.0, 0.0, 0.0, 0.0, 0.0, 0.0, 0.0, 0.0, 0.0, 1.7074743985248137E9, 0.0, 2024-02-09 11:26:38.524
34.0, -14662.431438259058, -15624.718740548939, 17602.33403472114, -1601.278972778198, 46893.445777111745, 18373.335107962503, 34954.37323503175, 10442.153864163622, 29433.514706315364, 1854.9265688570224, 38577.322790303566, 27685.09419978788, 40173.37145487922, 34559.5073174843, 29752.854079348337, 24776.372286840953, 0.0885, 1.0114999999999998, 0.07750000000000001, 192.0, 1.0, 112.0, 15.5, 56.0, 1.0, 88.0, 0.0, 0.0, 0.0, 1.7074743985339851E9, 0.0, 2024-02-09 11:26:38.533
36.0, -14619.158460993584, -15602.94814144947, 17671.691497765958, -1608.2750687927091, 47220.9435368709, 18464.99961197372, 35117.9880044446, 10583.416889121163, 29489.21525349799, 1958.2810352183624, 38645.897942292446, 27730.691758476707, 40157.0770331713, 34625.690832816465, 29774.624678447806, 24781.893167721413, 0.0885, 1.0114999999999998, 0.07750000000000001, 192.0, 0.0, 0.0, 0.0, 0.0, 0.0, 0.0, 0.0, 0.0, 0.0, 1.7074743985418286E9, 0.0, 2024-02-09 11:26:38.541
38.0, -14639.18562402554, -15640.946107023492, 17583.402107167498, -1604.3188100241198, 47002.566993542554, 18390.568302937547, 35004.9105292452, 10505.65517016115, 29520.64180620215, 1974.3072359928176, 38808.2610140158, 27706.596577953886, 40490.07332206647, 34716.7965432163, 29838.48361235662, 24894.300090587152, 0.0885, 1.0114999999999998, 0.07750000000000001, 192.0, 0.0, 0.0, 0.0, 0.0, 0.0, 0.0, 0.0, 0.0, 0.0, 1.707474398548836E9, 0.0, 2024-02-09 11:26:38.548
40.0, -14589.162419934562, -15631.357208652165, 17637.426273515972, -1593.1652895409215, 47031.71366831227, 18435.070626148063, 35036.962930794114, 10536.32176355383, 29278.30419281771, 1990.1099193227196, 38436.19387581276, 27663.860042555338, 39945.942455046476, 34525.28679672322, 29662.24010732652, 24725.052681571568, 0.0885, 1.0114999999999998, 0.07750000000000001, 192.0, 0.0, 0.0, 0.0, 0.0, 0.0, 0.0, 0.0, 0.0, 0.0, 1.7074743985568645E9, 0.0, 2024-02-09 11:26:38.556
42.0, -14599.868905528654, -15656.279403719833, 17629.603162956617, -1600.2060890443433, 47227.98433637433, 18451.521510067167, 35136.80817327597, 10627.449825698117, 29560.584373543785, 2076.968798276043, 38839.44169753095, 27718.040671115003, 40473.51067942508, 34752.44757562251, 29853.81690905296, 24912.06972742912, 0.0885, 1.0114999999999998, 0.07750000000000001, 192.0, 0.0, 0.0, 0.0, 0.0, 0.0, 0.0, 0.0, 0.0, 0.0, 1.7074743985658977E9, 0.0, 2024-02-09 11:26:38.565
44.0, -14587.843667011699, -15651.160854239566, 17588.587711881126, -1594.953429097346, 46901.11242545991, 18366.406067181357, 34977.59669752082, 10508.024455073411, 29291.759942979807, 2099.1417287757076, 38535.77089736115, 27648.504394114545, 40146.88463769968, 34576.85227118162, 29710.1622474387, 24805.87658952196, 0.08625, 1.01275, 0.08275, 192.0, 1.0, 80.0, 15.5, 88.0, 1.0, 96.0, 0.0, 0.0, 0.0, 1.707474398573907E9, 0.0, 2024-02-09 11:26:38.573
46.0, -14615.381016180638, -15684.95669185599, 17648.423331787984, -1613.4606735063403, 47224.184539816924, 18447.542899554122, 35133.321301140946, 10633.507148445506, 29392.476903495422, 2175.5176395794915, 38592.700790488816, 27676.354667705855, 40109.08783782576, 34625.02028048281, 29715.660776574707, 24788.62104280246, 0.08625, 1.01275, 0.08275, 192.0, 0.0, 0.0, 0.0, 0.0, 0.0, 0.0, 0.0, 0.0, 0.0, 1.70747439858107E9, 0.0, 2024-02-09 11:26:38.581
48.0, -14588.715385045456, -15668.19288351451, 17581.166932721964, -1596.5851064425835, 47025.81280777607, 18386.790858124597, 35067.07073057541, 10574.655005294682, 29473.21140446799, 2215.7731313434997, 38778.68965610143, 27672.644278126274, 40456.81392631697, 34708.884025679115, 29797.982251403602, 24909.8792564725, 0.08625, 1.01275, 0.08275, 192.0, 0.0, 0.0, 0.0, 0.0, 0.0, 0.0, 0.0, 0.0, 0.0, 1.7074743985891623E9, 0.0, 2024-02-09 11:26:38.589
50.0, -14560.753352731866, -15664.169569512556, 17636.465148504394, -1597.635638431983, 47041.54843587261, 18414.88700090492, 35094.719838466626, 10579.572389074849, 29247.771709891764, 2222.545709913458, 38406.71192487621, 27631.69588228415, 39912.63835580806, 34516.636671619024, 29628.690138899106, 24735.647408443383, 0.08625, 1.01275, 0.08275, 192.0, 0.0, 0.0, 0.0, 0.0, 0.0, 0.0, 0.0, 0.0, 0.0, 1.7074743985978923E9, 0.0, 2024-02-09 11:26:38.597
52.0, -14575.349041861182, -15706.570828744272, 17631.994799613334, -1596.5851064425835, 47222.3964002605, 18442.267887862672, 35166.156013745785, 10640.972631093578, 29564.317114867823, 2272.703024471167, 38822.11909557809, 27696.04655457098, 40439.51367610856, 34742.27753189534, 29812.53323704401, 24912.91909371842, 0.08625, 1.01275, 0.08275, 192.0, 0.0, 0.0, 0.0, 0.0, 0.0, 0.0, 0.0, 0.0, 0.0, 1.7074743986048987E9, 0.0, 2024-02-09 11:26:38.604
54.0, -14563.279099855317, -15711.15293635761, 17570.795723294705, -1603.3353332680863, 46885.10857642991, 18358.270032199627, 35004.68701180065, 10497.183859012588, 29308.65786178802, 2264.3434720448818, 38524.885597811415, 27621.257617623523, 40120.95661413153, 34571.89018391254, 29662.91065966018, 24804.44607787682, 0.084125, 1.013375, 0.082375, 192.0, 1.0, 72.0, 15.5, 88.0, 1.0, 72.0, 0.0, 0.0, 0.0, 1.7074743986129367E9, 0.0, 2024-02-09 11:26:38.612
56.0, -14539.07216061022, -15738.332657615265, 17644.62353523058, -1616.8804904080023, 47209.499443709785, 18438.155166882894, 35159.62930436484, 10612.451805168606, 29425.088098655713, 2307.951725477186, 38577.322790303566, 27657.914478530227, 40087.294886981836, 34614.6714228, 29673.371276065267, 24787.168179412864, 0.084125, 1.013375, 0.082375, 192.0, 0.0, 0.0, 0.0, 0.0, 0.0, 0.0, 0.0, 0.0, 0.0, 1.7074743986220136E9, 0.0, 2024-02-09 11:26:38.622
58.0, -14571.92922495952, -15798.101222288755, 17574.19318845191, -1607.4480542478627, 46998.43192081832, 18371.122285261426, 35058.286495004475, 10543.340211312796, 29504.07916356077, 2313.5173098465575, 38762.52934486024, 27651.544231360465, 40431.91408299376, 34702.15615059807, 29759.425492218197, 24905.78888723718, 0.084125, 1.013375, 0.082375, 192.0, 0.0, 0.0, 0.0, 0.0, 0.0, 0.0, 0.0, 0.0, 0.0, 1.7074743986290169E9, 0.0, 2024-02-09 11:26:38.629
60.0, -14538.379256532106, -15754.984707234467, 17631.592468213137, -1600.407254744441, 47008.087874423014, 18398.614930941454, 35073.08334983389, 10553.75612422897, 29277.70069571742, 2333.499769389602, 38390.104578745915, 27619.692995511654, 39889.437245063455, 34523.09632576661, 29599.297594940377, 24732.965199108745, 0.084125, 1.013375, 0.082375, 192.0, 0.0, 0.0, 0.0, 0.0, 0.0, 0.0, 0.0, 0.0, 0.0, 1.7074743986369932E9, 0.0, 2024-02-09 11:26:38.636
62.0, -14539.116864099129, -15788.713489617527, 17621.735348908347, -1610.5549467271503, 47182.63264687451, 18424.25238183169, 35144.47482162414, 10632.501319945017, 29593.687307082095, 2398.3868835433586, 38797.26395574379, 27688.268147500534, 40407.97536468213, 34745.40677611909, 29782.805416918447, 24911.175657650907, 0.084125, 1.013375, 0.082375, 192.0, 0.0, 0.0, 0.0, 0.0, 0.0, 0.0, 0.0, 0.0, 0.0, 1.7074743986449964E9, 0.0, 2024-02-09 11:26:38.644
64.0, -14521.05665457924, -15774.229559210487, 17584.095011245612, -1599.4684814773182, 46869.35059658893, 18356.43718915429, 35026.189389966654, 10521.435501746595, 29357.697589122963, 2394.9894183861516, 38500.075161466026, 27622.933998457673, 40105.80213139083, 34573.94654440243, 29641.92237161665, 24807.105935467, 0.07906250000000001, 1.0176875, 0.0801875, 192.0, 1.0, 40.0, 15.5, 120.0, 1.0, 56.0, 0.0, 0.0, 0.0, 1.7074743986539884E9, 0.0, 2024-02-09 11:26:38.653
66.0, -14532.523099484813, -15811.89224861768, 17647.0151718873, -1628.5704527581279, 47183.30319920817, 18430.130890623437, 35173.39797894931, 10624.588802407838, 29470.998581766915, 2418.90578495333, 38550.43364172383, 27652.684170327684, 40080.65641887861, 34605.68602152896, 29664.609392238784, 24794.253682405197, 0.07906250000000001, 1.0176875, 0.0801875, 192.0, 0.0, 0.0, 0.0, 0.0, 0.0, 0.0, 0.0, 0.0, 0.0, 1.7074743986611109E9, 0.0, 2024-02-09 11:26:38.661
68.0, -14554.003125906363, -15830.220679071032, 17576.227197197342, -1612.6113072170388, 46972.45919376126, 18369.758828849655, 35075.47498649061, 10547.56469101485, 29572.4307981051, 2449.7735440461092, 38742.90451322848, 27652.728873816595, 40432.87520800534, 34703.497255265385, 29751.803547358937, 24905.140686647974, 0.07906250000000001, 1.0176875, 0.0801875, 192.0, 0.0, 0.0, 0.0, 0.0, 0.0, 0.0, 0.0, 0.0, 0.0, 1.7074743986691396E9, 0.0, 2024-02-09 11:26:38.669
70.0, -14526.44342499297, -15819.55889696585, 17625.132814065553, -1604.2964582796644, 46983.63506598891, 18407.086242090016, 35094.87630067782, 10550.626880005228, 29344.174783727503, 2444.923215499308, 38360.667331298275, 27605.432582549165, 39881.72589322637, 34511.76399132777, 29581.170330187124, 24723.443355970783, 0.07906250000000001, 1.0176875, 0.0801875, 192.0, 0.0, 0.0, 0.0, 0.0, 0.0, 0.0, 0.0, 0.0, 0.0, 1.7074743986770685E9, 0.0, 2024-02-09 11:26:38.677
72.0, -14527.896288382566, -15831.986466883001, 17623.165860553487, -1603.2235745458097, 47172.55201012517, 18434.042445903116, 35171.743949859614, 10626.82397685337, 29681.97669768056, 2506.524623218134, 38797.934508077444, 27695.80068538197, 40407.66244025975, 34740.623502805654, 29776.211652304133, 24920.451631599863, 0.07906250000000001, 1.0176875, 0.0801875, 192.0, 0.0, 0.0, 0.0, 0.0, 0.0, 0.0, 0.0, 0.0, 0.0, 1.70747439868513E9, 0.0, 2024-02-09 11:26:38.685
74.0, -14520.430805734493, -15837.79792044138, 17569.0969907161, -1602.8659466345248, 46843.26611080958, 18351.49745362967, 35007.57038683539, 10483.92927455059, 29425.2445608669, 2462.1564104743493, 38494.129597440915, 27614.6191495203, 40090.35707597221, 34563.46357625289, 29623.750403374484, 24810.659862835393, 0.07653125, 1.01784375, 0.08109374999999999, 192.0, 1.0, 40.0, 15.5, 104.0, 1.0, 72.0, 0.0, 0.0, 0.0, 1.707474398694064E9, 0.0, 2024-02-09 11:26:38.694
76.0, -14498.68255837948, -15861.08843816381, 17636.554555482217, -1622.4907782662845, 47170.60740835755, 18425.392320798914, 35184.3056302435, 10604.606342864794, 29557.365722342223, 2510.4361784978128, 38555.30632201509, 27661.51310938753, 40050.59332258622, 34607.49651282984, 29638.167278548157, 24783.323679366553, 0.07653125, 1.01784375, 0.08109374999999999, 192.0, 0.0, 0.0, 0.0, 0.0, 0.0, 0.0, 0.0, 0.0, 0.0, 1.7074743987011263E9, 0.0, 2024-02-09 11:26:38.701
78.0, -14535.49588149737, -15892.157362956688, 17563.1961301799, -1617.3498770415638, 46964.01023435715, 18348.904651272853, 35078.71598943663, 10507.197440528565, 29646.05744434088, 2498.7685678921425, 38747.03958595271, 27647.431510380688, 40403.46031230215, 34686.21935680143, 29727.64131160275, 24897.831666211092, 0.07653125, 1.01784375, 0.08109374999999999, 192.0, 0.0, 0.0, 0.0, 0.0, 0.0, 0.0, 0.0, 0.0, 0.0, 1.7074743987091217E9, 0.0, 2024-02-09 11:26:38.709
80.0, -14477.694270335945, -15866.877539977735, 17625.758662910303, -1613.7735979287147, 46975.90136240737, 18366.271956714627, 35092.127036109814, 10480.26358845992, 29449.92088674556, 2509.9891436087064, 38387.35531417791, 27618.731870500073, 39861.25169530531, 34490.06044746166, 29564.585335801286, 24717.497791945672, 0.07653125, 1.01784375, 0.08109374999999999, 192.0, 0.0, 0.0, 0.0, 0.0, 0.0, 0.0, 0.0, 0.0, 0.0, 1.7074743987171152E9, 0.0, 2024-02-09 11:26:38.717
82.0, -14468.373592898082, -15843.922298422134, 17625.602200699115, -1616.5228624967174, 47174.47426014832, 18408.8967333909, 35183.6574296543, 10587.1496304452, 29799.904501426758, 2596.356284184013, 38804.34945873612, 27696.314775504445, 40386.85296617186, 34715.1425141266, 29758.151442784245, 24895.238863854276, 0.07653125, 1.01784375, 0.08109374999999999, 192.0, 0.0, 0.0, 0.0, 0.0, 0.0, 0.0, 0.0, 0.0, 0.0, 1.7074743987251227E9, 0.0, 2024-02-09 11:26:38.725
84.0, -14458.784694526756, -15852.773589226437, 17591.225217726853, -1589.119623794511, 46867.94243668824, 18380.420610954836, 35080.6829429487, 10511.824251630815, 29571.357914371245, 2569.2436181597254, 38505.12665571292, 27617.5695797884, 40085.10441602521, 34554.85815463759, 29635.73093840253, 24815.9572262713, 0.074265625, 1.019921875, 0.07854687499999999, 192.0, 1.0, 32.0, 15.5, 120.0, 1.0, 48.0, 0.0, 0.0, 0.0, 1.7074743987333524E9, 0.0, 2024-02-09 11:26:38.733
86.0, -14455.90131949202, -15874.231263903532, 17658.235747603863, -1605.3022867801533, 47182.945571296885, 18468.821760275576, 35238.508610547615, 10628.746226876525, 29711.302186405923, 2635.8518166365407, 38568.91853438837, 27665.514071645033, 40045.899456250605, 34603.383791850065, 29671.024342897457, 24822.77450833017, 0.074265625, 1.019921875, 0.07854687499999999, 192.0, 0.0, 0.0, 0.0, 0.0, 0.0, 0.0, 0.0, 0.0, 0.0, 1.7074743987411532E9, 0.0, 2024-02-09 11:26:38.741
88.0, -14463.992650984843, -15901.969778772567, 17572.29329017321, -1606.2857635361868, 46965.50780123565, 18386.567340680045, 35116.35632709936, 10541.663830478648, 29876.48157793064, 2653.62145347851, 38776.767406078274, 27662.362475676833, 40405.60607976986, 34681.30197302127, 29750.84242234736, 24938.55654460866, 0.074265625, 1.019921875, 0.07854687499999999, 192.0, 0.0, 0.0, 0.0, 0.0, 0.0, 0.0, 0.0, 0.0, 0.0, 1.7074743987502408E9, 0.0, 2024-02-09 11:26:38.750
90.0, -14421.61374349758, -15940.615944935793, 17616.370930239074, -1612.70071419486, 46959.24931278817, 18386.232064513217, 35104.778123471515, 10506.728053895004, 29735.17384948419, 2602.882993564963, 38409.08120978847, 27629.170135160704, 39856.60253245861, 34472.380217597514, 29569.94975447056, 24741.615324212948, 0.074265625, 1.019921875, 0.07854687499999999, 192.0, 0.0, 0.0, 0.0, 0.0, 0.0, 0.0, 0.0, 0.0, 0.0, 1.7074743987571647E9, 0.0, 2024-02-09 11:26:38.757
92.0, -14381.358251733573, -15964.554663247427, 17607.318473734675, -1621.4625980213402, 47151.831943015095, 18399.509000719667, 35174.62732489435, 10562.987394689011, 30163.612087203514, 2514.9288791333292, 38829.629281715075, 27728.277770075532, 40365.17177405021, 34679.1338538091, 29755.4245299607, 24902.16790463542, 0.074265625, 1.019921875, 0.07854687499999999, 192.0, 0.0, 0.0, 0.0, 0.0, 0.0, 0.0, 0.0, 0.0, 0.0, 1.7074743987651455E9, 0.0, 2024-02-09 11:26:38.765
94.0, -14370.852931839578, -15986.034689668977, 17582.709203089384, -1584.5151644367177, 46852.65384348081, 18353.39735190837, 35059.337026993875, 10456.280166659375, 30078.608403039983, 2354.5551126665014, 38542.096441042, 27665.1787954782, 40066.55246812731, 34512.233377961325, 29643.710511173074, 24821.23223796275, 0.0721328125, 1.0139609375, 0.07627343749999999, 192.0, 1.0, 24.0, 15.5, 64.0, 1.0, 40.0, 0.0, 0.0, 0.0, 1.7074743987731931E9, 0.0, 2024-02-09 11:26:38.773
96.0, -14326.59647781807, -16009.526373091505, 17674.88779722307, -1564.5997601270392, 47192.4897661793, 18445.84416697552, 35249.3715583529, 10573.47036283855, 30379.19466247495, 2359.606606913401, 38629.9164450069, 27753.848165732405, 40037.31638637977, 34569.09621585563, 29725.897875535236, 24850.66948541039, 0.0721328125, 1.0139609375, 0.07627343749999999, 192.0, 0.0, 0.0, 0.0, 0.0, 0.0, 0.0, 0.0, 0.0, 0.0, 1.7074743987811997E9, 0.0, 2024-02-09 11:26:38.781
98.0, -14342.130940214509, -16072.670051177747, 17608.0560813017, -1529.6639835433941, 46990.72056898124, 18380.174741765826, 35137.12109769834, 10480.487105904473, 30600.96867096051, 2409.7415697266542, 38862.55340129774, 27791.063820250492, 40397.44769304367, 34660.44779544447, 29848.832470039426, 25000.403821516495, 0.0721328125, 1.0139609375, 0.07627343749999999, 192.0, 0.0, 0.0, 0.0, 0.0, 0.0, 0.0, 0.0, 0.0, 0.0, 1.7074743987891529E9, 0.0, 2024-02-09 11:26:38.789
100.0, -14244.63263090046, -16050.407713700262, 17666.751762241336, -1503.3336285750424, 46999.10247315198, 18406.683910689822, 35144.05013847949, 10450.960451479013, 30491.55688185178, 2649.5087324987335, 38503.47262662323, 27773.07066596397, 39851.01459634479, 34470.4356158299, 29710.54222709444, 24864.88519488397, 0.0721328125, 1.0139609375, 0.07627343749999999, 192.0, 0.0, 0.0, 0.0, 0.0, 0.0, 0.0, 0.0, 0.0, 0.0, 1.7074743987972023E9, 0.0, 2024-02-09 11:26:38.797
102.0, -14168.904920685878, -16031.296972190974, 17689.796410774758, -1471.1918200483108, 47205.140853541, 18431.919030179863, 35224.42701154077, 10432.87789021467, 30930.992177843116, 2995.5137366668864, 38948.65232093958, 27882.191882394778, 40367.78692815148, 34694.064819105246, 29930.97513091268, 25063.703961813924, 0.0721328125, 1.0139609375, 0.07627343749999999, 192.0, 0.0, 0.0, 0.0, 0.0, 0.0, 0.0, 0.0, 0.0, 0.0, 1.7074743988063757E9, 0.0, 2024-02-09 11:26:38.806
104.0, -14099.346291940963, -16047.74785611008, 17669.16575064251, -1438.3571074434649, 46895.613896323914, 18363.098009001973, 35056.967742081615, 10193.11072744259, 30792.053734308927, 3297.0834728578893, 38715.27775708172, 27854.810995437027, 40085.37263695868, 34536.32855848414, 29836.896638500293, 24985.428152731438, 0.07306640625, 1.02398046875, 0.07213671875, 192.0, 1.0, 40.0, 16.0, 40.0, 1.0, 16.0, 0.0, 0.0, 0.0, 1.707474398812225E9, 0.0, 2024-02-09 11:26:38.812
106.0, -13928.154281157767, -16032.615725113837, 17755.935222618013, -1431.7409910846939, 47224.877443895035, 18454.047257190618, 35197.18023504975, 10189.579151818652, 30992.99591696214, 3622.3237064270625, 38800.41555171199, 27923.654368359374, 40040.13270618114, 34576.047608381225, 29900.86733113138, 24993.877112135546, 0.07306640625, 1.02398046875, 0.07213671875, 192.0, 0.0, 0.0, 0.0, 0.0, 0.0, 0.0, 0.0, 0.0, 0.0, 1.7074743988212242E9, 0.0, 2024-02-09 11:26:38.821
108.0, -13874.957129354136, -16018.221201684619, 17678.084096680177, -1403.354275626454, 47027.69035431032, 18405.611026955965, 35072.50220447805, 10023.975077149282, 31187.947832101327, 3861.4426686099378, 39045.05539477532, 27945.246153503198, 40427.399030613786, 34675.57992644071, 30028.048757082077, 25109.793258880767, 0.07306640625, 1.02398046875, 0.07213671875, 192.0, 0.0, 0.0, 0.0, 0.0, 0.0, 0.0, 0.0, 0.0, 0.0, 1.7074743988292212E9, 0.0, 2024-02-09 11:26:38.829
110.0, -13745.406418491177, -15972.198959851143, 17718.98778903339, -1399.8450517469707, 47022.30358389659, 18432.67898949134, 35058.93469559368, 9926.365009112957, 30997.779190275574, 4064.955301875508, 38680.2302217758, 27908.231664685212, 39897.70739051192, 34484.38310437001, 29874.045237785012, 24940.50114637627, 0.07306640625, 1.02398046875, 0.07213671875, 192.0, 0.0, 0.0, 0.0, 0.0, 0.0, 0.0, 0.0, 0.0, 0.0, 1.7074743988372457E9, 0.0, 2024-02-09 11:26:38.837
112.0, -13655.306536591834, -15923.874488338768, 17725.536850158795, -1400.9179354808255, 47214.08155132313, 18446.51471930918, 35090.60711748685, 9895.139622108893, 31373.914345969482, 4291.311417974403, 39091.16704358662, 27998.309194840098, 40417.117228164345, 34689.12508358063, 30050.914591659857, 25079.6184038661, 0.07306640625, 1.02398046875, 0.07213671875, 192.0, 0.0, 0.0, 0.0, 0.0, 0.0, 0.0, 0.0, 0.0, 0.0, 1.7074743988452697E9, 0.0, 2024-02-09 11:26:38.845
114.0, -13600.12007953168, -15859.27794686293, 17711.477602896404, -1358.7178419492056, 46906.96858250721, 18408.65086420189, 34969.438310794634, 9811.499394357133, 31186.092637311536, 4435.994259833606, 38838.59233124165, 27965.765054913172, 40163.827259996804, 34548.867887123575, 29942.530982796074, 24994.212388302374, 0.073533203125, 1.029990234375, 0.068068359375, 192.0, 1.0, 40.0, 16.0, 48.0, 1.0, 0.0, 0.0, 0.0, 0.0, 1.707474398853295E9, 0.0, 2024-02-09 11:26:38.853
116.0, -13471.485790191387, -15789.987539051479, 17797.24124637142, -1368.3961472983538, 47223.20106306089, 18470.967527743283, 35117.00452768857, 9876.878246888906, 31323.399403500487, 4605.509889782655, 38908.57564313122, 28036.530677858675, 40130.500809013945, 34601.99798369384, 29986.519215884116, 24978.856739861578, 0.073533203125, 1.029990234375, 0.068068359375, 192.0, 0.0, 0.0, 0.0, 0.0, 0.0, 0.0, 0.0, 0.0, 0.0, 1.7074743988613045E9, 0.0, 2024-02-09 11:26:38.861
118.0, -13470.591720413177, -15775.458905155529, 17717.40081517706, -1358.9190076493035, 47013.51934832565, 18397.609102440965, 34989.39841859322, 9756.558806485988, 31459.722692933407, 4725.963440652304, 39124.69466026958, 28048.60061986454, 40502.67970593926, 34692.47784524892, 30080.977687952243, 25082.01004052282, 0.073533203125, 1.029990234375, 0.068068359375, 192.0, 0.0, 0.0, 0.0, 0.0, 0.0, 0.0, 0.0, 0.0, 0.0, 1.7074743988683307E9, 0.0, 2024-02-09 11:26:38.868
120.0, -13381.631777481054, -15733.370570346186, 17759.980888364422, -1360.8189059280046, 47007.819653489554, 18422.93362890883, 34998.13795067525, 9764.873655423362, 31225.40935580842, 4810.833014349105, 38740.848152738596, 28003.606558276006, 39955.48664992889, 34505.68431683592, 29906.63408120085, 24904.11250640303, 0.073533203125, 1.029990234375, 0.068068359375, 192.0, 0.0, 0.0, 0.0, 0.0, 0.0, 0.0, 0.0, 0.0, 0.0, 1.7074743988773415E9, 0.0, 2024-02-09 11:26:38.877
122.0, -13338.738779871319, -15718.126680627667, 17754.057676083765, -1372.4865165336748, 47214.68504842342, 18455.298954880116, 35088.39429478577, 9841.271917971602, 31547.073310264746, 4917.853166801116, 39157.66348334116, 28091.963004107834, 40465.57581014345, 34725.82664797624, 30093.785237525135, 25076.891491042556, 0.073533203125, 1.029990234375, 0.068068359375, 192.0, 0.0, 0.0, 0.0, 0.0, 0.0, 0.0, 0.0, 0.0, 0.0, 1.70747439888534E9, 0.0, 2024-02-09 11:26:38.885
124.0, -13342.136245028525, -15713.365759058686, 17701.620483591614, -1367.0997461199458, 46896.75383529113, 18386.276768002124, 34932.58028418783, 9722.517099680555, 31302.791095112694, 4932.6500216305285, 38877.864346249626, 28011.854351980015, 40181.23926892749, 34566.59282047663, 29963.720436539705, 24975.347515982096, 0.073533203125, 1.029990234375, 0.068068359375, 192.0, 0.0, 0.0, 0.0, 0.0, 0.0, 0.0, 0.0, 0.0, 0.0, 1.7074743988933828E9, 0.0, 2024-02-09 11:26:38.893
126.0, -13237.887708888973, -15672.059735305278, 17771.17911233653, -1387.708054507739, 47214.64034493451, 18466.877158507963, 35085.622678473315, 9834.700505101742, 31400.892901527037, 5006.969571944424, 38909.29089895378, 28053.138023988966, 40117.80501816333, 34597.0135446803, 29975.32099191201, 24948.860698802557, 0.078, 1.026, 0.066, 192.0, 1.0, 56.0, 16.0, 8.0, 1.0, 8.0, 0.0, 0.0, 0.0, 1.707474398900358E9, 0.0, 2024-02-09 11:26:38.900
128.0, -13263.636918501488, -15683.481476721941, 17705.330873171195, -1372.642978744862, 47021.74479028521, 18421.748986452698, 34992.81823549488, 9777.4576875517, 31514.86444650465, 5041.413610150053, 39123.577073046814, 28061.609335137528, 40496.42121749178, 34707.274700078335, 30073.869833215456, 25069.7165810724, 0.078, 1.026, 0.066, 192.0, 0.0, 0.0, 0.0, 0.0, 0.0, 0.0, 0.0, 0.0, 0.0, 1.707474398909485E9, 0.0, 2024-02-09 11:26:38.909
130.0, -13183.058879740105, -15652.725476351437, 17753.56593770575, -1371.1901153552672, 47010.39010410191, 18453.913146723884, 34999.16613092019, 9788.767670246085, 31273.353847665054, 5046.487456141407, 38737.31657711465, 28012.502552569218, 39956.134850518094, 34512.5463023837, 29905.762363167094, 24903.151381391453, 0.078, 1.026, 0.066, 192.0, 0.0, 0.0, 0.0, 0.0, 0.0, 0.0, 0.0, 0.0, 0.0, 1.7074743989163792E9, 0.0, 2024-02-09 11:26:38.916
132.0, -13145.530300799644, -15648.880976305125, 17761.41140000956, -1376.5545340245408, 47212.33811525561, 18480.958757514807, 35080.6829429487, 9867.065831073027, 31605.657232482106, 5110.458148772496, 39154.86951528425, 28099.428486755907, 40470.24732473461, 34729.090002666715, 30091.28184214614, 25071.77294156229, 0.078, 1.026, 0.066, 192.0, 0.0, 0.0, 0.0, 0.0, 0.0, 0.0, 0.0, 0.0, 0.0, 1.707474398924356E9, 0.0, 2024-02-09 11:26:38.924
134.0, -13153.822797992563, -15656.43586593102, 17728.196707748975, -1356.4603157592196, 46892.01526546661, 18411.221314814247, 34922.92433058314, 9749.249786049102, 31369.220479633866, 5084.507773459884, 38887.363837643126, 28028.059366710113, 40199.366533680746, 34577.56752700419, 29970.82829127649, 24986.52338820975, 0.078, 1.026, 0.066, 192.0, 0.0, 0.0, 0.0, 0.0, 0.0, 0.0, 0.0, 0.0, 0.0, 1.707474398933672E9, 0.0, 2024-02-09 11:26:38.933
136.0, -13057.531482879102, -15624.495223104386, 17810.115851177678, -1363.836391429471, 47202.48099595082, 18476.600167346023, 35052.005654812536, 9836.958031291728, 31468.216355826422, 5137.012021185401, 38930.636814908605, 28084.0281348262, 40139.933245174085, 34609.64228029755, 29997.046887522567, 24968.977268812334, 0.074, 1.03, 0.058, 192.0, 1.0, 40.0, 16.0, 24.0, 0.5, 104.0, 0.0, 0.0, 0.0, 1.7074743989413917E9, 0.0, 2024-02-09 11:26:38.941
138.0, -13099.30689326607, -15657.53110140933, 17734.857527596658, -1360.8189059280046, 46993.760406227164, 18396.670329173845, 34923.930159083626, 9738.476245221646, 31578.81278739128, 5138.353125852719, 39150.98031174902, 28091.158341307444, 40509.49698799813, 34697.17171158454, 30083.726952520246, 25073.7175433299, 0.074, 1.03, 0.058, 192.0, 0.0, 0.0, 0.0, 0.0, 0.0, 0.0, 0.0, 0.0, 0.0, 1.7074743989484327E9, 0.0, 2024-02-09 11:26:38.948
140.0, -13046.377962395904, -15654.737133352415, 17777.504656017383, -1366.2056763417336, 46963.80906865705, 18409.83550665802, 34890.782522056405, 9710.178936741226, 31330.52960998173, 5121.321096577775, 38763.065786727166, 28032.59677083454, 39949.76460334833, 34498.26353767676, 29898.67686017476, 24882.16309334792, 0.074, 1.03, 0.058, 192.0, 0.0, 0.0, 0.0, 0.0, 0.0, 0.0, 0.0, 0.0, 0.0, 1.707474398956518E9, 0.0, 2024-02-09 11:26:38.956
142.0, -13064.795799827076, -15678.407630730586, 17774.95655714948, -1379.549667781552, 47168.70751007885, 18428.275695833647, 34990.31484011589, 9780.072841652971, 31637.061433441813, 5172.97597801399, 39160.12217523124, 28102.46832400183, 40453.416461159766, 34709.73339196842, 30074.85330997149, 25032.635037021046, 0.074, 1.03, 0.058, 192.0, 0.0, 0.0, 0.0, 0.0, 0.0, 0.0, 0.0, 0.0, 0.0, 1.7074743989654355E9, 0.0, 2024-02-09 11:26:38.965
144.0, -13093.406032729868, -15675.546607440307, 17724.754539102858, -1368.642016487362, 46845.143657343826, 18368.864759071443, 34839.820544698305, 9674.974939224117, 31362.403197575, 5120.91876517758, 38875.69622703746, 28017.0623084381, 40182.490966616984, 34557.29449478322, 29955.807919002524, 24945.0385505007, 0.074, 1.03, 0.058, 192.0, 0.0, 0.0, 0.0, 0.0, 0.0, 0.0, 0.0, 0.0, 0.0, 1.707474398972484E9, 0.0, 2024-02-09 11:26:38.972
146.0, -13019.846441727454, -15651.965517039958, 17807.455993587493, -1374.9228566793033, 47171.30031243567, 18467.79358003063, 35007.8609595133, 9794.780289504562, 31465.534146491787, 5161.286015663864, 38917.22576823542, 28074.439236454873, 40117.201521063034, 34601.2156726379, 29981.400666403853, 24929.906419504456, 0.074, 1.04, 0.05, 192.0, 1.0, 40.0, 16.0, 64.0, 0.5, 72.0, 0.0, 0.0, 0.0, 1.7074743989804668E9, 0.0, 2024-02-09 11:26:38.980
148.0, -13178.700289571321, -15705.341482799231, 17714.31627444223, -1388.9374004527808, 46983.16567935535, 18399.620759441943, 34911.547292655385, 9719.030227545527, 31562.607772661184, 5116.560175008795, 39134.08239294081, 28067.1749195069, 40499.23753729314, 34701.887929664605, 30074.249812871196, 25043.833260993157, 0.074, 1.04, 0.05, 192.0, 0.0, 0.0, 0.0, 0.0, 0.0, 0.0, 0.0, 0.0, 0.0, 1.707474398988511E9, 0.0, 2024-02-09 11:26:38.988
150.0, -13152.101713669505, -15663.253147989888, 17754.884690628613, -1402.415502359331, 46968.36882452593, 18421.570172497057, 34914.38596420121, 9712.682332120221, 31239.714472259817, 4973.419603517009, 38709.71217271235, 27979.332563797543, 39944.042556767774, 34500.275194677735, 29887.54569143602, 24848.97075283179, 0.074, 1.04, 0.05, 192.0, 0.0, 0.0, 0.0, 0.0, 0.0, 0.0, 0.0, 0.0, 0.0, 1.707474398997499E9, 0.0, 2024-02-09 11:26:38.997
152.0, -13231.606868697032, -15720.138337628645, 17748.51444345885, -1429.9081480393588, 47171.07679499112, 18443.36312334098, 35000.30606988741, 9776.295396840025, 31553.220039989956, 4892.640399055529, 39107.17089261662, 28055.484957156776, 40443.894618021804, 34715.29897633779, 30062.80571971008, 24994.301795280197, 0.074, 1.04, 0.05, 192.0, 0.0, 0.0, 0.0, 0.0, 0.0, 0.0, 0.0, 0.0, 0.0, 1.7074743990045855E9, 0.0, 2024-02-09 11:26:39.004
154.0, -13347.768884631263, -15800.291693245375, 17688.25414040734, -1440.8605028224592, 46842.193227075724, 18370.317622461036, 34849.56590528082, 9656.981784937596, 31247.47052758581, 4615.791692232096, 38791.07252252967, 27943.033330802125, 40171.42685311161, 34558.009750605794, 29932.98678791366, 24888.622747495505, 0.074, 1.04, 0.05, 192.0, 0.0, 0.0, 0.0, 0.0, 0.0, 0.0, 0.0, 0.0, 0.0, 1.7074743990128796E9, 0.0, 2024-02-09 11:26:39.012
156.0, -13340.035181049727, -15881.80850527388, 17753.275365027832, -1482.5241544871515, 47147.74157377977, 18431.360236568482, 34996.573328563376, 9750.993222116616, 31304.735696880307, 4345.38028781179, 38787.07156027217, 27970.324810782055, 40096.8167301198, 34582.17198636198, 29933.076194891477, 24835.135023013954, 0.074, 1.04, 0.052000000000000005, 192.0, 1.0, 40.0, 16.0, 64.0, 0.5, 80.0, 0.0, 0.0, 0.0, 1.707474399021594E9, 0.0, 2024-02-09 11:26:39.021
158.0, -13418.981542465872, -15933.306924498907, 17698.826515534704, -1472.6670351823611, 46978.337702553, 18398.302006519083, 34920.979728815524, 9771.109792126394, 31412.471105154887, 4109.278811130383, 38999.703705275504, 27993.280052337654, 40498.16465355929, 34691.91905163754, 30042.912667144858, 24948.771291824734, 0.074, 1.04, 0.052000000000000005, 192.0, 0.0, 0.0, 0.0, 0.0, 0.0, 0.0, 0.0, 0.0, 0.0, 1.707474399028627E9, 0.0, 2024-02-09 11:26:39.028
160.0, -13498.821973660228, -16005.9277422342, 17735.46102469695, -1487.6203522229616, 46968.6370454594, 18420.251419574193, 34939.509324968974, 9824.195185207747, 31119.77501151264, 3817.2532698217956, 38592.834900955546, 27921.53095263612, 39960.62755115361, 34492.60854632957, 29874.268755229565, 24763.452978545785, 0.074, 1.04, 0.052000000000000005, 192.0, 0.0, 0.0, 0.0, 0.0, 0.0, 0.0, 0.0, 0.0, 0.0, 1.707474399036615E9, 0.0, 2024-02-09 11:26:39.036
162.0, -13607.093823801735, -16050.541824166994, 17728.040245537788, -1513.7271897467601, 47182.90086780797, 18446.55942279809, 35047.95998906613, 9951.48836988072, 31380.753979772806, 3589.824269989046, 38973.842736940715, 27971.151825326902, 40464.77114734306, 34703.7431244544, 30061.66578074286, 24915.02015769722, 0.074, 1.04, 0.052000000000000005, 192.0, 0.0, 0.0, 0.0, 0.0, 0.0, 0.0, 0.0, 0.0, 0.0, 1.7074743990446415E9, 0.0, 2024-02-09 11:26:39.044
164.0, -13749.072104581846, -16059.549577182483, 17672.429105332983, -1515.314163603087, 46855.760735960095, 18383.661613900855, 34896.21399595904, 9900.928723922816, 31086.135636107403, 3273.45767896863, 38702.3360970421, 27875.441655569277, 40203.00986802696, 34552.287704025235, 29940.273456606086, 24812.470354136272, 0.074, 1.04, 0.052000000000000005, 192.0, 0.0, 0.0, 0.0, 0.0, 0.0, 0.0, 0.0, 0.0, 0.0, 1.7074743990536327E9, 0.0, 2024-02-09 11:26:39.053
166.0, -13863.98242282658, -16060.644812660792, 17733.583478162705, -1544.6620040729051, 47163.924236765415, 18459.478731093255, 35057.83946011537, 10064.431734613388, 31090.24835708718, 2940.2602243733677, 38722.027983907225, 27893.881844744905, 40123.41530602161, 34580.048570638726, 29957.529003325584, 24780.887339220924, 0.07, 1.024, 0.056, 192.0, 1.0, 24.0, 16.0, 0.0, 0.5, 96.0, 0.0, 0.0, 0.0, 1.7074743990606248E9, 0.0, 2024-02-09 11:26:39.060
168.0, -14034.25801208711, -16041.534071151504, 17656.58171851417, -1553.8709227884917, 46971.96745538324, 18391.864704115953, 34957.88245891124, 10057.122714176503, 31087.007354141162, 2683.7963084931744, 38924.624195650125, 27877.09568465897, 40503.99845886212, 34683.67125793353, 30039.939885132302, 24879.659697968924, 0.07, 1.024, 0.056, 192.0, 0.0, 0.0, 0.0, 0.0, 0.0, 0.0, 0.0, 0.0, 0.0, 1.707474399068586E9, 0.0, 2024-02-09 11:26:39.068
170.0, -14155.0915426125, -16040.997629284577, 17691.606902075637, -1567.7737078396926, 46939.04333580057, 18406.16982056735, 34955.28965655442, 10092.460822160343, 30673.41067474016, 2446.6442998223665, 38529.57946414703, 27797.054087764514, 39946.72476610241, 34485.098360192584, 29846.776109549537, 24699.21406498123, 0.07, 1.024, 0.056, 192.0, 0.0, 0.0, 0.0, 0.0, 0.0, 0.0, 0.0, 0.0, 0.0, 1.7074743990779176E9, 0.0, 2024-02-09 11:26:39.077
172.0, -14247.873633846479, -16016.969503995122, 17688.477657851894, -1577.6084754000278, 47142.868893488514, 18437.708131993786, 35023.88716028776, 10199.950361245914, 30816.305377042936, 2378.762051911599, 38924.46773343894, 27853.84987042545, 40434.037498717014, 34700.993859886396, 30005.428791693306, 24854.603392434525, 0.07, 1.024, 0.056, 192.0, 0.0, 0.0, 0.0, 0.0, 0.0, 0.0, 0.0, 0.0, 0.0, 1.7074743990846703E9, 0.0, 2024-02-09 11:26:39.084
174.0, -14346.17660596092, -15988.158105392231, 17642.54482299624, -1566.0973270055447, 46838.79576191852, 18380.4876661882, 34948.69589194011, 10149.01073563227, 30401.077020296696, 2246.663242180734, 38653.83281157408, 27767.147453683312, 40169.90693448865, 34557.78623316124, 29873.128816262346, 24780.19443514281, 0.07, 1.024, 0.056, 192.0, 0.0, 0.0, 0.0, 0.0, 0.0, 0.0, 0.0, 0.0, 0.0, 1.7074743990925975E9, 0.0, 2024-02-09 11:26:39.092
176.0, -14364.661498625459, -15942.515843214494, 17702.447498136462, -1593.8805453634914, 47150.222617414314, 18446.045332675618, 35094.630431488804, 10284.551714009252, 30339.877943978066, 2253.9052073842536, 38673.05531180565, 27796.025907519568, 40092.77106437339, 34581.009695650304, 29878.62734539835, 24759.22849884373, 0.068, 1.016, 0.056, 192.0, 1.0, 16.0, 15.5, 96.0, 0.5, 96.0, 0.0, 0.0, 0.0, 1.7074743991026456E9, 0.0, 2024-02-09 11:26:39.102
178.0, -14438.645772772525, -15969.11441911631, 17620.260133774296, -1593.3888069854745, 46976.66132171886, 18385.181532523817, 35003.50236934452, 10253.21456828291, 30308.47374301836, 2206.273639949994, 38891.0295237338, 27776.378724143357, 40474.382397458845, 34673.68002816201, 29952.991599201156, 24876.061067111623, 0.068, 1.016, 0.056, 192.0, 0.0, 0.0, 0.0, 0.0, 0.0, 0.0, 0.0, 0.0, 0.0, 1.7074743991096883E9, 0.0, 2024-02-09 11:26:39.109
180.0, -14450.33573512265, -15942.426436236674, 17662.661393006016, -1596.3168855091199, 46968.01119661465, 18406.952131623286, 35018.165113707204, 10273.80052492625, 29959.607715559927, 2187.408767629715, 38498.42113237633, 27706.373060509333, 39916.30404189874, 34491.24508991779, 29763.538213197975, 24702.723288860714, 0.068, 1.016, 0.056, 192.0, 0.0, 0.0, 0.0, 0.0, 0.0, 0.0, 0.0, 0.0, 0.0, 1.7074743991167092E9, 0.0, 2024-02-09 11:26:39.116
182.0, -14457.890624748545, -15915.62669463476, 17664.851863962635, -1608.5432897261728, 47183.19144048589, 18434.645943003412, 35109.56139678495, 10368.169590016556, 30182.901642668447, 2257.280320797005, 38886.31330565373, 27765.716942038172, 40406.969536181634, 34706.514740766856, 29927.35414831092, 24868.34971527454, 0.068, 1.016, 0.056, 192.0, 0.0, 0.0, 0.0, 0.0, 0.0, 0.0, 0.0, 0.0, 0.0, 1.7074743991247048E9, 0.0, 2024-02-09 11:26:39.124
184.0, -14475.43674414596, -15909.77053758747, 17616.10270930561, -1593.4558622188406, 46859.98521566215, 18371.88224457291, 34968.745406716516, 10282.003615141346, 29892.843054871926, 2226.390209959771, 38627.94949149484, 27684.848330598874, 40159.40161459465, 34554.72404417086, 29793.04251587898, 24793.449019604806, 0.068, 1.016, 0.056, 192.0, 0.0, 0.0, 0.0, 0.0, 0.0, 0.0, 0.0, 0.0, 0.0, 1.7074743991327312E9, 0.0, 2024-02-09 11:26:39.132
186.0, -14443.920784463977, -15888.04464197691, 17695.049070721754, -1602.4636152343292, 47173.17785896991, 18453.980201957253, 35137.74694654309, 10408.559192247296, 29908.1092963349, 2293.736016003611, 38644.66859634741, 27723.516848506555, 40068.631180361655, 34584.854195696615, 29782.93952738518, 24767.923327436845, 0.074, 1.022, 0.062, 192.0, 1.0, 40.0, 15.5, 120.0, 0.5, 120.0, 0.0, 0.0, 0.0, 1.707474399140958E9, 0.0, 2024-02-09 11:26:39.140
188.0, -14482.678709349479, -15920.924058070668, 17626.898601877525, -1589.566658683617, 46991.23465910371, 18397.385584996413, 35033.16313423671, 10339.604060602673, 29999.013841034634, 2330.6834495882335, 38883.49698585236, 27735.72090097915, 40463.96648454267, 34693.81894991624, 29879.47671168765, 24898.479866800295, 0.074, 1.022, 0.062, 192.0, 0.0, 0.0, 0.0, 0.0, 0.0, 0.0, 0.0, 0.0, 0.0, 1.707474399148748E9, 0.0, 2024-02-09 11:26:39.148
190.0, -14419.378569052049, -15878.209874416576, 17676.407715846028, -1582.8387836025697, 46983.45625203327, 18410.97544562524, 35079.52065223702, 10353.551549142785, 29709.1117154493, 2325.3190309189595, 38483.89249848038, 27672.15253974826, 39899.47317832389, 34491.24508991779, 29699.388706611244, 24723.108079803955, 0.074, 1.022, 0.062, 192.0, 0.0, 0.0, 0.0, 0.0, 0.0, 0.0, 0.0, 0.0, 0.0, 1.7074743991567516E9, 0.0, 2024-02-09 11:26:39.156
192.0, -14434.287182603739, -15908.474136409062, 17674.8207419897, -1592.2935715071646, 47198.92706858243, 18436.948172682307, 35167.29595271301, 10436.007134438412, 30015.867056353934, 2400.622057988889, 38899.92551802701, 27757.625610545354, 40395.32427732042, 34701.597356986684, 29877.979144809146, 24887.795732950657, 0.074, 1.022, 0.062, 192.0, 0.0, 0.0, 0.0, 0.0, 0.0, 0.0, 0.0, 0.0, 0.0, 1.7074743991658137E9, 0.0, 2024-02-09 11:26:39.165
194.0, -14458.71763929339, -15935.787968133447, 17611.118270292078, -1588.8737546055027, 46863.00270116362, 18357.197148465773, 34993.46643608408, 10303.818917729726, 29754.575163671398, 2376.2810082770598, 38635.54908460964, 27675.684115372198, 40135.48524802748, 34549.493735968324, 29744.0698437774, 24801.249778419708, 0.074, 1.022, 0.062, 192.0, 0.0, 0.0, 0.0, 0.0, 0.0, 0.0, 0.0, 0.0, 0.0, 1.7074743991727357E9, 0.0, 2024-02-09 11:26:39.172
196.0, -14434.063665159187, -15932.926944843168, 17686.086021195177, -1591.1759842843992, 47183.03497827471, 18446.827643731554, 35194.72154315967, 10442.39973335263, 29817.405917335265, 2445.616119577422, 38631.1681426964, 27699.175798794724, 40038.36691836917, 34579.959163660904, 29743.46634667711, 24772.1478071389, 0.074, 1.024, 0.064, 192.0, 1.0, 40.0, 16.0, 0.0, 1.0, 0.0, 0.0, 0.0, 0.0, 1.7074743991807933E9, 0.0, 2024-02-09 11:26:39.180
198.0, -14463.210339928906, -15972.0201458955, 17621.19890704142, -1572.8475538310474, 47010.56891805756, 18387.662576158356, 35100.017201902534, 10376.707956398483, 29936.965398426702, 2506.010533095662, 38877.95375322745, 27729.998854398593, 40448.856705290884, 34701.79852268678, 29855.225068953645, 24918.037643198688, 0.074, 1.024, 0.064, 192.0, 0.0, 0.0, 0.0, 0.0, 0.0, 0.0, 0.0, 0.0, 0.0, 1.707474399188769E9, 0.0, 2024-02-09 11:26:39.188
200.0, -14388.868437870555, -15913.43622367814, 17671.199759387942, -1564.6221118714943, 46976.996597885685, 18415.915181149863, 35093.55754775495, 10369.309528983777, 29682.02140116947, 2494.8570126124637, 38484.250126391664, 27678.791007851483, 39901.77540800279, 34512.47924715033, 29671.560784764384, 24742.50939399116, 0.074, 1.024, 0.064, 192.0, 0.0, 0.0, 0.0, 0.0, 0.0, 0.0, 0.0, 0.0, 0.0, 1.7074743991958332E9, 0.0, 2024-02-09 11:26:39.195
202.0, -14414.416481782971, -15952.976459619578, 17670.59626228765, -1579.6424841454607, 47198.63649590451, 18448.973411199262, 35192.32990650296, 10435.314230360298, 29996.443390422275, 2545.5060655481893, 38890.67189582252, 27759.16788091277, 40393.26791683053, 34728.531209055334, 29841.255228669077, 24899.530398789695, 0.074, 1.024, 0.064, 192.0, 0.0, 0.0, 0.0, 0.0, 0.0, 0.0, 0.0, 0.0, 0.0, 1.707474399204981E9, 0.0, 2024-02-09 11:26:39.204
204.0, -14461.57866258367, -16005.614817811826, 17608.704281890903, -1568.4666119178073, 46872.055157668015, 18398.83844838601, 35043.064957030416, 10353.551549142785, 29747.55671591243, 2511.4867104872123, 38627.52480835019, 27683.753095120563, 40140.40263180764, 34587.82697770918, 29720.041718487948, 24829.25651422221, 0.074, 1.024, 0.064, 192.0, 0.0, 0.0, 0.0, 0.0, 0.0, 0.0, 0.0, 0.0, 0.0, 1.7074743992128508E9, 0.0, 2024-02-09 11:26:39.212
206.0, -14386.879132614033, -15964.06292486941, 17687.427125862494, -1587.666760404916, 47189.29346672219, 18466.139550940938, 35204.93629037575, 10457.509512604418, 29810.27571085402, 2554.8937982194184, 38618.18177916787, 27702.662670929752, 40028.979185697935, 34601.55094880473, 29721.181657455167, 24797.517037095673, 0.076, 1.02, 0.06, 192.0, 1.0, 48.0, 15.5, 112.0, 0.5, 112.0, 0.0, 0.0, 0.0, 1.7074743992208867E9, 0.0, 2024-02-09 11:26:39.220
208.0, -14453.017944457288, -16033.88977454779, 17621.467127974884, -1578.1896207558657, 47029.07616246655, 18401.475954231733, 35117.228045133124, 10390.43192749404, 29943.000369429636, 2598.5691068850883, 38864.83327923218, 27721.10286010538, 40440.608911586874, 34705.531264010824, 29830.682853541715, 24926.531306091703, 0.076, 1.02, 0.06, 192.0, 0.0, 0.0, 0.0, 0.0, 0.0, 0.0, 0.0, 0.0, 0.0, 1.7074743992278137E9, 0.0, 2024-02-09 11:26:39.227
210.0, -14380.844161611101, -15967.348631304341, 17675.49129432336, -1566.7678793392038, 47001.85173771998, 18418.73150095123, 35111.17072238573, 10375.0986307977, 29675.226470855057, 2598.4349964183566, 38470.16852738483, 27671.258469970046, 39894.265221865804, 34513.08274425063, 29663.24593582701, 24751.47244351774, 0.076, 1.02, 0.06, 192.0, 0.0, 0.0, 0.0, 0.0, 0.0, 0.0, 0.0, 0.0, 0.0, 1.7074743992368731E9, 0.0, 2024-02-09 11:26:39.236
212.0, -14415.914048661478, -16017.081262717398, 17670.283337865276, -1582.9952458137568, 47211.68991466641, 18445.307725108592, 35194.78859839304, 10451.586300323761, 29983.345268171463, 2679.3706630910237, 38867.96252345592, 27758.899659979306, 40379.163966079235, 34727.05599392128, 29827.62066455134, 24902.59258778007, 0.076, 1.02, 0.06, 192.0, 0.0, 0.0, 0.0, 0.0, 0.0, 0.0, 0.0, 0.0, 0.0, 1.7074743992448964E9, 0.0, 2024-02-09 11:26:39.244
214.0, -14439.42808382846, -16029.665294845736, 17597.416650940973, -1590.214859272821, 46864.67908199777, 18359.11939848893, 35024.669471343695, 10318.861641748148, 29736.69376810715, 2632.5214067127, 38590.465616043286, 27664.70940884464, 40128.46680026851, 34567.28572455475, 29696.862959487793, 24817.611255360993, 0.076, 1.02, 0.06, 192.0, 0.0, 0.0, 0.0, 0.0, 0.0, 0.0, 0.0, 0.0, 0.0, 1.707474399251909E9, 0.0, 2024-02-09 11:26:39.251
216.0, -14392.578827450137, -15996.383547351785, 17680.96747171491, -1587.2867807491757, 47175.591847371084, 18454.69545777982, 35189.021848323566, 10446.266585143398, 29811.370946332332, 2679.4824218133, 38591.00205791021, 27699.265205772546, 40013.467075045955, 34577.16519560399, 29685.150645393212, 24773.779484484137, 0.068, 1.016, 0.066, 192.0, 1.0, 16.0, 15.5, 96.0, 1.0, 8.0, 0.0, 0.0, 0.0, 1.7074743992609284E9, 0.0, 2024-02-09 11:26:39.260
218.0, -14465.66903181899, -16083.33183328293, 17609.799517369214, -1576.1556120104328, 47016.894461738404, 18399.754869908676, 35135.15414418628, 10398.277389797853, 29939.267628105597, 2693.3405033755903, 38843.37560455508, 27725.729671207628, 40417.22898688662, 34704.21251108796, 29812.734402744103, 24926.352492136062, 0.068, 1.016, 0.066, 192.0, 0.0, 0.0, 0.0, 0.0, 0.0, 0.0, 0.0, 0.0, 0.0, 1.7074743992688987E9, 0.0, 2024-02-09 11:26:39.268
220.0, -14434.287182603739, -16060.756571383068, 17654.68182023547, -1569.472440418296, 46987.01017940166, 18417.68096896183, 35145.43594663572, 10384.86634312467, 29666.710456217585, 2659.9246454149065, 38428.10254431993, 27661.84838555436, 39853.6073987016, 34496.78832254271, 29643.01760709496, 24751.204222584274, 0.068, 1.016, 0.066, 192.0, 0.0, 0.0, 0.0, 0.0, 0.0, 0.0, 0.0, 0.0, 0.0, 1.7074743992759352E9, 0.0, 2024-02-09 11:26:39.275
222.0, -14449.016982199786, -16103.023720148054, 17657.073456892187, -1579.083690534078, 47213.12042631155, 18449.73337051074, 35245.080023417475, 10471.1217249777, 29984.462855394228, 2722.934213034417, 38851.422232558994, 27755.792767500017, 40338.41673593721, 34724.99963343139, 29828.894713985293, 24916.093041431075, 0.068, 1.016, 0.066, 192.0, 0.0, 0.0, 0.0, 0.0, 0.0, 0.0, 0.0, 0.0, 0.0, 1.7074743992839396E9, 0.0, 2024-02-09 11:26:39.283
224.0, -14491.932331553977, -16139.34530488793, 17590.33114794864, -1569.897123562947, 46876.257285625616, 18380.26414874365, 35091.635297731795, 10351.830464819726, 29742.84049783236, 2672.1063461430485, 38595.070075401076, 27679.886243329795, 40097.97902083147, 34586.93290793096, 29706.63067181476, 24836.140851514443, 0.068, 1.016, 0.066, 192.0, 0.0, 0.0, 0.0, 0.0, 0.0, 0.0, 0.0, 0.0, 0.0, 1.7074743992929535E9, 0.0, 2024-02-09 11:26:39.292
226.0, -14429.660371501492, -16092.227827576142, 17675.625404790095, -1565.4491264163407, 47188.399396943976, 18476.354298157014, 35248.63395078587, 10481.336472193774, 29809.783972476005, 2717.3015734316796, 38583.26835432868, 27720.49936300509, 39987.09201658869, 34607.720030274395, 29700.68510778965, 24799.014603974178, 0.067, 1.014, 0.068, 192.0, 1.0, 8.0, 15.5, 80.0, 1.0, 24.0, 0.0, 0.0, 0.0, 1.7074743993010716E9, 0.0, 2024-02-09 11:26:39.301
228.0, -14482.902226794033, -16137.847738009423, 17602.557552165694, -1568.2430944732541, 47019.64372630641, 18412.897695648397, 35152.320283927955, 10419.600954008218, 29952.902192223337, 2722.6212886120425, 38841.54276150975, 27736.749081224094, 40408.020068171034, 34727.63713927712, 29813.58376903341, 24939.89764927598, 0.067, 1.014, 0.068, 192.0, 0.0, 0.0, 0.0, 0.0, 0.0, 0.0, 0.0, 0.0, 0.0, 1.7074743993079772E9, 0.0, 2024-02-09 11:26:39.307
230.0, -14479.035375003265, -16161.227662709674, 17644.355314297118, -1570.0982892630445, 46977.465984519244, 18419.714977707266, 35131.77903077353, 10390.878962383147, 29687.989316939038, 2706.729198304319, 38439.50193399214, 27681.652031141763, 39853.89797137952, 34524.37037520056, 29629.897133099694, 24755.831033686525, 0.067, 1.014, 0.068, 192.0, 0.0, 0.0, 0.0, 0.0, 0.0, 0.0, 0.0, 0.0, 0.0, 1.707474399316974E9, 0.0, 2024-02-09 11:26:39.316
232.0, -14460.371668383083, -16156.690258585246, 17657.252270847832, -1571.2605799747205, 47205.56553668565, 18447.162919898383, 35225.90222667482, 10471.479352888984, 29999.818503835024, 2748.8845883470285, 38822.566130467196, 27746.53914529552, 40340.4730964271, 34725.13374389813, 29803.70429798416, 24905.721832003812, 0.067, 1.014, 0.068, 192.0, 0.0, 0.0, 0.0, 0.0, 0.0, 0.0, 0.0, 0.0, 0.0, 1.7074743993250282E9, 0.0, 2024-02-09 11:26:39.325
234.0, -14475.05676449022, -16175.264558227607, 17608.704281890903, -1556.083745489567, 46870.95992218971, 18365.24377646968, 35066.824861386405, 10348.09772349569, 29798.89867292627, 2723.5600618791655, 38595.65122075692, 27703.66849943024, 40120.04019260886, 34582.79783520673, 29694.31486061989, 24836.85610733701, 0.067, 1.014, 0.068, 192.0, 0.0, 0.0, 0.0, 0.0, 0.0, 0.0, 0.0, 0.0, 0.0, 1.7074743993320448E9, 0.0, 2024-02-09 11:26:39.332
236.0, -14460.684592805457, -16180.740735619156, 17681.03452694828, -1569.248922973743, 47176.75413808276, 18445.307725108592, 35223.46588652919, 10454.78259978087, 29853.727502075137, 2755.634815172531, 38574.84174666903, 27731.071738132447, 39998.290240560804, 34593.124341145085, 29686.894081460727, 24797.695851051314, 0.07050000000000001, 1.0150000000000001, 0.068, 192.0, 1.0, 40.0, 15.5, 96.0, 1.0, 16.0, 0.0, 0.0, 0.0, 1.7074743993400347E9, 0.0, 2024-02-09 11:26:39.340
238.0, -14475.794372057246, -16186.976872322188, 17607.43023245695, -1562.3198821925978, 47018.5484908281, 18391.283558760115, 35154.398996162294, 10404.312360800786, 29985.692201339272, 2754.4054692274894, 38817.71580192039, 27739.25247660309, 40410.679925761215, 34714.20374085948, 29800.709164227148, 24935.226134684817, 0.07050000000000001, 1.0150000000000001, 0.068, 192.0, 0.0, 0.0, 0.0, 0.0, 0.0, 0.0, 0.0, 0.0, 0.0, 1.7074743993492749E9, 0.0, 2024-02-09 11:26:39.349
240.0, -14460.684592805457, -16191.402517724338, 17640.689628206448, -1563.9292077933799, 46974.22498157323, 18416.25045731669, 35154.37664441784, 10392.48828798393, 29731.239942460055, 2723.87298630154, 38421.03939307206, 27682.143769519782, 39851.41692774498, 34509.93114828243, 29628.891304599205, 24767.766865225658, 0.07050000000000001, 1.0150000000000001, 0.068, 192.0, 0.0, 0.0, 0.0, 0.0, 0.0, 0.0, 0.0, 0.0, 0.0, 1.7074743993570356E9, 0.0, 2024-02-09 11:26:39.357
242.0, -14455.521339836281, -16201.706671918235, 17645.316439308695, -1570.277103218687, 47194.32260922463, 18461.71390553879, 35251.89730547635, 10480.867085560214, 30047.874754413937, 2790.12355686707, 38799.16385402249, 27751.63534303133, 40328.60432012133, 34725.647834020594, 29795.83648393589, 24924.20672466835, 0.07050000000000001, 1.0150000000000001, 0.068, 192.0, 0.0, 0.0, 0.0, 0.0, 0.0, 0.0, 0.0, 0.0, 0.0, 1.7074743993640876E9, 0.0, 2024-02-09 11:26:39.364
244.0, -14488.15488674103, -16213.150765079352, 17578.551778620695, -1573.7416236092597, 46846.21654107768, 18372.73161086221, 35081.219384815624, 10333.077351221724, 29826.72659477313, 2753.8466756161065, 38551.81944988006, 27684.75892362105, 40098.85073886523, 34587.715218986894, 29679.428598812654, 24847.227316764274, 0.07050000000000001, 1.0150000000000001, 0.068, 192.0, 0.0, 0.0, 0.0, 0.0, 0.0, 0.0, 0.0, 0.0, 0.0, 1.70747439937203E9, 0.0, 2024-02-09 11:26:39.372
246.0, -14458.203549170918, -16198.06333757202, 17656.0676283917, -1593.3888069854745, 47145.23817840078, 18435.294143592615, 35222.795334195536, 10412.873078927169, 29928.762308211604, 2810.2401268768463, 38527.120772256945, 27710.262264044555, 39972.697493159474, 34583.60249800712, 29667.06808412887, 24791.169141670365, 0.07125000000000001, 1.0185, 0.064, 192.0, 1.0, 32.0, 15.5, 120.0, 0.5, 112.0, 0.0, 0.0, 0.0, 1.7074743993810897E9, 0.0, 2024-02-09 11:26:39.381
248.0, -14511.177183529995, -16251.46165507575, 17586.330185691142, -1589.41019647243, 46974.29203680659, 18364.796741580576, 35123.71005102516, 10325.410702873553, 30103.15061845191, 2846.025269749793, 38784.814034082185, 27726.333168307923, 40385.936544649194, 34688.81215915825, 29781.173739573213, 24916.763593764736, 0.07125000000000001, 1.0185, 0.064, 192.0, 0.0, 0.0, 0.0, 0.0, 0.0, 0.0, 0.0, 0.0, 0.0, 1.7074743993880787E9, 0.0, 2024-02-09 11:26:39.388
250.0, -14460.572834083181, -16260.827036002522, 17621.042444830233, -1589.3878447279747, 46920.55844313603, 18366.87545381492, 35105.00164091607, 10290.765498967827, 29881.19779601071, 2845.868807538606, 38399.55936665051, 27675.885281072293, 39826.76295361078, 34481.20915665736, 29610.92050205714, 24742.621152713436, 0.07125000000000001, 1.0185, 0.064, 192.0, 0.0, 0.0, 0.0, 0.0, 0.0, 0.0, 0.0, 0.0, 0.0, 1.7074743993961296E9, 0.0, 2024-02-09 11:26:39.396
252.0, -14464.14911319603, -16312.839545350022, 17639.504985750318, -1586.8844493489803, 47149.90969299194, 18407.510925234667, 35199.95185136221, 10370.740040628916, 30298.19194056892, 2890.929924360505, 38787.742112605825, 27755.099863421903, 40300.61993606328, 34682.84424338868, 29800.23977759359, 24906.79471573767, 0.07125000000000001, 1.0185, 0.064, 192.0, 0.0, 0.0, 0.0, 0.0, 0.0, 0.0, 0.0, 0.0, 0.0, 1.7074743994051006E9, 0.0, 2024-02-09 11:26:39.405
254.0, -14499.956607813432, -16347.685914955846, 17600.523543420262, -1548.6629663304052, 46829.69860192521, 18367.478950915214, 35060.90164910575, 10287.479792532897, 30210.193122648376, 2732.768980594752, 38571.1537088339, 27712.67625244573, 40081.03639853435, 34541.55886668669, 29720.01936674349, 24866.29335478465, 0.07125000000000001, 1.0185, 0.064, 192.0, 0.0, 0.0, 0.0, 0.0, 0.0, 0.0, 0.0, 0.0, 0.0, 1.707474399413172E9, 0.0, 2024-02-09 11:26:39.413
0.0, -14457.95767998191, -16333.291391526627, 17679.201683902942, -1539.4316958703632, 47151.78723952619, 18448.101693165507, 35262.31321839252, 10410.593200992727, 30398.283052239785, 2623.379543230479, 38585.03414214065, 27770.120235695867, 39956.7830511073, 34565.74345418733, 29763.292344008965, 24872.708305443324, 0.072625, 1.01825, 0.061, 192.0, 1.0, 40.0, 15.5, 104.0, 0.5, 104.0, 0.0, 0.0, 0.0, 1.7074743994201698E9, 0.0, 2024-02-09 11:26:39.420
2.0, -14497.810840345723, -16345.964830632787, 17610.514773191782, -1520.1868438943438, 47002.231717375726, 18396.267997773648, 35185.11029304389, 10340.721647825438, 30677.70220967558, 2644.814866163119, 38842.749755710334, 27792.136703984346, 40374.55950672144, 34675.110539807145, 29900.755572409103, 25022.91202818299, 0.072625, 1.01825, 0.061, 192.0, 0.0, 0.0, 0.0, 0.0, 0.0, 0.0, 0.0, 0.0, 0.0, 1.707474399428374E9, 0.0, 2024-02-09 11:26:39.428
4.0, -14430.889717446533, -16341.494481741725, 17640.55551773972, -1513.6601345133943, 46948.81104812754, 18392.60231168298, 35135.690586053206, 10261.328251520188, 30510.041774516318, 2722.576585123132, 38461.13842262488, 27752.507061065087, 39820.5491686522, 34463.30540934866, 29739.755957097528, 24858.53729945866, 0.072625, 1.01825, 0.061, 192.0, 0.0, 0.0, 0.0, 0.0, 0.0, 0.0, 0.0, 0.0, 0.0, 1.7074743994372094E9, 0.0, 2024-02-09 11:26:39.437
