%OpenBCI Raw EXG Data
%Number of channels = 16
%Sample Rate = 125 Hz
%Board = OpenBCI_GUI$BoardCytonSerialDaisy
Sample Index, EXG Channel 0, EXG Channel 1, EXG Channel 2, EXG Channel 3, EXG Channel 4, EXG Channel 5, EXG Channel 6, EXG Channel 7, EXG Channel 8, EXG Channel 9, EXG Channel 10, EXG Channel 11, EXG Channel 12, EXG Channel 13, EXG Channel 14, EXG Channel 15, Accel Channel 0, Accel Channel 1, Accel Channel 2, Other, Other, Other, Other, Other, Other, Other, Analog Channel 0, Analog Channel 1, Analog Channel 2, Timestamp, Other, Timestamp (Formatted)
190.0, -25933.27622810319, -28620.470001753572, 4018.776597830844, -9221.748616903857, 38684.58881194458, 8490.667759259673, 22452.617878033863, -4490.2419436266355, 11766.450019651655, -3619.3956279034173, 36964.95735227554, 22463.324363627955, 34122.620120360865, 24239.438681535565, 24212.549532955833, 24237.114100112212, 0.0, 0.0, 0.0, 192.0, 0.0, 0.0, 0.0, 0.0, 0.0, 0.0, 0.0, 0.0, 0.0, 1.7074738064396544E9, 0.0, 2024-02-09 11:16:46.439
192.0, -25985.91458629544, -28656.836289982355, 3979.5045828228695, -9207.219983007906, 38643.863933547014, 8448.467665728052, 22411.691833936195, -4548.781162355085, 11957.17745508879, -3573.7757174701355, 37410.248805314164, 22523.383500979366, 34718.51762753935, 24433.138898985257, 24441.900782811736, 24503.502190530562, 0.0, 0.0, 0.0, 192.0, 0.0, 0.0, 0.0, 0.0, 0.0, 0.0, 0.0, 0.0, 0.0, 1.707473806439767E9, 0.0, 2024-02-09 11:16:46.439
0.0, -12644.65005930067, -13727.726188627028, 2602.0336272756613, -4229.0841614108285, 19736.635057525047, 4787.095461737569, 12175.062260039123, -1500.2043843512995, 5846.076410541107, -1811.8994607805564, 18482.501027882223, 11213.73608276082, 17129.035845880015, 12116.97007619978, 12110.82334647457, 12153.872806295492, 0.098, 1.034, 0.16, 192.0, 1.5, 8.0, 16.0, 40.0, 2.5, 0.0, 0.0, 0.0, 0.0, 1.7074738065331504E9, 0.0, 2024-02-09 11:16:46.533
2.0, -25354.567212410835, -27501.362860365258, 5153.529960337873, -8441.471569713542, 39304.35798220134, 9507.381559298225, 24220.394995259645, -3103.047979241369, 14026.189032338743, -2478.6519978823662, 37572.88009797098, 23204.485858021482, 35499.64404101897, 25492.52217918899, 24694.07316375651, 25001.208484316885, 0.098, 1.034, 0.16, 192.0, 0.0, 0.0, 0.0, 0.0, 0.0, 0.0, 0.0, 0.0, 0.0, 1.707473806540122E9, 0.0, 2024-02-09 11:16:46.540
4.0, -25348.26402047444, -27497.160732407658, 5169.936140768068, -8431.972078320036, 39034.19244697004, 9491.891800390697, 24091.917168130538, -3180.6085325012846, 13720.461871679054, -2532.2738328306477, 37041.10974563476, 23106.518162073873, 34882.110045207744, 25230.962065572985, 24390.894101964725, 24720.627036169415, 0.098, 1.034, 0.16, 192.0, 0.0, 0.0, 0.0, 0.0, 0.0, 0.0, 0.0, 0.0, 0.0, 1.7074738065471513E9, 0.0, 2024-02-09 11:16:46.547
6.0, -25298.933720461577, -27470.360990805744, 5195.93121956959, -8449.026459339435, 39442.312948979496, 9567.686565838643, 24301.509475887953, -3024.861577136705, 13993.644892411816, -2470.001872778162, 37410.60643322545, 23212.912465681133, 35217.63208122636, 25425.913980712176, 24595.09963930841, 24865.26517453971, 0.098, 1.034, 0.16, 192.0, 0.0, 0.0, 0.0, 0.0, 0.0, 0.0, 0.0, 0.0, 0.0, 1.707473806555164E9, 0.0, 2024-02-09 11:16:46.555
8.0, -25385.099695336783, -27526.01683449946, 5140.54359680934, -8416.862299068249, 39041.41206042911, 9502.888858662709, 24091.5371884748, -3158.3461950237984, 13867.961033339625, -2505.2729255286367, 37346.30046442753, 23153.792101596846, 35289.761160583636, 25374.30380276487, 24569.082208762433, 24924.720814790824, 0.08600000000000001, 1.04, 0.18, 192.0, 1.0, 88.0, 16.0, 64.0, 2.5, 80.0, 0.0, 0.0, 0.0, 1.7074738065631337E9, 0.0, 2024-02-09 11:16:46.563
10.0, -25304.09697343075, -27475.30072633037, 5192.869030579213, -8446.008973837968, 39297.00425827554, 9572.291025196437, 24236.75647220093, -3083.914885987626, 13793.037985925435, -2502.523660960634, 37073.13979543922, 23147.846537571735, 34813.31137577431, 25281.47700804198, 24424.265256436498, 24715.709652389247, 0.08600000000000001, 1.04, 0.18, 192.0, 0.0, 0.0, 0.0, 0.0, 0.0, 0.0, 0.0, 0.0, 0.0, 1.7074738065721807E9, 0.0, 2024-02-09 11:16:46.572
12.0, -25355.50598567796, -27517.143191950705, 5146.936195723557, -8440.018706323946, 39308.02366829201, 9549.93928074113, 24238.79048094636, -3084.3842726211874, 14027.910116661802, -2471.1641634898383, 37557.412690807905, 23206.631625489194, 35468.59746797055, 25502.893388616252, 24693.313204445032, 25004.42713551845, 0.08600000000000001, 1.04, 0.18, 192.0, 0.0, 0.0, 0.0, 0.0, 0.0, 0.0, 0.0, 0.0, 0.0, 1.7074738065792165E9, 0.0, 2024-02-09 11:16:46.579
14.0, -25363.97729682652, -27523.60284609829, 5144.768076511393, -8440.644555168696, 39052.45382219003, 9523.072483905851, 24120.52740103333, -3177.278122577444, 13714.203383231566, -2530.910376418874, 37022.55779773686, 23099.924397459556, 34842.03336739938, 25247.27883902536, 24420.59957034583, 24743.671684702837, 0.08600000000000001, 1.04, 0.18, 192.0, 0.0, 0.0, 0.0, 0.0, 0.0, 0.0, 0.0, 0.0, 0.0, 1.7074738065875127E9, 0.0, 2024-02-09 11:16:46.587
16.0, -25313.52940959089, -27495.6408137847, 5172.104259980233, -8467.690165959617, 39476.64522846285, 9593.122851028784, 24351.309162534377, -3026.0909230817465, 13976.791677092515, -2470.0912797559836, 37377.659961898324, 23187.140904324166, 35164.211411978176, 25431.300751125902, 24613.808049417505, 24861.77830240468, 0.08600000000000001, 1.04, 0.18, 192.0, 0.0, 0.0, 0.0, 0.0, 0.0, 0.0, 0.0, 0.0, 0.0, 1.7074738065962255E9, 0.0, 2024-02-09 11:16:46.596
18.0, -25393.816875674354, -27548.25682023249, 5120.762302966393, -8443.14795054769, 39080.34879927025, 9501.54775399539, 24139.01229369787, -3179.3568348117874, 13863.960071082125, -2502.456605727268, 37326.25094965112, 23122.164383192587, 35260.055692202535, 25379.221186545037, 24598.117124809876, 24920.876314744513, 0.076, 1.004, 0.184, 192.0, 1.0, 48.0, 15.5, 48.0, 2.5, 96.0, 0.0, 0.0, 0.0, 1.7074738066031919E9, 0.0, 2024-02-09 11:16:46.603
20.0, -25311.204828167538, -27495.05966842886, 5175.948760026546, -8467.779572937437, 39337.77384016202, 9566.814847804886, 24302.38119392171, -3088.921676745615, 13794.222628381567, -2502.0766260715277, 37052.57619054034, 23116.464688356482, 34786.84691033923, 25256.733626929956, 24448.85217533734, 24690.69805034376, 0.076, 1.004, 0.184, 192.0, 0.0, 0.0, 0.0, 0.0, 0.0, 0.0, 0.0, 0.0, 0.0, 1.7074738066112711E9, 0.0, 2024-02-09 11:16:46.611
22.0, -25361.518604936435, -27526.82149729985, 5135.357992095708, -8457.855398399282, 39359.27621832803, 9534.158949155682, 24303.43172591111, -3105.5513746203633, 14037.163738866298, -2458.5801313615, 37551.86945818299, 23190.73953518147, 35478.34282855306, 25478.61939413779, 24728.36073975095, 24986.0987050651, 0.076, 1.004, 0.184, 192.0, 0.0, 0.0, 0.0, 0.0, 0.0, 0.0, 0.0, 0.0, 0.0, 1.7074738066192744E9, 0.0, 2024-02-09 11:16:46.619
24.0, -25362.099750292273, -27526.285055432923, 5146.757381767915, -8446.947747105092, 39097.8278634343, 9506.97922789803, 24192.008279801405, -3176.6075702437843, 13722.09354902429, -2516.3817425229245, 37023.027184370425, 23097.085725913734, 34871.13533868019, 25221.32846371275, 24441.006713033523, 24730.84178338549, 0.076, 1.004, 0.184, 192.0, 0.0, 0.0, 0.0, 0.0, 0.0, 0.0, 0.0, 0.0, 0.0, 1.7074738066284132E9, 0.0, 2024-02-09 11:16:46.628
26.0, -25306.75683102093, -27489.158807892658, 5171.299597179842, -8466.349061292298, 39522.33219412949, 9560.89163552423, 24411.83768651935, -3048.532074514875, 13987.364052219875, -2456.926102271808, 37375.17891826379, 23194.092296849765, 35189.46888321268, 25403.450477534592, 24632.9634944157, 24854.58104069007, 0.076, 1.004, 0.184, 192.0, 0.0, 0.0, 0.0, 0.0, 0.0, 0.0, 0.0, 0.0, 0.0, 1.707473806635318E9, 0.0, 2024-02-09 11:16:46.635
28.0, -25391.492294251002, -27546.82630858735, 5115.219070341476, -8441.71743890255, 39116.20099737657, 9472.088154803296, 24187.5602826548, -3199.6969222661164, 13876.812324143926, -2492.912410844852, 37334.878723010865, 23135.486022887948, 35286.4307506598, 25370.414599229647, 24615.52913374056, 24911.01919543972, 0.07200000000000001, 0.98, 0.182, 192.0, 1.0, 32.0, 15.0, 80.0, 2.5, 88.0, 0.0, 0.0, 0.0, 1.707473806643447E9, 0.0, 2024-02-09 11:16:46.643
30.0, -25315.652825314144, -27501.519322576445, 5170.561989612816, -8469.344195049309, 39350.17905833472, 9540.328030625347, 24336.2440867715, -3076.4494033395536, 13795.787250493438, -2500.333190004014, 37044.1942863696, 23122.18673493704, 34810.91973911759, 25257.85121415272, 24452.339047472364, 24691.0780299995, 0.07200000000000001, 0.98, 0.182, 192.0, 0.0, 0.0, 0.0, 0.0, 0.0, 0.0, 0.0, 0.0, 0.0, 1.707473806651327E9, 0.0, 2024-02-09 11:16:46.651
32.0, -25363.86553810424, -27534.06346250337, 5140.655355531616, -8458.39184026621, 39364.350064319384, 9518.155100125683, 24322.520115675943, -3082.5737813203077, 14036.962573166202, -2465.397413420369, 37538.27959755416, 23184.05636358933, 35489.429293802896, 25483.581481406865, 24727.98076009521, 24989.85379813359, 0.07200000000000001, 0.98, 0.182, 192.0, 0.0, 0.0, 0.0, 0.0, 0.0, 0.0, 0.0, 0.0, 0.0, 1.707473806659634E9, 0.0, 2024-02-09 11:16:46.659
34.0, -25372.023924830428, -27536.857430560285, 5136.721448507482, -8448.110037816768, 39078.58301145828, 9498.709082449566, 24181.704125607506, -3160.9613491250693, 13714.203383231566, -2526.7753036946424, 37003.111780060746, 23080.299565827798, 34869.95069622406, 25230.492678939427, 24439.73266359957, 24737.74847242218, 0.07200000000000001, 0.98, 0.182, 192.0, 0.0, 0.0, 0.0, 0.0, 0.0, 0.0, 0.0, 0.0, 0.0, 1.7074738066673596E9, 0.0, 2024-02-09 11:16:46.667
36.0, -25322.78303179539, -27501.273453387435, 5159.229655173976, -8472.495791017507, 39480.15445234233, 9554.744905799022, 24371.448084288608, -3046.632176236174, 13959.781999562027, -2466.8279250655087, 37342.299502170026, 23178.15550305313, 35166.55834514598, 25410.60303576029, 24620.15594484281, 24856.100959313033, 0.07200000000000001, 0.98, 0.182, 192.0, 0.0, 0.0, 0.0, 0.0, 0.0, 0.0, 0.0, 0.0, 0.0, 1.7074738066753483E9, 0.0, 2024-02-09 11:16:46.675
38.0, -25408.03258514793, -27551.140195267224, 5110.39109353913, -8447.752409905483, 39075.99020910147, 9479.26306477345, 24177.68081160555, -3166.8622096612708, 13848.202091241134, -2507.5751552075335, 37300.769960972066, 23117.738737790434, 35264.19076492677, 25367.17359628363, 24595.56902594197, 24920.228114155307, 0.074, 0.988, 0.17400000000000002, 192.0, 1.0, 40.0, 15.0, 112.0, 2.5, 56.0, 0.0, 0.0, 0.0, 1.7074738066843576E9, 0.0, 2024-02-09 11:16:46.684
40.0, -25332.48368888899, -27493.383287594712, 5165.286977921364, -8472.048756128403, 39300.468778666116, 9545.22306266106, 24310.67369111463, -3076.7399760174726, 13759.689183198117, -2512.5372424766115, 37006.308079517854, 23106.898141729613, 34767.64676185212, 25244.976609346464, 24440.55967814442, 24702.946806305266, 0.074, 0.988, 0.17400000000000002, 192.0, 0.0, 0.0, 0.0, 0.0, 0.0, 0.0, 0.0, 0.0, 0.0, 1.7074738066903365E9, 0.0, 2024-02-09 11:16:46.690
42.0, -25378.796503400386, -27522.55231410889, 5130.328849593264, -8466.796096181404, 39321.72528764311, 9507.672131976144, 24301.4871241435, -3097.504746616453, 14010.520459475572, -2476.439175181291, 37512.61979491947, 23175.272128018398, 35437.19326701084, 25474.171396991183, 24708.311224974543, 24990.85962663408, 0.074, 0.988, 0.17400000000000002, 192.0, 0.0, 0.0, 0.0, 0.0, 0.0, 0.0, 0.0, 0.0, 0.0, 1.7074738066993508E9, 0.0, 2024-02-09 11:16:46.699
44.0, -25378.72944816702, -27515.042127971905, 5147.182064912566, -8451.663965185162, 39038.77455458338, 9484.091041575795, 24170.863529546685, -3165.141125338212, 13699.965322013537, -2547.0036324266953, 36984.6268873962, 23066.95557438798, 34824.84487591325, 25215.628768876646, 24412.374128386276, 24730.350045007475, 0.074, 0.988, 0.17400000000000002, 192.0, 0.0, 0.0, 0.0, 0.0, 0.0, 0.0, 0.0, 0.0, 0.0, 1.7074738067074697E9, 0.0, 2024-02-09 11:16:46.707
46.0, -25322.38070039519, -27474.473711785522, 5176.26168444892, -8473.993357896014, 39448.526733938066, 9535.097722422806, 24374.554976767897, -3055.2599495959225, 13964.587624619917, -2485.0893002854946, 37328.799048519024, 23170.10887504922, 35125.051155692476, 25400.053012377386, 24601.11225856689, 24849.77541563218, 0.074, 0.988, 0.17400000000000002, 192.0, 0.0, 0.0, 0.0, 0.0, 0.0, 0.0, 0.0, 0.0, 0.0, 1.707473806715406E9, 0.0, 2024-02-09 11:16:46.715
48.0, -25393.593358229802, -27514.30452040488, 5135.5144543068955, -8435.973040577537, 39049.59279889975, 9474.457439715557, 24165.454407388497, -3167.5104102504743, 13868.676289162195, -2514.9959343666956, 37315.36565010138, 23118.364586635184, 35247.44930832974, 25361.540956680892, 24595.367860241877, 24930.487564860294, 0.082, 1.012, 0.152, 192.0, 1.0, 72.0, 15.5, 80.0, 2.0, 96.0, 0.0, 0.0, 0.0, 1.7074738067236233E9, 0.0, 2024-02-09 11:16:46.723
50.0, -25306.868589743208, -27458.134586588694, 5207.799995875358, -8449.294680272898, 39287.795339559954, 9552.643841820221, 24305.935121290106, -3052.7342024724726, 13795.049642926413, -2514.168919821849, 37031.87847517472, 23122.8572872707, 34754.43688087903, 25239.32161799927, 24441.967838045104, 24717.497791945672, 0.082, 1.012, 0.152, 192.0, 0.0, 0.0, 0.0, 0.0, 0.0, 0.0, 0.0, 0.0, 0.0, 1.7074738067313712E9, 0.0, 2024-02-09 11:16:46.731
52.0, -25351.326209464816, -27492.019831182937, 5165.756364554926, -8443.28206101442, 39329.190770291185, 9533.555452055389, 24288.880740270706, -3073.5660283048187, 14046.529119793073, -2466.336186687492, 37544.78395519066, 23196.64039571767, 35428.63254888446, 25480.720458116586, 24732.56286770855, 25018.15110661401, 0.082, 1.012, 0.152, 192.0, 0.0, 0.0, 0.0, 0.0, 0.0, 0.0, 0.0, 0.0, 0.0, 1.7074738067394297E9, 0.0, 2024-02-09 11:16:46.739
54.0, -25362.345619481282, -27502.72631677703, 5164.549370354339, -8443.594985436795, 39053.1690780126, 9500.363111539258, 24180.810055829294, -3158.3461950237984, 13727.212098504557, -2522.3049548035806, 37019.04857385738, 23097.845685225213, 34820.598044466744, 25225.597646903712, 24450.729721871583, 24770.829054216036, 0.082, 1.012, 0.152, 192.0, 0.0, 0.0, 0.0, 0.0, 0.0, 0.0, 0.0, 0.0, 0.0, 1.7074738067464275E9, 0.0, 2024-02-09 11:16:46.746
56.0, -25306.28744438737, -27469.981011150005, 5187.482260165484, -8471.333500305833, 39473.94066738375, 9566.859551293797, 24379.71822973707, -3037.2891470538557, 13975.741145103115, -2467.7666983326317, 37341.7630603031, 23190.44896250355, 35110.70133575217, 25398.421335032148, 24628.67195948028, 24873.91529964391, 0.082, 1.012, 0.152, 192.0, 0.0, 0.0, 0.0, 0.0, 0.0, 0.0, 0.0, 0.0, 0.0, 1.7074738067554696E9, 0.0, 2024-02-09 11:16:46.755
58.0, -25390.933500639618, -27528.654340345187, 5127.49017804744, -8446.81363663836, 39093.35751454324, 9484.940407865097, 24177.613756372186, -3186.2635238484772, 13871.98434734158, -2497.4051114803688, 37314.963318701186, 23138.324694433773, 35245.1694303953, 25363.150282281673, 24618.77013668658, 24940.165870209443, 0.082, 1.008, 0.138, 192.0, 1.0, 72.0, 15.5, 64.0, 2.0, 40.0, 0.0, 0.0, 0.0, 1.7074738067634296E9, 0.0, 2024-02-09 11:16:46.763
60.0, -25316.926874748096, -27477.848825198274, 5173.244198947454, -8476.608511997285, 39321.54647368747, 9545.111303938784, 24305.353975934268, -3124.0362672849024, 13774.307224071888, -2506.9046028738744, 37007.96210860755, 23129.406348396107, 34747.10550869769, 25232.75020512941, 24451.579088160885, 24709.674681386314, 0.082, 1.008, 0.138, 192.0, 0.0, 0.0, 0.0, 0.0, 0.0, 0.0, 0.0, 0.0, 0.0, 1.7074738067704897E9, 0.0, 2024-02-09 11:16:46.770
62.0, -25361.20568051406, -27507.30842439037, 5128.451303059019, -8472.093459617312, 39369.08863414391, 9521.26199260497, 24311.612464381753, -3123.8351015848043, 14026.0102183831, -2472.237047223693, 37518.408896733396, 23199.9261021526, 35433.90756057591, 25472.383257434758, 24728.628960684415, 25002.817809917666, 0.082, 1.008, 0.138, 192.0, 0.0, 0.0, 0.0, 0.0, 0.0, 0.0, 0.0, 0.0, 0.0, 1.70747380677946E9, 0.0, 2024-02-09 11:16:46.779
64.0, -25370.034619573908, -27505.408526111667, 5131.915823449591, -8463.108058346279, 39093.89395641017, 9487.667320688644, 24181.011221529392, -3226.9436987571357, 13714.292790209389, -2531.938556663818, 36998.2838032584, 23097.823333480756, 34846.61547501272, 25218.489792166925, 24449.321561970897, 24754.825205186036, 0.082, 1.008, 0.138, 192.0, 0.0, 0.0, 0.0, 0.0, 0.0, 0.0, 0.0, 0.0, 0.0, 1.7074738067875469E9, 0.0, 2024-02-09 11:16:46.787
66.0, -25303.06879318581, -27458.87219415572, 5176.418146660108, -8477.077898630845, 39515.693726026264, 9554.521388354467, 24389.64240427523, -3064.915903200615, 13973.461267168674, -2462.849314552464, 37333.73878404365, 23199.12143935221, 35130.68379529522, 25397.057878620373, 24624.648645478326, 24860.951287859833, 0.082, 1.008, 0.138, 192.0, 0.0, 0.0, 0.0, 0.0, 0.0, 0.0, 0.0, 0.0, 0.0, 1.7074738067944877E9, 0.0, 2024-02-09 11:16:46.794
68.0, -25385.949061626085, -27511.86818025925, 5123.399808812119, -8454.122657075246, 39127.22040739303, 9471.484657703002, 24204.435849718553, -3188.096366893812, 13888.949321383157, -2493.1806317783157, 37331.90594099831, 23149.880546317167, 35298.61245138794, 25358.54582292388, 24626.280322823564, 24944.055073744665, 0.092, 1.004, 0.128, 192.0, 1.0, 112.0, 15.5, 48.0, 2.0, 0.0, 0.0, 0.0, 0.0, 1.7074738068024983E9, 0.0, 2024-02-09 11:16:46.802
70.0, -25294.306909359326, -27446.310513771834, 5192.64551313466, -8464.2479973135, 39328.31905225743, 9531.78966424342, 24312.61829288224, -3120.750560849972, 13797.173058649667, -2500.1320243039163, 37025.93291114961, 23142.258601457906, 34806.29292801535, 25240.930943600055, 24461.905594099237, 24720.55998093605, 0.092, 1.004, 0.128, 192.0, 0.0, 0.0, 0.0, 0.0, 0.0, 0.0, 0.0, 0.0, 0.0, 1.7074738068115523E9, 0.0, 2024-02-09 11:16:46.811
72.0, -25334.96473252353, -27474.138435618694, 5166.493972121951, -8451.842779140805, 39385.36070410737, 9513.125957623239, 24326.47637444453, -3115.408493925154, 14058.532006565572, -2451.7404975581762, 37546.41563253589, 23223.50719255295, 35488.19994785785, 25474.551376646923, 24732.09348107499, 25010.931493154945, 0.092, 1.004, 0.128, 192.0, 0.0, 0.0, 0.0, 0.0, 0.0, 0.0, 0.0, 0.0, 0.0, 1.707473806819579E9, 0.0, 2024-02-09 11:16:46.819
74.0, -25347.481709418502, -27477.91588043164, 5172.774812313893, -8433.916680087648, 39093.55868024334, 9492.249428301982, 24183.291099463833, -3190.912686695181, 13744.087665568313, -2509.6315156974215, 37039.7909927119, 23127.685264073047, 34911.61434788875, 25241.33327500025, 24466.018315079014, 24787.52580732415, 0.092, 1.004, 0.128, 192.0, 0.0, 0.0, 0.0, 0.0, 0.0, 0.0, 0.0, 0.0, 0.0, 1.7074738068266006E9, 0.0, 2024-02-09 11:16:46.826
76.0, -25293.457543070024, -27446.735196916485, 5197.920524826112, -8460.694069945106, 39514.307917870035, 9561.450429135613, 24401.98056721456, -3047.660356481118, 13984.346566718408, -2456.657881338344, 37359.04095876705, 23218.522753539415, 35180.282316241544, 25407.719660725554, 24634.43870954975, 24894.389497564975, 0.092, 1.004, 0.128, 192.0, 0.0, 0.0, 0.0, 0.0, 0.0, 0.0, 0.0, 0.0, 0.0, 1.707473806834597E9, 0.0, 2024-02-09 11:16:46.834
78.0, -25383.19979705808, -27508.627177313232, 5136.475579318474, -8442.365639491754, 39126.30398587036, 9475.150343793672, 24208.526218953877, -3180.3850150567314, 13886.89296089327, -2495.9298963463184, 37359.68915935626, 23157.994229554442, 35333.168248315844, 25368.559404439857, 24638.439671807253, 24979.035553817223, 0.097, 1.01, 0.124, 192.0, 1.5, 24.0, 15.5, 96.0, 1.5, 96.0, 0.0, 0.0, 0.0, 1.7074738068435633E9, 0.0, 2024-02-09 11:16:46.843
80.0, -25305.169857164605, -27457.039351110383, 5184.710643853026, -8468.271311315455, 39318.99837481957, 9535.432998589635, 24303.72229858903, -3109.1276537332124, 13781.750354975506, -2513.3866087659135, 37035.32064382084, 23141.185717724053, 34822.5202944899, 25230.55973417279, 24458.28461149748, 24742.531745735618, 0.097, 1.01, 0.124, 192.0, 0.0, 0.0, 0.0, 0.0, 0.0, 0.0, 0.0, 0.0, 0.0, 1.707473806850701E9, 0.0, 2024-02-09 11:16:46.850
82.0, -25350.11921526423, -27491.77396199393, 5148.456114346518, -8463.44333451311, 39369.33450333292, 9517.708065236577, 24312.439478926597, -3103.1820897081006, 14035.576765009971, -2485.603390407967, 37540.44771676633, 23206.095183622263, 35498.39234332947, 25464.09076024184, 24722.683396659304, 25025.415423561983, 0.097, 1.01, 0.124, 192.0, 0.0, 0.0, 0.0, 0.0, 0.0, 0.0, 0.0, 0.0, 0.0, 1.7074738068586228E9, 0.0, 2024-02-09 11:16:46.858
84.0, -25360.22220375803, -27495.372592851236, 5151.9429864815465, -8452.066296585357, 39069.70936890953, 9484.292207275892, 24169.365962668177, -3206.357742113798, 13722.473528680031, -2543.874388202952, 37026.35759429426, 23100.90787421559, 34929.27222600844, 25225.642350392623, 24453.210765506123, 24794.790124272124, 0.097, 1.01, 0.124, 192.0, 0.0, 0.0, 0.0, 0.0, 0.0, 0.0, 0.0, 0.0, 0.0, 1.707473806867766E9, 0.0, 2024-02-09 11:16:46.867
86.0, -25297.793781494354, -27458.82749066681, 5186.364672942719, -8475.289759074421, 39473.62774296138, 9544.753676027498, 24360.00399112749, -3067.173429390601, 13973.52832240204, -2481.6024281504665, 37339.32672015747, 23207.078660378298, 35180.706999386195, 25393.191026829605, 24610.522342982575, 24882.49836951475, 0.097, 1.01, 0.124, 192.0, 0.0, 0.0, 0.0, 0.0, 0.0, 0.0, 0.0, 0.0, 0.0, 1.707473806875638E9, 0.0, 2024-02-09 11:16:46.875
88.0, -25390.933500639618, -27527.559104866876, 5126.01496291339, -8452.714497174562, 39080.72877892599, 9465.092058788785, 24142.879145488638, -3181.547305768407, 13879.092202078367, -2530.3515828074915, 37339.840810279944, 23148.695903861037, 35336.00691986167, 25353.561383910346, 24615.260912807098, 24967.345591467096, 0.10350000000000001, 1.0190000000000001, 0.12, 192.0, 1.5, 56.0, 16.0, 16.0, 1.5, 80.0, 0.0, 0.0, 0.0, 1.707473806882672E9, 0.0, 2024-02-09 11:16:46.882
90.0, -25303.29231063036, -27467.231746582, 5195.864164336224, -8468.316014804366, 39284.44257789166, 9532.571975299355, 24293.820475795328, -3092.2297349250002, 13780.610416008285, -2535.492484032212, 37021.686079703104, 23142.370360180183, 34824.19667532405, 25238.248734265417, 24451.13205327178, 24746.353894037475, 0.10350000000000001, 1.0190000000000001, 0.12, 192.0, 0.0, 0.0, 0.0, 0.0, 0.0, 0.0, 0.0, 0.0, 0.0, 1.7074738068906791E9, 0.0, 2024-02-09 11:16:46.890
92.0, -25350.16391875314, -27505.944967978594, 5144.298689877831, -8474.77566895195, 39334.9351686162, 9511.181355855628, 24301.889455543693, -3104.366732164232, 14038.035456900056, -2498.9026783588743, 37533.94335912983, 23212.64424474767, 35497.40886657344, 25476.27246096998, 24729.455975229263, 25041.508679569804, 0.10350000000000001, 1.0190000000000001, 0.12, 192.0, 0.0, 0.0, 0.0, 0.0, 0.0, 0.0, 0.0, 0.0, 0.0, 1.7074738068996627E9, 0.0, 2024-02-09 11:16:46.899
94.0, -25369.40877072916, -27518.88662801822, 5143.784599755359, -8469.433602027131, 39027.82219980028, 9480.738279907499, 24129.49045055991, -3205.1283961687564, 13719.590153645297, -2571.165868182882, 37015.44994300007, 23096.951615447, 34920.33152822632, 25222.535457913335, 24451.60143990534, 24803.037917976133, 0.10350000000000001, 1.0190000000000001, 0.12, 192.0, 0.0, 0.0, 0.0, 0.0, 0.0, 0.0, 0.0, 0.0, 0.0, 1.7074738069067245E9, 0.0, 2024-02-09 11:16:46.906
96.0, -25300.274825128894, -27474.183139107605, 5183.369539185708, -8485.862134201781, 39446.80564961501, 9564.065583236883, 24361.05452311689, -3045.6039959912296, 13966.1969502207, -2513.7889401661087, 37318.07021118048, 23192.90765439363, 35162.736196844126, 25390.128837839227, 24610.14236332683, 24897.11641038852, 0.10350000000000001, 1.0190000000000001, 0.12, 192.0, 0.0, 0.0, 0.0, 0.0, 0.0, 0.0, 0.0, 0.0, 0.0, 1.7074738069146953E9, 0.0, 2024-02-09 11:16:46.914
98.0, -25381.5904714573, -27525.614503099267, 5130.351201337719, -8455.597872209295, 39068.278857264384, 9494.194030069593, 24151.372808381657, -3169.3879567847202, 13887.228237060099, -2538.5323212781336, 37336.286882911554, 23150.19347073954, 35343.315940298555, 25384.138570325205, 24621.944084399234, 24996.156990069987, 0.09475, 1.0255, 0.121, 192.0, 1.0, 88.0, 16.0, 32.0, 1.5, 104.0, 0.0, 0.0, 0.0, 1.707473806922698E9, 0.0, 2024-02-09 11:16:46.922
100.0, -25294.44101982606, -27466.762359948443, 5193.159603257132, -8471.445259028109, 39264.28130439297, 9555.303699410404, 24282.15286518966, -3114.6708863581284, 13777.995261907014, -2538.554673022589, 37008.09621907428, 23144.985514281456, 34817.04411709835, 25256.510109485404, 24438.83859382136, 24754.51228076366, 0.09475, 1.0255, 0.121, 192.0, 0.0, 0.0, 0.0, 0.0, 0.0, 0.0, 0.0, 0.0, 0.0, 1.7074738069327233E9, 0.0, 2024-02-09 11:16:46.932
102.0, -25339.189212225585, -27501.005232453972, 5157.150942939633, -8468.986567138025, 39336.61154945035, 9551.839179019831, 24308.99731028048, -3079.4892405854753, 14035.979096410168, -2504.3788557504245, 37527.28253928215, 23216.64520700517, 35476.95702039683, 25495.85258911283, 24720.22470476922, 25050.91876398549, 0.09475, 1.0255, 0.121, 192.0, 0.0, 0.0, 0.0, 0.0, 0.0, 0.0, 0.0, 0.0, 0.0, 1.7074738069387453E9, 0.0, 2024-02-09 11:16:46.938
104.0, -25348.219316985527, -27502.34633712129, 5158.290881906853, -8455.463761742563, 39035.0641650038, 9516.054036146885, 24136.508898318876, -3184.207163358589, 13726.362732215255, -2563.4098128568903, 37030.98440539651, 23110.228551653454, 34906.9875367865, 25251.391560005137, 24447.198146247643, 24821.321644940574, 0.09475, 1.0255, 0.121, 192.0, 0.0, 0.0, 0.0, 0.0, 0.0, 0.0, 0.0, 0.0, 0.0, 1.7074738069467473E9, 0.0, 2024-02-09 11:16:46.946
106.0, -25284.494493543447, -27460.392112778678, 5194.724225369004, -8478.843686442815, 39469.55972547051, 9579.80121133342, 24377.05837214689, -3049.0908681262576, 13971.76253459007, -2499.975562092729, 37335.035185222056, 23209.805573201844, 35146.28531292502, 25418.828477719842, 24607.169581314276, 24906.705308759847, 0.09475, 1.0255, 0.121, 192.0, 0.0, 0.0, 0.0, 0.0, 0.0, 0.0, 0.0, 0.0, 0.0, 1.7074738069557483E9, 0.0, 2024-02-09 11:16:46.955
108.0, -25376.963660355053, -27521.792354797406, 5133.949832195024, -8455.687279187117, 39099.951279157554, 9503.02296912944, 24164.247413187913, -3179.4015383006977, 13896.0795278644, -2539.35933582298, 37359.286827956064, 23154.216784741497, 35340.56667573055, 25407.138515369716, 24630.25893333661, 25010.506810010294, 0.084375, 1.0197500000000002, 0.1215, 192.0, 1.0, 40.0, 15.5, 88.0, 1.5, 104.0, 0.0, 0.0, 0.0, 1.7074738069627252E9, 0.0, 2024-02-09 11:16:46.962
110.0, -25300.319528617805, -27467.611726237745, 5184.598885130749, -8477.323767819855, 39292.60096461785, 9549.380487129747, 24276.252004653456, -3127.9031190756705, 13779.649290996706, -2550.736373750731, 37018.02039361243, 23136.67066534408, 34809.84685538374, 25258.164138575095, 24443.26423922351, 24763.85530994598, 0.084375, 1.0197500000000002, 0.1215, 192.0, 0.0, 0.0, 0.0, 0.0, 0.0, 0.0, 0.0, 0.0, 0.0, 1.7074738069709811E9, 0.0, 2024-02-09 11:16:46.970
112.0, -25328.125098720207, -27487.482427058512, 5156.860370261714, -8459.174151322146, 39384.86896572936, 9562.947996014118, 24320.10612727477, -3076.695272528562, 14049.233680872165, -2502.568364449545, 37545.99094939124, 23220.35559658475, 35499.37582008551, 25510.33651951987, 24732.585219453005, 25057.266659410794, 0.084375, 1.0197500000000002, 0.1215, 192.0, 0.0, 0.0, 0.0, 0.0, 0.0, 0.0, 0.0, 0.0, 0.0, 1.7074738069787948E9, 0.0, 2024-02-09 11:16:46.978
114.0, -25340.68677910409, -27495.26083412896, 5163.096506964745, -8447.551244205386, 39089.28949705237, 9538.003449201995, 24183.000526785916, -3153.2947007768994, 13745.652287680185, -2557.0842691760386, 37055.05723417488, 23123.639598326637, 34956.67546471065, 25277.38663880666, 24479.2281960521, 24843.159299273408, 0.084375, 1.0197500000000002, 0.1215, 192.0, 0.0, 0.0, 0.0, 0.0, 0.0, 0.0, 0.0, 0.0, 0.0, 1.7074738069868195E9, 0.0, 2024-02-09 11:16:46.986
116.0, -25275.732609716968, -27457.732255188497, 5199.88747833818, -8475.401517796698, 39511.446894579756, 9600.677740654677, 24398.02430844597, -3039.5466732438417, 13982.804296350992, -2499.327361503525, 37340.80193529152, 23210.63258774669, 35186.361990733385, 25431.300751125902, 24634.84104094995, 24925.100794446564, 0.084375, 1.0197500000000002, 0.1215, 192.0, 0.0, 0.0, 0.0, 0.0, 0.0, 0.0, 0.0, 0.0, 0.0, 1.7074738069958055E9, 0.0, 2024-02-09 11:16:46.995
118.0, -25356.154186267162, -27510.415316869658, 5155.429858616574, -8440.018706323946, 39153.79663155039, 9535.298888122903, 24213.22008528949, -3144.5104652059636, 13912.865687950336, -2529.6363269849217, 37382.130310789384, 23162.643392401147, 35387.1030076865, 25425.13166965624, 24659.9196982288, 25029.03640616374, 0.0731875, 1.014875, 0.12375, 192.0, 0.5, 120.0, 15.5, 72.0, 1.5, 120.0, 0.0, 0.0, 0.0, 1.7074738070028584E9, 0.0, 2024-02-09 11:16:47.002
120.0, -25277.14076961765, -27454.71476968703, 5207.352960986253, -8467.489000259518, 39319.08778179739, 9576.068470009384, 24292.52407461692, -3111.6086973677516, 13798.022424938968, -2527.4682077727566, 37047.45764106007, 23147.35479919372, 34843.240361599965, 25279.48770278546, 24477.931794873693, 24783.323679366553, 0.0731875, 1.014875, 0.12375, 192.0, 0.0, 0.0, 0.0, 0.0, 0.0, 0.0, 0.0, 0.0, 0.0, 1.7074738070118685E9, 0.0, 2024-02-09 11:16:47.011
122.0, -25314.378775880192, -27484.621403768233, 5177.826306560792, -8461.409325767676, 39404.87377701685, 9568.155952472205, 24333.11484254776, -3080.137441174679, 14074.289986406564, -2482.943532817785, 37569.68379851387, 23221.607294274247, 35508.718849267825, 25503.80981013892, 24739.246039300688, 25064.44156938095, 0.0731875, 1.014875, 0.12375, 192.0, 0.0, 0.0, 0.0, 0.0, 0.0, 0.0, 0.0, 0.0, 0.0, 1.7074738070188396E9, 0.0, 2024-02-09 11:16:47.018
124.0, -25343.033712271896, -27504.782677266918, 5165.041108732356, -8459.755296677982, 39090.094159852764, 9522.558393783378, 24186.465047176487, -3188.4092913161867, 13759.733886687029, -2557.620711042966, 37068.043597703414, 23107.523990574362, 34941.38687150322, 25262.880356655165, 24479.071733840912, 24835.67146488088, 0.0731875, 1.014875, 0.12375, 192.0, 0.0, 0.0, 0.0, 0.0, 0.0, 0.0, 0.0, 0.0, 0.0, 1.707473807026869E9, 0.0, 2024-02-09 11:16:47.026
126.0, -25285.299156343837, -27473.110255373747, 5195.975923058501, -8487.806735969394, 39510.15049340135, 9583.578656146366, 24404.43925910464, -3059.3279670867882, 13982.580778906438, -2510.324419775536, 37336.30923465601, 23187.83380840228, 35163.83143232244, 25405.931521169132, 24617.58549423045, 24902.570236035615, 0.0731875, 1.014875, 0.12375, 192.0, 0.0, 0.0, 0.0, 0.0, 0.0, 0.0, 0.0, 0.0, 0.0, 1.707473807035071E9, 0.0, 2024-02-09 11:16:47.035
128.0, -25371.822759130333, -27529.034320000927, 5135.022715928879, -8462.52691299044, 39141.905503500166, 9497.077405104328, 24188.297890221824, -3201.5968205448175, 13919.213583375644, -2545.1260858924493, 37376.29650548655, 23140.805738068313, 35374.38486509143, 25394.666241963656, 24641.21128811971, 24998.83919940462, 0.06659375000000001, 1.0134375, 0.12887500000000002, 192.0, 0.5, 112.0, 15.5, 80.0, 2.0, 24.0, 0.0, 0.0, 0.0, 1.7074738070428672E9, 0.0, 2024-02-09 11:16:47.042
130.0, -25298.77725825039, -27473.311421073846, 5184.755347341937, -8476.854381186293, 39314.930357328696, 9561.964519258085, 24310.651339370175, -3113.2850782018995, 13791.58512253584, -2555.3408331085247, 37020.23321631351, 23118.52104884637, 34838.16651560862, 25246.13890005814, 24452.74137887256, 24748.52201324964, 0.06659375000000001, 1.0134375, 0.12887500000000002, 192.0, 0.0, 0.0, 0.0, 0.0, 0.0, 0.0, 0.0, 0.0, 0.0, 1.7074738070509691E9, 0.0, 2024-02-09 11:16:47.050
132.0, -25333.042482500376, -27494.500874817477, 5158.715565051504, -8462.079878101335, 39413.41214339878, 9563.32797566986, 24342.994313597002, -3086.440633111076, 14063.315279879009, -2499.975562092729, 37552.98704540575, 23209.11266912373, 35522.12989594101, 25501.015842082008, 24739.000170111678, 25051.969295974886, 0.06659375000000001, 1.0134375, 0.12887500000000002, 192.0, 0.0, 0.0, 0.0, 0.0, 0.0, 0.0, 0.0, 0.0, 0.0, 1.7074738070588899E9, 0.0, 2024-02-09 11:16:47.058
134.0, -25349.135738508194, -27504.53680807791, 5163.074155220289, -8452.222758796544, 39098.297250067866, 9516.702236736088, 24184.92277680907, -3207.296515380921, 13749.027401092935, -2569.333025137547, 37064.60142905729, 23100.81846723777, 34982.87170921227, 25242.24969652292, 24485.643146710772, 24831.983427045754, 0.06659375000000001, 1.0134375, 0.12887500000000002, 192.0, 0.0, 0.0, 0.0, 0.0, 0.0, 0.0, 0.0, 0.0, 0.0, 1.7074738070669608E9, 0.0, 2024-02-09 11:16:47.066
136.0, -25285.880301699675, -27462.604935479754, 5196.512364925428, -8478.463706787075, 39515.716077770725, 9583.221028235082, 24394.626843288763, -3085.2559906549445, 13975.785848592026, -2514.7053616887765, 37335.57162708898, 23195.902788150644, 35185.19970002171, 25397.750782698487, 24618.16663958629, 24886.78990445017, 0.06659375000000001, 1.0134375, 0.12887500000000002, 192.0, 0.0, 0.0, 0.0, 0.0, 0.0, 0.0, 0.0, 0.0, 0.0, 1.7074738070749464E9, 0.0, 2024-02-09 11:16:47.074
138.0, -25373.476788220025, -27521.63589258622, 5140.342431109242, -8452.781552407927, 39158.78107056392, 9511.471928533547, 24194.77989611386, -3208.3693991147757, 13918.61008627535, -2544.008498669684, 37388.657020170336, 23153.43447368556, 35410.348821920015, 25402.869332178754, 24649.906116712824, 25000.403821516495, 0.065296875, 1.01571875, 0.13343750000000001, 192.0, 1.0, 0.0, 15.5, 104.0, 2.0, 40.0, 0.0, 0.0, 0.0, 1.7074738070842404E9, 0.0, 2024-02-09 11:16:47.084
140.0, -25301.593578051758, -27475.4348367971, 5193.673693379605, -8476.58616025283, 39323.71459289963, 9571.173437973672, 24300.749516576474, -3120.8623195722485, 13786.667738755672, -2555.877274975452, 37023.63068147071, 23124.891296016132, 34854.28212336089, 25244.775443646366, 24451.534384671973, 24744.677513203325, 0.065296875, 1.01571875, 0.13343750000000001, 192.0, 0.0, 0.0, 0.0, 0.0, 0.0, 0.0, 0.0, 0.0, 0.0, 1.7074738070909455E9, 0.0, 2024-02-09 11:16:47.090
142.0, -25343.92778205011, -27506.660223801166, 5157.977957484479, -8481.972930666558, 39424.02922201505, 9551.41449587518, 24347.643476443707, -3110.558165378352, 14056.63210828687, -2518.9298413908296, 37543.19698133433, 23198.8755701632, 35527.22609367682, 25482.70976337311, 24736.116795076945, 25037.463013823395, 0.065296875, 1.01571875, 0.13343750000000001, 192.0, 0.0, 0.0, 0.0, 0.0, 0.0, 0.0, 0.0, 0.0, 0.0, 1.707473807099141E9, 0.0, 2024-02-09 11:16:47.099
144.0, -25369.69934340708, -27523.91577052066, 5152.97116672649, -8474.798020696404, 39096.73262795599, 9505.25814357497, 24188.946090811027, -3220.394637631731, 13741.181938789123, -2592.3106184376024, 37040.81917295685, 23084.345231574207, 34988.97373544857, 25222.401347446605, 24473.528501215995, 24804.133153454444, 0.065296875, 1.01571875, 0.13343750000000001, 192.0, 0.0, 0.0, 0.0, 0.0, 0.0, 0.0, 0.0, 0.0, 0.0, 1.7074738071069872E9, 0.0, 2024-02-09 11:16:47.106
146.0, -25301.05713618483, -27476.4853687865, 5194.947742813557, -8493.752299994505, 39515.67137428181, 9579.354176444314, 24402.047622447924, -3082.462022598031, 13971.159037489777, -2533.078495631039, 37308.79423723152, 23175.0709623183, 35184.84207211043, 25380.83051214582, 24603.19097080123, 24860.616011693004, 0.065296875, 1.01571875, 0.13343750000000001, 192.0, 0.0, 0.0, 0.0, 0.0, 0.0, 0.0, 0.0, 0.0, 0.0, 1.707473807114016E9, 0.0, 2024-02-09 11:16:47.114
148.0, -25383.177445313628, -27530.286017690425, 5142.421143343585, -8459.643537955706, 39151.337939660305, 9507.001579642485, 24207.565093942296, -3213.3538381283092, 13920.889964209791, -2562.359280867491, 37375.96122931972, 23136.268333943884, 35414.70741208881, 25390.330003539326, 24642.59709627594, 24983.818827130657, 0.0706484375, 1.017859375, 0.13871875, 192.0, 1.0, 48.0, 15.5, 112.0, 2.0, 64.0, 0.0, 0.0, 0.0, 1.7074738071230123E9, 0.0, 2024-02-09 11:16:47.123
150.0, -25306.265092642916, -27474.965450163538, 5204.223716762509, -8471.266445072466, 39308.60481364785, 9567.060716993896, 24313.57941789382, -3130.697087132584, 13786.578331777851, -2574.9209612513737, 37013.862969143745, 23116.397633123117, 34857.76899549592, 25244.708388413, 24455.80356786294, 24733.859268886958, 0.0706484375, 1.017859375, 0.13871875, 192.0, 0.0, 0.0, 0.0, 0.0, 0.0, 0.0, 0.0, 0.0, 0.0, 1.7074738071310492E9, 0.0, 2024-02-09 11:16:47.131
152.0, -25336.417595913124, -27497.25013938548, 5173.981806514479, -8469.992395638514, 39408.964146252176, 9547.592347573322, 24342.97196185255, -3131.032363299413, 14067.696221792248, -2524.8754054159413, 37543.59931273452, 23197.355651540238, 35530.109468711555, 25491.09166754385, 24735.647408443383, 25027.538839285236, 0.0706484375, 1.017859375, 0.13871875, 192.0, 0.0, 0.0, 0.0, 0.0, 0.0, 0.0, 0.0, 0.0, 0.0, 1.7074738071390436E9, 0.0, 2024-02-09 11:16:47.139
154.0, -25352.689665876587, -27506.414354612156, 5171.634873346672, -8448.087686072313, 39078.270087035904, 9506.6439517312, 24189.862512333693, -3218.070056208379, 13760.091514598313, -2578.8995717644184, 37056.1971731421, 23100.460839326483, 34987.744389503525, 25238.584010432245, 24471.60625119284, 24807.754136056203, 0.0706484375, 1.017859375, 0.13871875, 192.0, 0.0, 0.0, 0.0, 0.0, 0.0, 0.0, 0.0, 0.0, 0.0, 1.7074738071460528E9, 0.0, 2024-02-09 11:16:47.146
156.0, -25282.169912120095, -27462.202604079557, 5204.827213862803, -8474.10511661829, 39495.353638571934, 9578.638920621745, 24389.173017641668, -3088.5864005787853, 13984.078345784945, -2525.8365304275194, 37316.88556872435, 23191.700660193048, 35156.47770839664, 25383.31155578036, 24603.77211615707, 24873.580023477083, 0.0706484375, 1.017859375, 0.13871875, 192.0, 0.0, 0.0, 0.0, 0.0, 0.0, 0.0, 0.0, 0.0, 0.0, 1.7074738071552863E9, 0.0, 2024-02-09 11:16:47.155
158.0, -25366.503043949968, -27517.567875095356, 5155.273396405387, -8443.371467992243, 39142.84427676729, 9504.49818426349, 24206.44750671953, -3194.198393130111, 13935.70917078366, -2552.2786441181474, 37386.73477014718, 23154.037970785856, 35391.77452227766, 25394.73329719702, 24648.430901578773, 25003.533065740237, 0.07132421875, 1.0219296875000001, 0.142359375, 192.0, 1.0, 32.0, 16.0, 8.0, 2.0, 72.0, 0.0, 0.0, 0.0, 1.7074738071630864E9, 0.0, 2024-02-09 11:16:47.163
160.0, -25292.719935503, -27467.67878147111, 5209.319914498319, -8461.655194956684, 39292.8244820624, 9570.726403084565, 24299.743688075985, -3117.8224823263267, 13793.172096392167, -2562.068708189572, 37009.884358630705, 23124.556019849304, 34826.02951836938, 25233.644274907623, 24449.768596860005, 24744.56575448105, 0.07132421875, 1.0219296875000001, 0.142359375, 192.0, 0.0, 0.0, 0.0, 0.0, 0.0, 0.0, 0.0, 0.0, 0.0, 1.7074738071700964E9, 0.0, 2024-02-09 11:16:47.170
162.0, -25324.213543440528, -27491.30457536037, 5180.486164150973, -8463.711555446573, 39404.35968689438, 9559.930510512651, 24341.005008340482, -3105.819595553827, 14073.887655006369, -2511.8219866540417, 37545.23099007976, 23210.476125535504, 35507.400096344965, 25480.943975561142, 24736.876754388424, 25040.033464435754, 0.07132421875, 1.0219296875000001, 0.142359375, 192.0, 0.0, 0.0, 0.0, 0.0, 0.0, 0.0, 0.0, 0.0, 0.0, 1.7074738071790547E9, 0.0, 2024-02-09 11:16:47.179
164.0, -25348.174613496616, -27504.87208424474, 5176.753422826937, -8453.76502916396, 39067.42949097508, 9516.88105069173, 24179.804227328805, -3205.7989485024154, 13762.259633810478, -2584.9568945118067, 37058.76762375446, 23096.795153235813, 34968.454834038595, 25222.378995702147, 24476.456579739643, 24822.573342630072, 0.07132421875, 1.0219296875000001, 0.142359375, 192.0, 0.0, 0.0, 0.0, 0.0, 0.0, 0.0, 0.0, 0.0, 0.0, 1.707473807187094E9, 0.0, 2024-02-09 11:16:47.187
166.0, -25277.029010895374, -27455.832356909796, 5216.65128667966, -8480.92239867716, 39488.581060001976, 9590.127717271771, 24393.755125255004, -3083.3560923762434, 13977.81985733746, -2521.5896989810108, 37303.25100460661, 23185.91155837912, 35151.49326938311, 25387.580738971323, 24600.039374833035, 24868.90850888592, 0.07132421875, 1.0219296875000001, 0.142359375, 192.0, 0.0, 0.0, 0.0, 0.0, 0.0, 0.0, 0.0, 0.0, 0.0, 1.7074738071940775E9, 0.0, 2024-02-09 11:16:47.194
168.0, -25365.87719510522, -27516.226770428035, 5160.6378150746605, -8454.39087800871, 39140.38558487721, 9520.502033293491, 24220.819678404296, -3193.885468707737, 13934.926859727724, -2545.908396948385, 37383.53847069007, 23150.886374817655, 35395.19433917932, 25401.058840877875, 24650.196689390745, 24995.397030758504, 0.066662109375, 1.02296484375, 0.1431796875, 192.0, 0.5, 120.0, 16.0, 0.0, 2.0, 64.0, 0.0, 0.0, 0.0, 1.707473807202344E9, 0.0, 2024-02-09 11:16:47.202
170.0, -25303.314662374814, -27477.625307753722, 5198.948705071057, -8486.935017935637, 39273.98196148658, 9559.595234345823, 24290.400658893665, -3149.919587364148, 13787.405346322697, -2567.008443714195, 36998.194396280574, 23109.04390919732, 34809.89155887265, 25217.908646811087, 24437.810413576415, 24732.65227468637, 0.066662109375, 1.02296484375, 0.1431796875, 192.0, 0.0, 0.0, 0.0, 0.0, 0.0, 0.0, 0.0, 0.0, 0.0, 1.7074738072110975E9, 0.0, 2024-02-09 11:16:47.211
172.0, -25325.174668452106, -27492.86919747224, 5178.563914127817, -8471.735831706028, 39402.102160704395, 9560.668118079677, 24337.83106062783, -3124.0362672849024, 14070.914872993813, -2519.8909664024077, 37529.76358291669, 23189.130209580686, 35473.73836919527, 25464.85071955332, 24711.015786053635, 25021.95090317141, 0.066662109375, 1.02296484375, 0.1431796875, 192.0, 0.0, 0.0, 0.0, 0.0, 0.0, 0.0, 0.0, 0.0, 0.0, 1.7074738072191541E9, 0.0, 2024-02-09 11:16:47.219
174.0, -25345.268886717426, -27503.352165621778, 5183.190725230065, -8447.752409905483, 39074.49264222296, 9534.784798000432, 24193.08116353526, -3194.6454280192174, 13762.706668699584, -2580.486545620745, 37057.404167342684, 23091.877769455645, 34957.36836878877, 25234.940676086033, 24471.494492470563, 24823.28859845264, 0.066662109375, 1.02296484375, 0.1431796875, 192.0, 0.0, 0.0, 0.0, 0.0, 0.0, 0.0, 0.0, 0.0, 0.0, 1.7074738072261596E9, 0.0, 2024-02-09 11:16:47.226
176.0, -25277.677211484577, -27459.408636022647, 5220.585193703794, -8476.899084675204, 39498.05819965103, 9600.163650532204, 24402.11467768129, -3061.2502171099445, 13984.346566718408, -2517.3875710234133, 37303.854501706905, 23188.705526436035, 35126.593426059895, 25378.08124757782, 24603.615653945883, 24877.44687526785, 0.066662109375, 1.02296484375, 0.1431796875, 192.0, 0.0, 0.0, 0.0, 0.0, 0.0, 0.0, 0.0, 0.0, 0.0, 1.7074738072342367E9, 0.0, 2024-02-09 11:16:47.234
178.0, -25366.950078839076, -27521.144154208203, 5159.386117385164, -8450.546377962397, 39137.703375542565, 9520.099701893294, 24201.843047361737, -3195.58420128634, 13940.134816185811, -2551.2281121287483, 37389.282869015085, 23145.63371487066, 35389.27112689866, 25397.5943204873, 24655.270535382097, 25010.417403032472, 0.066662109375, 1.02296484375, 0.1431796875, 192.0, 0.0, 0.0, 0.0, 0.0, 0.0, 0.0, 0.0, 0.0, 0.0, 1.707473807243182E9, 0.0, 2024-02-09 11:16:47.243
180.0, -25287.154351133628, -27465.890641914684, 5219.534661714395, -8465.656157214184, 39279.63695283377, 9577.722499099076, 24285.885606513693, -3125.265613229944, 13797.44127958313, -2561.6887285338316, 36999.31198350334, 23120.845630269723, 34816.8653031427, 25227.765766115877, 24448.74041661506, 24747.583239982516, 0.058, 1.018, 0.148, 192.0, 0.5, 104.0, 15.5, 104.0, 2.0, 80.0, 0.0, 0.0, 0.0, 1.707473807250296E9, 0.0, 2024-02-09 11:16:47.250
182.0, -25319.184400938084, -27492.77979049442, 5188.085757265778, -8471.95934915058, 39408.2041869407, 9554.230815676548, 24350.638610200716, -3113.7991683243717, 14082.962463255224, -2518.594565224, 37531.685832939846, 23201.244855075463, 35491.48565429278, 25471.84681556783, 24735.245077043186, 25032.47857480986, 0.058, 1.018, 0.148, 192.0, 0.0, 0.0, 0.0, 0.0, 0.0, 0.0, 0.0, 0.0, 0.0, 1.7074738072582378E9, 0.0, 2024-02-09 11:16:47.258
184.0, -25342.899601805166, -27505.520284833943, 5181.849620562747, -8454.301471030889, 39070.603438687736, 9518.020989658951, 24187.470875676976, -3211.878622994259, 13774.776610705449, -2584.3981009004237, 37056.934780709125, 23093.37533633415, 34981.35179058931, 25235.253600508404, 24482.69271644267, 24819.06411875059, 0.058, 1.018, 0.148, 192.0, 0.0, 0.0, 0.0, 0.0, 0.0, 0.0, 0.0, 0.0, 0.0, 1.7074738072672195E9, 0.0, 2024-02-09 11:16:47.267
186.0, -25273.788007949355, -27459.05100811136, 5219.512309969939, -8476.67556723065, 39492.6714292373, 9597.146165030737, 24404.01457595999, -3067.218132879512, 13986.760555119581, -2527.5129112616673, 37296.433722547736, 23185.844503145756, 35124.492362081095, 25361.65271540317, 24606.990767358635, 24865.578098962083, 0.058, 1.018, 0.148, 192.0, 0.0, 0.0, 0.0, 0.0, 0.0, 0.0, 0.0, 0.0, 0.0, 1.707473807275271E9, 0.0, 2024-02-09 11:16:47.275
188.0, -25357.83056710131, -27510.05768895837, 5161.062498219311, -8444.936090104115, 39147.60519833627, 9520.345571082304, 24206.179285786067, -3203.675532779161, 13956.250423938087, -2551.69749876231, 37397.21773829672, 23156.58606965376, 35390.12049318796, 25382.082209835316, 24669.709762300226, 25000.180304071942, 0.058, 1.018, 0.148, 192.0, 0.0, 0.0, 0.0, 0.0, 0.0, 0.0, 0.0, 0.0, 0.0, 1.7074738072822225E9, 0.0, 2024-02-09 11:16:47.282
190.0, -25283.734534231968, -27455.027694109405, 5222.865071638235, -8455.575520464841, 39292.22098496211, 9579.331824699859, 24303.074097999826, -3133.1557790226675, 13804.236209897545, -2564.9520832243065, 37010.89018713119, 23125.96417974999, 34811.07620132878, 25215.002920031897, 24461.212690021122, 24733.88162063141, 0.066, 1.014, 0.14, 192.0, 1.0, 8.0, 15.5, 88.0, 2.0, 48.0, 0.0, 0.0, 0.0, 1.7074738072903302E9, 0.0, 2024-02-09 11:16:47.290
192.0, -25315.071679958306, -27482.67680200062, 5198.524021926406, -8456.313128031865, 39422.21873071417, 9584.539781157944, 24343.642514186206, -3080.0033307079475, 14097.960483784735, -2514.817120411053, 37554.08228088406, 23215.661730249136, 35488.378761813496, 25478.19471099314, 24757.1944900983, 25038.893525468535, 0.066, 1.014, 0.14, 192.0, 0.0, 0.0, 0.0, 0.0, 0.0, 0.0, 0.0, 0.0, 0.0, 1.7074738072995512E9, 0.0, 2024-02-09 11:16:47.299
194.0, -25341.44673841557, -27494.21030213956, 5184.330664197286, -8440.845720868792, 39078.471252736, 9536.327068367847, 24192.142390268134, -3202.066207178379, 13794.356738848299, -2575.4126996293903, 37075.57613558485, 23107.747508018914, 34978.58017427685, 25247.61411519219, 24502.831638196905, 24831.49168866774, 0.066, 1.014, 0.14, 192.0, 0.0, 0.0, 0.0, 0.0, 0.0, 0.0, 0.0, 0.0, 0.0, 1.7074738073063338E9, 0.0, 2024-02-09 11:16:47.306
196.0, -25268.825920680276, -27448.500984728456, 5219.713475670037, -8469.500657260496, 39502.416789819814, 9598.062586553406, 24398.62780554626, -3075.108298672235, 13999.29988375901, -2529.233995584726, 37301.50756853909, 23191.097163092752, 35117.786838744505, 25368.35823873976, 24617.473735508174, 24868.036790852166, 0.066, 1.014, 0.14, 192.0, 0.0, 0.0, 0.0, 0.0, 0.0, 0.0, 0.0, 0.0, 0.0, 1.707473807314276E9, 0.0, 2024-02-09 11:16:47.314
198.0, -25357.29412523438, -27508.470715102045, 5165.957530255024, -8443.662040670162, 39157.015282751956, 9521.55256528289, 24215.477611479477, -3205.9554107136028, 13970.644947367306, -2556.1901993978263, 37407.92422389081, 23156.92134582059, 35395.50726360169, 25395.336794297316, 24669.530948344585, 24997.296929037206, 0.066, 1.014, 0.14, 192.0, 0.0, 0.0, 0.0, 0.0, 0.0, 0.0, 0.0, 0.0, 0.0, 1.707473807323298E9, 0.0, 2024-02-09 11:16:47.323
200.0, -25285.63443251067, -27456.301743543358, 5220.004048347956, -8460.202331567089, 39287.08008373738, 9585.880885825263, 24310.00313878097, -3121.7340376060056, 13814.987398980547, -2571.814068772086, 37012.23129179851, 23127.640560584136, 34805.33180300377, 25222.08842302423, 24467.76175114653, 24739.737777678703, 0.08, 1.018, 0.14400000000000002, 192.0, 1.0, 64.0, 15.5, 104.0, 2.0, 64.0, 0.0, 0.0, 0.0, 1.7074738073313513E9, 0.0, 2024-02-09 11:16:47.331
202.0, -25315.026976469395, -27480.01694441044, 5190.991484044967, -8457.229549554533, 39418.955376023696, 9581.052909022917, 24355.28777304742, -3099.114072217235, 14101.000321030657, -2528.4069810398796, 37552.115327372, 23209.78322145739, 35486.88119493499, 25472.293850456936, 24750.466615017252, 25036.166612644985, 0.08, 1.018, 0.14400000000000002, 192.0, 0.0, 0.0, 0.0, 0.0, 0.0, 0.0, 0.0, 0.0, 0.0, 1.7074738073383465E9, 0.0, 2024-02-09 11:16:47.338
204.0, -25339.05510175885, -27493.673860272633, 5184.308312452831, -8440.62220342424, 39066.49071770796, 9535.768274756465, 24177.07731450526, -3203.675532779161, 13799.162363906189, -2589.6731125918764, 37082.84045253282, 23108.149839419108, 34987.36440984779, 25232.303170240306, 24499.523580017518, 24829.457679922307, 0.08, 1.018, 0.14400000000000002, 192.0, 0.0, 0.0, 0.0, 0.0, 0.0, 0.0, 0.0, 0.0, 0.0, 1.7074738073464885E9, 0.0, 2024-02-09 11:16:47.346
206.0, -25266.210766579006, -27445.394092249167, 5217.008914590945, -8475.334462563333, 39490.48095828068, 9599.80602262092, 24392.794000243426, -3081.7020632865506, 14003.323197760965, -2539.8063707120864, 37307.4531325642, 23191.05245960384, 35109.404934573766, 25355.43893044459, 24617.384328530352, 24863.566441961106, 0.08, 1.018, 0.14400000000000002, 192.0, 0.0, 0.0, 0.0, 0.0, 0.0, 0.0, 0.0, 0.0, 0.0, 1.7074738073553352E9, 0.0, 2024-02-09 11:16:47.355
208.0, -25353.49432867698, -27504.26858714445, 5156.390983628152, -8451.574558207341, 39138.79861102088, 9510.779024455433, 24186.93443381005, -3220.8640242652923, 13979.697403871705, -2561.1522866669043, 37412.66279371534, 23154.194432997043, 35399.88820551494, 25397.63902397621, 24670.514425100617, 24999.800324416203, 0.08, 1.018, 0.14400000000000002, 192.0, 0.0, 0.0, 0.0, 0.0, 0.0, 0.0, 0.0, 0.0, 0.0, 1.7074738073623693E9, 0.0, 2024-02-09 11:16:47.362
210.0, -25279.48770278546, -27452.05491209685, 5221.881594882202, -8461.319918789855, 39265.085967193365, 9581.097612511827, 24280.834112266795, -3145.493941961997, 13815.97087573658, -2583.4369758888456, 37009.951413864066, 23115.503563344904, 34794.75942787641, 25215.919341554563, 24448.069864281402, 24722.884562359402, 0.084, 1.024, 0.148, 192.0, 1.0, 80.0, 16.0, 0.0, 2.0, 80.0, 0.0, 0.0, 0.0, 1.7074738073703933E9, 0.0, 2024-02-09 11:16:47.370
212.0, -25299.71603151751, -27466.136511103694, 5199.351036471252, -8454.547340219897, 39408.94179450772, 9581.99168229004, 24343.083720574825, -3113.5756508798186, 14109.136356012388, -2523.5343007486226, 37561.48070829877, 23211.146677869165, 35479.63922973147, 25477.166530748193, 24752.344161551497, 25036.412481833995, 0.084, 1.024, 0.148, 192.0, 0.0, 0.0, 0.0, 0.0, 0.0, 0.0, 0.0, 0.0, 0.0, 1.7074738073784213E9, 0.0, 2024-02-09 11:16:47.378
214.0, -25330.069700487817, -27480.486331044, 5184.911809553124, -8441.493921457997, 39045.68124362007, 9520.79260597141, 24153.339761893723, -3241.9864227755575, 13794.043814425924, -2588.577877113566, 37088.36133341328, 23100.594949793216, 34988.0573139259, 25242.517917456382, 24491.722821202617, 24819.06411875059, 0.084, 1.024, 0.148, 192.0, 0.0, 0.0, 0.0, 0.0, 0.0, 0.0, 0.0, 0.0, 0.0, 1.7074738073864083E9, 0.0, 2024-02-09 11:16:47.386
216.0, -25255.37017051818, -27432.631246165187, 5232.118693842733, -8458.704764688584, 39481.383798287374, 9604.723406401088, 24410.653044063216, -3087.111185444735, 14003.680825672249, -2525.7918269386087, 37308.63777502034, 23194.49462824996, 35107.05800140596, 25376.293108021393, 24615.68559595175, 24852.68114241137, 0.084, 1.024, 0.148, 192.0, 0.0, 0.0, 0.0, 0.0, 0.0, 0.0, 0.0, 0.0, 0.0, 1.707473807394838E9, 0.0, 2024-02-09 11:16:47.394
218.0, -25344.01718902793, -27484.44258981259, 5174.987635014968, -8431.837967853304, 39142.55370408937, 9535.03066718944, 24214.605893445718, -3197.3052856093987, 13983.05016554, -2553.105658662994, 37431.55001778007, 23163.269241245896, 35405.52084511767, 25411.072422393852, 24686.540625875074, 25003.466010506872, 0.084, 1.024, 0.148, 192.0, 0.0, 0.0, 0.0, 0.0, 0.0, 0.0, 0.0, 0.0, 0.0, 1.7074738074024055E9, 0.0, 2024-02-09 11:16:47.402
220.0, -25271.28461257036, -27421.768298359908, 5225.279060039408, -8445.450180226586, 39256.279379877975, 9587.84783933733, 24293.57460660632, -3143.6163954277513, 13824.933925263158, -2568.975397226262, 37025.329414049316, 23128.556982106806, 34801.867282613195, 25233.934847585544, 24466.107722056833, 24734.663931687348, 0.08600000000000001, 1.02, 0.154, 192.0, 1.0, 88.0, 15.5, 112.0, 2.0, 104.0, 0.0, 0.0, 0.0, 1.707473807411458E9, 0.0, 2024-02-09 11:16:47.411
222.0, -25294.23985412596, -27433.927647343597, 5204.938972585079, -8444.891386615203, 39421.36936442487, 9589.010130049006, 24353.969020124558, -3113.083912501802, 14117.540611927583, -2516.538204734112, 37569.504984558225, 23218.16512562813, 35479.05808437563, 25486.28604248596, 24759.295554077096, 25031.606856776103, 0.08600000000000001, 1.02, 0.154, 192.0, 0.0, 0.0, 0.0, 0.0, 0.0, 0.0, 0.0, 0.0, 0.0, 1.7074738074184828E9, 0.0, 2024-02-09 11:16:47.418
224.0, -25333.66833134512, -27460.369761034224, 5187.728129354493, -8439.236395268012, 39058.645255404146, 9530.605021787289, 24150.25522115889, -3247.8872833117584, 13806.58314306535, -2582.878182277463, 37102.33117369785, 23107.881618485644, 34990.761875004995, 25237.980513331953, 24510.02889991151, 24822.95332228581, 0.08600000000000001, 1.02, 0.154, 192.0, 0.0, 0.0, 0.0, 0.0, 0.0, 0.0, 0.0, 0.0, 0.0, 1.7074738074265049E9, 0.0, 2024-02-09 11:16:47.426
226.0, -25260.488719998448, -27411.33003369928, 5233.146874087676, -8465.902026403193, 39486.50234776764, 9610.780729148475, 24371.984526155535, -3082.216153409023, 13994.24838951211, -2545.5507690371, 37297.59601325941, 23179.429552487083, 35101.224196103125, 25362.993820070486, 24606.119049324876, 24846.668523152894, 0.08600000000000001, 1.02, 0.154, 192.0, 0.0, 0.0, 0.0, 0.0, 0.0, 0.0, 0.0, 0.0, 0.0, 1.7074738074344852E9, 0.0, 2024-02-09 11:16:47.434
228.0, -25342.34080819378, -27463.119025602227, 5179.88266705068, -8435.704819644072, 39151.00266349348, 9541.669135292666, 24192.432962946055, -3191.0915006508235, 13994.002520323102, -2550.4681528172678, 37438.41200332785, 23162.196357512043, 35420.78708658065, 25402.914035667665, 24692.9779282782, 25012.63022573355, 0.08600000000000001, 1.02, 0.154, 192.0, 0.0, 0.0, 0.0, 0.0, 0.0, 0.0, 0.0, 0.0, 0.0, 1.7074738074424868E9, 0.0, 2024-02-09 11:16:47.442
230.0, -25273.22921433797, -27415.822734334797, 5226.329592028808, -8461.163456578668, 39260.34739736884, 9580.427060178168, 24272.13928367368, -3146.8573983737706, 13817.69196005964, -2573.1104699504936, 37015.65110870017, 23119.99626398042, 34801.21908202399, 25229.84447835022, 24459.446902209154, 24722.19165828129, 0.076, 1.018, 0.156, 192.0, 1.0, 48.0, 15.5, 104.0, 2.0, 112.0, 0.0, 0.0, 0.0, 1.7074738074507897E9, 0.0, 2024-02-09 11:16:47.450
232.0, -25299.58192105078, -27434.39703397716, 5200.245106249465, -8461.074049600846, 39418.66480334578, 9584.360967202303, 24344.38012175323, -3104.4114356531427, 14110.879792079902, -2524.428370526835, 37548.40493779242, 23204.64232023267, 35460.68495043337, 25476.361867947802, 24757.038027887113, 25010.52916175475, 0.076, 1.018, 0.156, 192.0, 0.0, 0.0, 0.0, 0.0, 0.0, 0.0, 0.0, 0.0, 0.0, 1.707473807458474E9, 0.0, 2024-02-09 11:16:47.458
234.0, -25334.093014489772, -27456.14528133217, 5182.430765918585, -8443.304412758876, 39049.72690936648, 9534.874204978252, 24158.16773869607, -3210.9174979826807, 13801.375186607265, -2595.4398626613456, 37085.14268221172, 23093.8000194788, 34977.97667717656, 25243.03200757885, 24510.632397011806, 24817.074813494066, 0.076, 1.018, 0.156, 192.0, 0.0, 0.0, 0.0, 0.0, 0.0, 0.0, 0.0, 0.0, 0.0, 1.7074738074675283E9, 0.0, 2024-02-09 11:16:47.467
236.0, -25253.269106539385, -27403.350460928734, 5223.446216994073, -8464.806790924882, 39474.09712959494, 9611.272467526493, 24384.68031700615, -3061.339624087766, 13997.891723858325, -2536.3418503215134, 37284.87787066434, 23184.72691592299, 35068.05420733144, 25355.595392655778, 24603.59330220143, 24832.63162763496, 0.076, 1.018, 0.156, 192.0, 0.0, 0.0, 0.0, 0.0, 0.0, 0.0, 0.0, 0.0, 0.0, 1.7074738074745035E9, 0.0, 2024-02-09 11:16:47.474
238.0, -25339.524488392413, -27460.23565056749, 5166.181047699577, -8440.53279644642, 39147.918122758645, 9524.435940317624, 24197.327994981766, -3187.8504977048037, 13991.633235410838, -2555.966681953273, 37425.24682584367, 23155.759055108912, 35386.924193730854, 25404.679823479633, 24686.317108430518, 24992.737173168323, 0.076, 1.018, 0.156, 192.0, 0.0, 0.0, 0.0, 0.0, 0.0, 0.0, 0.0, 0.0, 0.0, 1.7074738074825084E9, 0.0, 2024-02-09 11:16:47.482
240.0, -25276.738438217457, -27417.14148725766, 5214.147891300666, -8460.470552500552, 39251.764327498, 9567.932435027651, 24265.344353359265, -3141.470627960042, 13812.126375690268, -2575.3009409071137, 36997.009753824444, 23110.72029003147, 34784.03059053786, 25210.97960602994, 24455.26712599601, 24712.289835487587, 0.068, 1.016, 0.154, 192.0, 1.0, 16.0, 15.5, 96.0, 2.0, 104.0, 0.0, 0.0, 0.0, 1.7074738074905696E9, 0.0, 2024-02-09 11:16:47.490
242.0, -25288.406048823126, -27422.86353383822, 5201.0274173054, -8451.932186118625, 39424.31979469297, 9579.46593516659, 24345.095377575803, -3097.7729675499163, 14109.873963579414, -2521.3214780475473, 37542.28055981166, 23204.374099299206, 35464.596505713045, 25469.879862055765, 24751.628905728925, 25007.779897186745, 0.068, 1.016, 0.154, 192.0, 0.0, 0.0, 0.0, 0.0, 0.0, 0.0, 0.0, 0.0, 0.0, 1.7074738074985344E9, 0.0, 2024-02-09 11:16:47.498
244.0, -25324.973502752007, -27444.6788364266, 5183.771870585903, -8441.471569713542, 39058.75701412642, 9531.163815398671, 24157.988924740428, -3216.617192818784, 13811.902858245714, -2584.2192869447813, 37092.80933055989, 23104.953539962, 34998.85320649781, 25242.67437966757, 24513.269902857533, 24817.56655187208, 0.068, 1.016, 0.154, 192.0, 0.0, 0.0, 0.0, 0.0, 0.0, 0.0, 0.0, 0.0, 0.0, 1.7074738075067928E9, 0.0, 2024-02-09 11:16:47.506
246.0, -25243.009655834398, -27391.392277645147, 5234.353868288264, -8460.716421689562, 39499.75693222963, 9614.245249539048, 24415.861000521305, -3059.953815931537, 13999.746918648116, -2530.0610101295724, 37282.48623400763, 23185.53157872338, 35087.433169774195, 25361.138625280695, 24615.93146514076, 24843.852203351522, 0.068, 1.016, 0.154, 192.0, 0.0, 0.0, 0.0, 0.0, 0.0, 0.0, 0.0, 0.0, 0.0, 1.707473807514547E9, 0.0, 2024-02-09 11:16:47.514
248.0, -25330.33792142128, -27454.53595573139, 5180.441460662063, -8430.899194586182, 39175.79074809441, 9540.17156841416, 24222.45135574953, -3192.7902332294266, 13998.919904103268, -2544.254367858692, 37431.6841282468, 23164.78915986886, 35414.01450801069, 25424.50582081149, 24704.243207483676, 25005.9023506525, 0.068, 1.016, 0.154, 192.0, 0.0, 0.0, 0.0, 0.0, 0.0, 0.0, 0.0, 0.0, 0.0, 1.7074738075236137E9, 0.0, 2024-02-09 11:16:47.523
250.0, -25271.128150359174, -27415.04042327886, 5232.409266520652, -8447.461837227564, 39271.791490529955, 9585.366795702792, 24295.027469995915, -3138.0508110583796, 13812.953390235114, -2570.1823914268484, 37000.80955038185, 23122.410252381596, 34799.475645956474, 25229.41979520557, 24479.205844307646, 24733.591047953494, 0.074, 1.018, 0.154, 192.0, 1.0, 40.0, 15.5, 104.0, 2.0, 104.0, 0.0, 0.0, 0.0, 1.7074738075295799E9, 0.0, 2024-02-09 11:16:47.529
252.0, -25292.541121547358, -27436.85572586724, 5202.860260350735, -8453.250939041489, 39434.08750701994, 9583.13162125726, 24358.707589949085, -3099.4493483840643, 14113.405539203352, -2525.9929926387063, 37536.84908590902, 23209.805573201844, 35471.793767427655, 25482.195673250637, 24766.20224311379, 25020.788612459735, 0.074, 1.018, 0.154, 192.0, 0.0, 0.0, 0.0, 0.0, 0.0, 0.0, 0.0, 0.0, 0.0, 1.707473807538627E9, 0.0, 2024-02-09 11:16:47.538
254.0, -25325.353482407747, -27454.08892084228, 5190.164469500121, -8427.993467806991, 39067.63065667518, 9549.6040045743, 24176.25029996041, -3180.586180756829, 13815.25561991401, -2586.4768131347673, 37086.23791769003, 23108.395708608117, 35004.396439122735, 25256.957144374508, 24521.80826923946, 24831.558743901103, 0.074, 1.018, 0.154, 192.0, 0.0, 0.0, 0.0, 0.0, 0.0, 0.0, 0.0, 0.0, 0.0, 1.70747380754664E9, 0.0, 2024-02-09 11:16:47.546
0.0, -25252.486795483448, -27409.363080187213, 5232.878653154213, -8460.694069945106, 39498.72875198469, 9621.956601376129, 24399.901854980213, -3046.2521965804335, 13996.952950591201, -2533.7043444757874, 37274.797233915, 23192.281805548886, 35095.92683266722, 25368.87232886223, 24615.596188973926, 24848.00962782021, 0.074, 1.018, 0.154, 192.0, 0.0, 0.0, 0.0, 0.0, 0.0, 0.0, 0.0, 0.0, 0.0, 1.7074738075546627E9, 0.0, 2024-02-09 11:16:47.554
2.0, -25337.423424413613, -27470.271583827925, 5172.305425680331, -8437.627069667229, 39179.165861507165, 9539.098684680306, 24227.525201740886, -3170.5502474963964, 13998.383462236341, -2552.032774929139, 37428.778401467614, 23166.39848546964, 35443.58586592506, 25409.954835171087, 24701.091611515476, 25003.600120973602, 0.074, 1.018, 0.154, 192.0, 0.0, 0.0, 0.0, 0.0, 0.0, 0.0, 0.0, 0.0, 0.0, 1.7074738075628693E9, 0.0, 2024-02-09 11:16:47.562
4.0, -25267.015429379397, -27423.556437916333, 5215.310182012342, -8449.652308184184, 39271.88089750778, 9586.618493392289, 24291.00415599396, -3130.1829970101116, 13813.914515246692, -2577.066728719083, 36991.37711422171, 23123.23726692644, 34816.08299208677, 25212.968911286465, 24465.101893556344, 24718.771841379625, 0.078, 1.024, 0.154, 192.0, 1.0, 56.0, 16.0, 0.0, 2.0, 104.0, 0.0, 0.0, 0.0, 1.7074738075706632E9, 0.0, 2024-02-09 11:16:47.570
6.0, -25284.226272609983, -27441.974275347508, 5193.584286401783, -8453.474456486041, 39448.169106026784, 9585.52325791398, 24367.111845864278, -3093.4590808700423, 14115.46189969324, -2513.7442366771984, 37537.407879520404, 23228.9833699445, 35485.160110611934, 25488.02947855347, 24759.452016288284, 25016.56413275768, 0.078, 1.024, 0.154, 192.0, 0.0, 0.0, 0.0, 0.0, 0.0, 0.0, 0.0, 0.0, 0.0, 1.7074738075786512E9, 0.0, 2024-02-09 11:16:47.578
8.0, -25321.307816661338, -27464.616592480732, 5180.329701939786, -8439.99635457949, 39078.135976569174, 9532.929603210641, 24183.805189586306, -3217.06422770789, 13811.880506501258, -2580.8218217875747, 37081.56640309887, 23114.318920888774, 35031.15147723573, 25260.53342348736, 24522.14354540629, 24827.58013338806, 0.078, 1.024, 0.154, 192.0, 0.0, 0.0, 0.0, 0.0, 0.0, 0.0, 0.0, 0.0, 0.0, 1.7074738075856977E9, 0.0, 2024-02-09 11:16:47.585
10.0, -25243.076711067763, -27414.81690583431, 5227.000144362467, -8468.204256082088, 39504.96488868772, 9603.650522667233, 24412.955273742115, -3081.7020632865506, 13996.86354361338, -2530.3962862964017, 37265.45420473268, 23198.69675620756, 35113.07062066443, 25374.16969229814, 24620.535924498552, 24843.986313818255, 0.078, 1.024, 0.154, 192.0, 0.0, 0.0, 0.0, 0.0, 0.0, 0.0, 0.0, 0.0, 0.0, 1.707473807594736E9, 0.0, 2024-02-09 11:16:47.594
12.0, -25330.516735376925, -27477.20062460907, 5157.217998172999, -8442.566805191851, 39181.199870252596, 9530.985001443029, 24218.383338258667, -3211.297477638421, 14003.323197760965, -2542.913263191374, 37435.8862562044, 23180.9718228545, 35460.282619033176, 25418.962588186576, 24706.836009840492, 25006.1035163526, 0.078, 1.024, 0.154, 192.0, 0.0, 0.0, 0.0, 0.0, 0.0, 0.0, 0.0, 0.0, 0.0, 1.707473807602765E9, 0.0, 2024-02-09 11:16:47.602
14.0, -25265.070827611784, -27432.96652233202, 5210.951591843556, -8451.507502973975, 39263.610752059314, 9581.656406123211, 24284.99153673548, -3142.744677393994, 13809.935904733647, -2571.0764612050607, 36993.70169564506, 23135.10604323221, 34828.13058234818, 25233.04077780733, 24467.806454635436, 24727.84664962848, 0.076, 1.02, 0.156, 192.0, 1.0, 48.0, 15.5, 112.0, 2.0, 112.0, 0.0, 0.0, 0.0, 1.7074738076107304E9, 0.0, 2024-02-09 11:16:47.610
16.0, -25286.349688333237, -27453.351313275256, 5195.662998636127, -8462.124581590246, 39443.29642573553, 9572.782763574454, 24368.0506191314, -3118.8059590823605, 14115.014864804134, -2515.241803555704, 37534.90448414141, 23229.609218789246, 35489.74221822527, 25491.18107452167, 24754.2440598302, 25002.661347706482, 0.076, 1.02, 0.156, 192.0, 0.0, 0.0, 0.0, 0.0, 0.0, 0.0, 0.0, 0.0, 0.0, 1.7074738076179488E9, 0.0, 2024-02-09 11:16:47.617
18.0, -25324.81704054082, -27473.758455962954, 5183.749518841448, -8445.606642437773, 39066.51306945242, 9534.807149744887, 24172.651669103107, -3201.373303100265, 13817.937829248647, -2579.41366188689, 37096.60912711729, 23121.20325818101, 35038.77342209499, 25264.601440978226, 24520.80244073897, 24823.646226363926, 0.076, 1.02, 0.156, 192.0, 0.0, 0.0, 0.0, 0.0, 0.0, 0.0, 0.0, 0.0, 0.0, 1.7074738076269207E9, 0.0, 2024-02-09 11:16:47.626
20.0, -25250.05045533782, -27422.885885582673, 5227.044847851378, -8476.854381186293, 39495.68891473877, 9609.506679714523, 24411.234189419054, -3065.184124134079, 13992.460249955684, -2532.1844258528267, 37262.593181442404, 23194.315814294318, 35098.497283279576, 25368.738218395498, 24608.28716853704, 24834.419767191383, 0.076, 1.02, 0.156, 192.0, 0.0, 0.0, 0.0, 0.0, 0.0, 0.0, 0.0, 0.0, 0.0, 1.7074738076338043E9, 0.0, 2024-02-09 11:16:47.633
22.0, -25339.703302348054, -27487.482427058512, 5161.375422641686, -8453.183883808122, 39177.44477718411, 9525.039437417918, 24228.776899430384, -3203.96610545708, 14001.222133782165, -2548.9258824498515, 37432.89112244739, 23174.288651262363, 35464.37298826849, 25406.758535713976, 24700.80103883756, 25003.354251784596, 0.076, 1.02, 0.156, 192.0, 0.0, 0.0, 0.0, 0.0, 0.0, 0.0, 0.0, 0.0, 0.0, 1.7074738076418028E9, 0.0, 2024-02-09 11:16:47.641
24.0, -25271.038743381352, -27435.939304344574, 5210.303391254352, -8466.237302570022, 39247.450440818124, 9565.205522204104, 24287.22671118101, -3169.812639929371, 13814.249791413522, -2574.9880164847395, 36985.72212287452, 23128.355816406707, 34824.151971835134, 25219.6520828786, 24445.94644855815, 24702.79034409408, 0.08199999999999999, 1.017, 0.155, 192.0, 1.0, 96.0, 15.5, 88.0, 2.0, 104.0, 0.0, 0.0, 0.0, 1.7074738076512172E9, 0.0, 2024-02-09 11:16:47.651
26.0, -25284.740362732457, -27444.276505026402, 5201.765024872426, -8462.638671712717, 39439.54133266704, 9575.934359542653, 24378.511235536487, -3106.9595345210478, 14118.546440428072, -2512.7384081767095, 37537.49728649823, 23229.273942622418, 35497.0288869177, 25484.632013396265, 24745.482176003716, 24996.55932147018, 0.08199999999999999, 1.017, 0.155, 192.0, 0.0, 0.0, 0.0, 0.0, 0.0, 0.0, 0.0, 0.0, 0.0, 1.7074738076588225E9, 0.0, 2024-02-09 11:16:47.658
28.0, -25328.30391267585, -27469.735141961, 5181.9390275405685, -8445.472531971041, 39065.551944440835, 9527.006390929984, 24192.812942601795, -3223.099198710823, 13817.06611121489, -2576.84321127453, 37098.08434225134, 23124.310150660294, 35053.056186801936, 25267.14953984613, 24514.119269146835, 24826.216676976288, 0.08199999999999999, 1.017, 0.155, 192.0, 0.0, 0.0, 0.0, 0.0, 0.0, 0.0, 0.0, 0.0, 0.0, 1.7074738076658344E9, 0.0, 2024-02-09 11:16:47.665
30.0, -25254.34199027324, -27424.562266416822, 5217.545356457872, -8478.642520742718, 39483.23899307716, 9595.201563263126, 24404.4616108491, -3090.396891879665, 13987.0511277975, -2533.5702340090556, 37249.18213476922, 23198.54029399637, 35095.92683266722, 25362.792654370387, 24594.92082535277, 24831.625799134472, 0.08199999999999999, 1.017, 0.155, 192.0, 0.0, 0.0, 0.0, 0.0, 0.0, 0.0, 0.0, 0.0, 0.0, 1.707473807673854E9, 0.0, 2024-02-09 11:16:47.673
32.0, -25332.43898540008, -27472.86438618474, 5166.337509910763, -8441.00218307998, 39173.712035860066, 9538.830463746843, 24230.587390731263, -3196.5453262979186, 14004.083157072444, -2548.009460927184, 37431.61707301343, 23184.63750894517, 35459.74617716625, 25420.84013472082, 24687.25588169764, 25006.32703379715, 0.08199999999999999, 1.017, 0.155, 192.0, 0.0, 0.0, 0.0, 0.0, 0.0, 0.0, 0.0, 0.0, 0.0, 1.707473807682872E9, 0.0, 2024-02-09 11:16:47.682
34.0, -25271.083446870263, -27430.70899614203, 5213.902022111657, -8456.62605245424, 39241.013138415, 9584.383318946759, 24293.127571717214, -3164.8952561492038, 13809.131241933257, -2560.258216888692, 36984.582183907296, 23140.24694445693, 34815.568901964296, 25233.085481296243, 24441.36434094481, 24715.59789366697, 0.08299999999999999, 1.0154999999999998, 0.1525, 192.0, 1.0, 80.0, 15.5, 88.0, 2.0, 88.0, 0.0, 0.0, 0.0, 1.7074738076900043E9, 0.0, 2024-02-09 11:16:47.690
36.0, -25287.28846160036, -27447.405749250145, 5198.278152737397, -8460.33644203382, 39429.930082551255, 9585.925589314174, 24371.001049399503, -3095.783662293394, 14105.873001321914, -2505.563498206556, 37529.76358291669, 23233.69958802457, 35479.05808437563, 25490.219949510094, 24740.27421954563, 25010.23858907683, 0.08299999999999999, 1.0154999999999998, 0.1525, 192.0, 0.0, 0.0, 0.0, 0.0, 0.0, 0.0, 0.0, 0.0, 0.0, 1.707473807697897E9, 0.0, 2024-02-09 11:16:47.697
38.0, -25332.617799355725, -27476.842996697786, 5187.571667143306, -8444.176130792634, 39046.8658860762, 9522.491338550013, 24188.700221622017, -3233.0457249934348, 13809.243000655533, -2578.9442752533287, 37088.942478769124, 23123.61724658218, 35034.79481158195, 25260.064036853797, 24505.156219620254, 24829.658845622405, 0.08299999999999999, 1.0154999999999998, 0.1525, 192.0, 0.0, 0.0, 0.0, 0.0, 0.0, 0.0, 0.0, 0.0, 0.0, 1.7074738077068884E9, 0.0, 2024-02-09 11:16:47.706
40.0, -25257.113606585695, -27422.461202438022, 5229.0341531079, -8471.91464566167, 39464.329417267974, 9611.943019860151, 24407.859076006305, -3065.497048556453, 13981.150267261299, -2531.491521774712, 37243.37068121084, 23199.21084633003, 35069.618829443316, 25364.15611078216, 24585.980127570645, 24831.067005523088, 0.08299999999999999, 1.0154999999999998, 0.1525, 192.0, 0.0, 0.0, 0.0, 0.0, 0.0, 0.0, 0.0, 0.0, 0.0, 1.707473807714922E9, 0.0, 2024-02-09 11:16:47.714
42.0, -25347.571116396324, -27486.610709024753, 5155.183989427565, -8458.883578644227, 39156.232971696016, 9524.212422873072, 24224.239495305956, -3185.5929715148177, 13995.433031968241, -2543.5391120361223, 37431.281796846604, 23180.457732732026, 35442.53533393566, 25425.55635280089, 24682.204387450744, 25009.90331291, 0.08299999999999999, 1.0154999999999998, 0.1525, 192.0, 0.0, 0.0, 0.0, 0.0, 0.0, 0.0, 0.0, 0.0, 0.0, 1.7074738077219229E9, 0.0, 2024-02-09 11:16:47.721
44.0, -25282.23696735346, -27440.90139161365, 5208.336437742286, -8474.06041312938, 39228.78673419794, 9569.698222839621, 24295.943891518582, -3146.3209565068432, 13795.295512115421, -2575.0774234625605, 36970.21001222253, 23124.600723338215, 34798.156893033614, 25219.47326892296, 24425.069919236892, 24711.865152342936, 0.08349999999999999, 1.01575, 0.15325, 192.0, 1.0, 80.0, 15.5, 96.0, 2.0, 104.0, 0.0, 0.0, 0.0, 1.7074738077299328E9, 0.0, 2024-02-09 11:16:47.729
46.0, -25296.609139038224, -27452.61370570823, 5186.141155498166, -8475.312110818877, 39428.72308835066, 9572.84981880782, 24380.813465215382, -3094.844889026271, 14104.688358865782, -2520.0921321025053, 37514.676155409354, 23220.199134373564, 35459.500307977236, 25478.306469715415, 24720.18000128031, 24999.509751738282, 0.08349999999999999, 1.01575, 0.15325, 192.0, 0.0, 0.0, 0.0, 0.0, 0.0, 0.0, 0.0, 0.0, 0.0, 1.707473807738943E9, 0.0, 2024-02-09 11:16:47.738
48.0, -25336.685816846588, -27471.16565360614, 5170.226713445987, -8448.512369216964, 39040.048604017335, 9525.374713584748, 24183.000526785916, -3203.2508496345104, 13805.622018053773, -2585.4486328898233, 37089.233051447045, 23111.72611853196, 35041.05330002944, 25266.6130979792, 24489.55470199045, 24833.972732302278, 0.08349999999999999, 1.01575, 0.15325, 192.0, 0.0, 0.0, 0.0, 0.0, 0.0, 0.0, 0.0, 0.0, 0.0, 1.707473807745956E9, 0.0, 2024-02-09 11:16:47.745
50.0, -25247.256487280905, -27406.65851910812, 5231.492844997984, -8466.572578736852, 39464.41882424579, 9614.111139072316, 24402.092325936836, -3059.439725809065, 13974.981185791636, -2526.4400275278126, 37236.262826474056, 23195.45575326154, 35069.46236723213, 25364.5360904379, 24563.360162181874, 24828.85418282201, 0.08349999999999999, 1.01575, 0.15325, 192.0, 0.0, 0.0, 0.0, 0.0, 0.0, 0.0, 0.0, 0.0, 0.0, 1.7074738077540965E9, 0.0, 2024-02-09 11:16:47.754
52.0, -25335.948209279562, -27470.360990805744, 5169.153829712132, -8450.501674473486, 39167.45354741258, 9518.110396636772, 24223.859515650216, -3195.0924629083233, 14001.646816926816, -2530.820969441053, 37442.480020818715, 23186.939738624067, 35466.004665613735, 25443.862431509788, 24674.671849569306, 25004.404783773993, 0.08349999999999999, 1.01575, 0.15325, 192.0, 0.0, 0.0, 0.0, 0.0, 0.0, 0.0, 0.0, 0.0, 0.0, 1.7074738077619493E9, 0.0, 2024-02-09 11:16:47.761
54.0, -25278.660688240612, -27427.535048429378, 5222.261574537942, -8455.307299531378, 39229.18906559814, 9574.950882786618, 24266.618402793218, -3144.666927417151, 13793.596779536818, -2566.8519815030077, 36977.83195708179, 23134.77076706538, 34824.75546893543, 25231.051472550807, 24423.706462825117, 24707.663024385336, 0.07974999999999999, 1.014875, 0.152625, 192.0, 1.0, 48.0, 15.5, 88.0, 2.0, 96.0, 0.0, 0.0, 0.0, 1.707473807770967E9, 0.0, 2024-02-09 11:16:47.770
56.0, -25281.47700804198, -27431.647769409155, 5218.394722747174, -8449.182921550622, 39445.106917036406, 9594.151031273726, 24379.74058148153, -3077.9022667291483, 14113.852574092458, -2514.0571610995726, 37529.49536198322, 23233.543125813383, 35489.295183336166, 25495.070278056894, 24726.0361583276, 25008.04811812021, 0.07974999999999999, 1.014875, 0.152625, 192.0, 0.0, 0.0, 0.0, 0.0, 0.0, 0.0, 0.0, 0.0, 0.0, 1.707473807777986E9, 0.0, 2024-02-09 11:16:47.777
58.0, -25320.190229438573, -27453.574830719812, 5202.45792895054, -8431.279174241921, 39062.623865917194, 9542.585556815333, 24192.812942601795, -3187.112890137779, 13833.941678278647, -2568.3719001259688, 37121.21839776259, 23137.408272911107, 35070.04351258797, 25286.103819144228, 24511.50411504556, 24848.031979564665, 0.07974999999999999, 1.014875, 0.152625, 192.0, 0.0, 0.0, 0.0, 0.0, 0.0, 0.0, 0.0, 0.0, 0.0, 1.707473807785994E9, 0.0, 2024-02-09 11:16:47.785
60.0, -25247.792929147832, -27407.954920286527, 5243.763952703947, -8474.172171851656, 39485.518871011605, 9616.189851306659, 24425.718119826095, -3043.659394223618, 13991.074441799456, -2523.9366321488183, 37253.294855748994, 23207.391584800673, 35070.84817538836, 25367.508872450457, 24582.716772880172, 24835.135023013954, 0.07974999999999999, 1.014875, 0.152625, 192.0, 0.0, 0.0, 0.0, 0.0, 0.0, 0.0, 0.0, 0.0, 0.0, 1.7074738077950335E9, 0.0, 2024-02-09 11:16:47.795
62.0, -25344.95596229505, -27473.780807707408, 5169.958492512524, -8464.270349057955, 39181.110463274774, 9539.255146891493, 24241.80796644783, -3170.013805629469, 14003.189087294233, -2546.2883766041255, 37441.36243359595, 23177.35084025274, 35470.0726831046, 25426.383367345737, 24686.920605530813, 25012.719632711367, 0.07974999999999999, 1.014875, 0.152625, 192.0, 0.0, 0.0, 0.0, 0.0, 0.0, 0.0, 0.0, 0.0, 0.0, 1.70747380780206E9, 0.0, 2024-02-09 11:16:47.802
64.0, -25287.891958700653, -27433.81588862132, 5200.625085905205, -8472.67460497315, 39225.299862062915, 9582.505772412513, 24283.1810454346, -3141.6494419156843, 13791.24984636901, -2578.2737229196696, 36967.84072731027, 23121.58323783675, 34813.467837985496, 25219.115641011675, 24425.74047157055, 24712.26748374313, 0.077875, 1.0134375, 0.15631250000000002, 192.0, 1.0, 48.0, 15.5, 80.0, 2.5, 0.0, 0.0, 0.0, 0.0, 1.7074738078100455E9, 0.0, 2024-02-09 11:16:47.810
66.0, -25295.156275648627, -27439.739100901974, 5186.342321198264, -8469.791229938415, 39436.94853031022, 9597.257923753015, 24384.2556338615, -3089.145194190168, 14099.45805066324, -2521.2097193252707, 37515.257300765195, 23220.467355307028, 35463.99300861276, 25492.879807100275, 24720.001187324666, 25001.722574439358, 0.077875, 1.0134375, 0.15631250000000002, 192.0, 0.0, 0.0, 0.0, 0.0, 0.0, 0.0, 0.0, 0.0, 0.0, 1.7074738078181992E9, 0.0, 2024-02-09 11:16:47.818
68.0, -25335.367063923724, -27459.207470322548, 5174.562951870317, -8445.874863371237, 39049.1681157551, 9536.103550923295, 24185.839198331738, -3214.404370117709, 13807.566619821386, -2579.167792697882, 37102.35352544231, 23117.42581336806, 35061.1251665503, 25275.039705638854, 24501.825809696416, 24837.48195618176, 0.077875, 1.0134375, 0.15631250000000002, 192.0, 0.0, 0.0, 0.0, 0.0, 0.0, 0.0, 0.0, 0.0, 0.0, 1.70747380782735E9, 0.0, 2024-02-09 11:16:47.827
70.0, -25261.13692058765, -27414.772202345397, 5217.970039602523, -8478.240189342521, 39470.99023711565, 9607.405615735724, 24399.566578813385, -3070.1909148920677, 13970.264967711564, -2528.8316641845304, 37231.54660839398, 23188.034974102375, 35069.79764339896, 25355.662447889146, 24571.13856925232, 24823.48976415274, 0.077875, 1.0134375, 0.15631250000000002, 192.0, 0.0, 0.0, 0.0, 0.0, 0.0, 0.0, 0.0, 0.0, 0.0, 1.7074738078340857E9, 0.0, 2024-02-09 11:16:47.834
72.0, -25341.29027620438, -27466.695304715075, 5172.998329758445, -8445.919566860148, 39183.12212027575, 9537.489359079524, 24240.958600158527, -3178.529820266941, 14009.425223997263, -2543.874388202952, 37438.47905856121, 23176.25560477443, 35461.2213923003, 25441.89547799772, 24685.087762485477, 25013.792516445224, 0.077875, 1.0134375, 0.15631250000000002, 192.0, 0.0, 0.0, 0.0, 0.0, 0.0, 0.0, 0.0, 0.0, 0.0, 1.707473807842101E9, 0.0, 2024-02-09 11:16:47.842
74.0, -25275.598499250234, -27420.315434970315, 5226.329592028808, -8451.90983437417, 39220.85186491631, 9582.6622346237, 24267.75834176044, -3152.579444954329, 13806.49373608753, -2567.8354582590414, 36973.227497724, 23129.85338328521, 34819.32399503279, 25229.263332994382, 24434.725872841584, 24722.97396933722, 0.07593749999999999, 1.01271875, 0.15415625, 192.0, 1.0, 40.0, 15.5, 80.0, 2.0, 96.0, 0.0, 0.0, 0.0, 1.707473807850136E9, 0.0, 2024-02-09 11:16:47.850
76.0, -25294.91040645962, -27442.466013725523, 5203.083777795288, -8471.557017750385, 39438.80372510001, 9586.953769559119, 24362.172110339656, -3113.039209012891, 14114.545478170572, -2511.1737860648377, 37519.0570973226, 23225.004759431453, 35466.18347956937, 25490.398763465735, 24722.482230959205, 24997.274577292752, 0.07593749999999999, 1.01271875, 0.15415625, 192.0, 0.0, 0.0, 0.0, 0.0, 0.0, 0.0, 0.0, 0.0, 0.0, 1.7074738078581169E9, 0.0, 2024-02-09 11:16:47.858
78.0, -25333.936552278585, -27461.040313367885, 5193.651341635149, -8449.540549461908, 39057.63942690366, 9539.880995736241, 24196.45627694801, -3199.071073421368, 13824.397483396231, -2577.9160950083847, 37112.54592091393, 23114.47538309996, 35065.23788753008, 25272.491606770946, 24511.548818534473, 24835.716168369792, 0.07593749999999999, 1.01271875, 0.15415625, 192.0, 0.0, 0.0, 0.0, 0.0, 0.0, 0.0, 0.0, 0.0, 0.0, 1.7074738078661218E9, 0.0, 2024-02-09 11:16:47.866
80.0, -25251.078635582762, -27406.524408641388, 5234.867958410735, -8475.401517796698, 39480.6685424648, 9627.812758423419, 24434.569410630396, -3031.701210940029, 13984.011290551578, -2526.8200071835527, 37231.770125838535, 23188.996099113956, 35054.35258798034, 25358.188195012593, 24577.687630377728, 24819.9581885288, 0.07593749999999999, 1.01271875, 0.15415625, 192.0, 0.0, 0.0, 0.0, 0.0, 0.0, 0.0, 0.0, 0.0, 0.0, 1.7074738078741612E9, 0.0, 2024-02-09 11:16:47.874
82.0, -25338.071625002816, -27466.494139014976, 5155.608672572216, -8454.234415797522, 39192.733370391536, 9554.789609287931, 24251.50862354143, -3139.593081425796, 14023.462119515196, -2534.5090072761786, 37446.30216912057, 23177.663764675115, 35464.30593303513, 25433.111242426785, 24690.966271277222, 25013.837219934136, 0.07593749999999999, 1.01271875, 0.15415625, 192.0, 0.0, 0.0, 0.0, 0.0, 0.0, 0.0, 0.0, 0.0, 0.0, 1.7074738078823411E9, 0.0, 2024-02-09 11:16:47.882
84.0, -25280.04649639684, -27422.43885069357, 5201.8991353391575, -8464.404459524687, 39227.24446383053, 9583.936284057652, 24287.47258037002, -3130.9653080660473, 13802.984512208048, -2566.5167053361783, 36966.63373310968, 23121.24796166992, 34795.07235229878, 25213.639463620122, 24423.527648869473, 24719.911780346847, 0.07696875, 1.010359375, 0.151078125, 192.0, 1.0, 56.0, 15.5, 64.0, 2.0, 80.0, 0.0, 0.0, 0.0, 1.7074738078903165E9, 0.0, 2024-02-09 11:16:47.890
86.0, -25280.828807452777, -27428.63028390769, 5197.585248659283, -8462.48220950153, 39458.27209452058, 9598.308455742414, 24392.68224152115, -3077.566990562319, 14110.902143824356, -2506.390512751402, 37506.2048442608, 23225.988236187488, 35450.02316832819, 25469.32106844438, 24717.341329734485, 24997.319280781663, 0.07696875, 1.010359375, 0.151078125, 192.0, 0.0, 0.0, 0.0, 0.0, 0.0, 0.0, 0.0, 0.0, 0.0, 1.707473807898276E9, 0.0, 2024-02-09 11:16:47.898
88.0, -25331.34374992177, -27463.499005257967, 5171.232541946476, -8445.517235459953, 39054.040796046356, 9541.043286447917, 24185.54862565382, -3211.4092363606974, 13827.839652042348, -2567.4107751143906, 37100.967717286076, 23123.43843262654, 35062.66743691772, 25274.30209807183, 24499.076545128413, 24837.951342815322, 0.07696875, 1.010359375, 0.151078125, 192.0, 0.0, 0.0, 0.0, 0.0, 0.0, 0.0, 0.0, 0.0, 0.0, 1.7074738079061856E9, 0.0, 2024-02-09 11:16:47.906
90.0, -25250.296324526826, -27412.671138366597, 5224.586155961294, -8472.093459617312, 39471.750196427136, 9622.76126417652, 24405.86977074978, -3062.077231654791, 13973.90830205778, -2530.0163066406617, 37213.531102363006, 23189.44313400306, 35039.354567450835, 25355.327171722314, 24554.10653997738, 24819.600560617517, 0.07696875, 1.010359375, 0.151078125, 192.0, 0.0, 0.0, 0.0, 0.0, 0.0, 0.0, 0.0, 0.0, 0.0, 1.707473807913198E9, 0.0, 2024-02-09 11:16:47.913
92.0, -25327.074566730807, -27457.888717399685, 5183.8836293081795, -8439.728133646027, 39197.18136753814, 9552.733248798044, 24252.156824130634, -3168.516238750963, 14028.245392828632, -2532.229129341737, 37450.50429707817, 23187.87851189119, 35455.856973631024, 25438.028626206953, 24681.578538605994, 25014.552475756704, 0.07696875, 1.010359375, 0.151078125, 192.0, 0.0, 0.0, 0.0, 0.0, 0.0, 0.0, 0.0, 0.0, 0.0, 1.7074738079222405E9, 0.0, 2024-02-09 11:16:47.922
94.0, -25278.548929518336, -27423.601141405245, 5232.342211287286, -8462.303395545889, 39230.060783631896, 9571.218141462581, 24284.90212975766, -3163.5094479929744, 13811.92520999017, -2563.9462547238177, 36968.60068662175, 23135.39661591013, 34791.78664586385, 25213.28183570884, 24431.30605593992, 24714.74852737767, 0.074484375, 1.0131796875, 0.1515390625, 192.0, 1.0, 32.0, 15.5, 96.0, 2.0, 96.0, 0.0, 0.0, 0.0, 1.70747380793027E9, 0.0, 2024-02-09 11:16:47.930
96.0, -25285.99206042195, -27432.29596999836, 5208.22467902001, -8470.282968316433, 39451.56657118399, 9593.726348129076, 24380.232319859544, -3099.695217573073, 14122.636809663392, -2508.201004052282, 37503.94731807081, 23229.005721688955, 35438.735537378256, 25478.641745882243, 24716.737832634193, 24984.019992830756, 0.074484375, 1.0131796875, 0.1515390625, 192.0, 0.0, 0.0, 0.0, 0.0, 0.0, 0.0, 0.0, 0.0, 0.0, 1.707473807938265E9, 0.0, 2024-02-09 11:16:47.938
98.0, -25339.770357581423, -27468.326982060313, 5174.160620470121, -8459.844703655805, 39045.68124362007, 9526.6487630187, 24162.3028114203, -3248.4237251786863, 13832.667628844694, -2576.9549699968065, 37097.57025212887, 23113.62601681066, 35049.837535600374, 25263.0144671219, 24492.974518892115, 24822.998025774723, 0.074484375, 1.0131796875, 0.1515390625, 192.0, 0.0, 0.0, 0.0, 0.0, 0.0, 0.0, 0.0, 0.0, 0.0, 1.7074738079453428E9, 0.0, 2024-02-09 11:16:47.945
100.0, -25251.995057105432, -27409.318376698302, 5226.664868195638, -8481.794116710917, 39466.67635043578, 9614.893450128253, 24390.804694986906, -3088.653455812151, 13978.95979630468, -2534.6431177429104, 37201.84114001288, 23180.904767621134, 35016.93576776216, 25336.17172672412, 24543.37770263883, 24787.637566046425, 0.074484375, 1.0131796875, 0.1515390625, 192.0, 0.0, 0.0, 0.0, 0.0, 0.0, 0.0, 0.0, 0.0, 0.0, 1.7074738079543693E9, 0.0, 2024-02-09 11:16:47.954
102.0, -25335.501174390458, -27464.549537247367, 5165.734012810471, -8451.10517157378, 39187.637172655726, 9543.03259170444, 24224.93239938407, -3178.8650964337703, 14029.58649749595, -2537.5041410331896, 37442.21179988525, 23180.658898432124, 35454.09118581905, 25433.670036038166, 24680.237433938677, 25000.89555989451, 0.074484375, 1.0131796875, 0.1515390625, 192.0, 0.0, 0.0, 0.0, 0.0, 0.0, 0.0, 0.0, 0.0, 0.0, 1.7074738079624095E9, 0.0, 2024-02-09 11:16:47.962
104.0, -25274.883243427666, -27419.063737280816, 5215.7572169014475, -8451.753372162982, 39219.42135327117, 9588.674853882178, 24264.85261498125, -3149.6737181751396, 13803.140974419233, -2566.136725680438, 36960.64346559566, 23128.80285129581, 34788.47858768447, 25207.403326917094, 24414.69870980963, 24701.203370237756, 0.0712421875, 1.01558984375, 0.15176953124999998, 192.0, 1.0, 16.0, 15.5, 104.0, 2.0, 96.0, 0.0, 0.0, 0.0, 1.7074738079693463E9, 0.0, 2024-02-09 11:16:47.969
106.0, -25274.10093237173, -27422.90823732713, 5210.191632532076, -8450.166398306656, 39467.883344636364, 9614.200546050137, 24398.62780554626, -3064.17829563359, 14116.914763082834, -2503.976524350229, 37510.161103029386, 23233.297256624373, 35441.55185717963, 25487.068353541894, 24720.291760002587, 24994.7488301693, 0.0712421875, 1.01558984375, 0.15176953124999998, 192.0, 0.0, 0.0, 0.0, 0.0, 0.0, 0.0, 0.0, 0.0, 0.0, 1.7074738079783177E9, 0.0, 2024-02-09 11:16:47.978
108.0, -25320.704319561046, -27447.852784139253, 5186.74465259846, -8431.14506377519, 39066.043682818854, 9558.634109334243, 24188.856683833204, -3195.9641809420805, 13841.161291737712, -2564.9967867132173, 37119.29614773943, 23129.138127462644, 35063.963838096126, 25287.37786857818, 24513.292254601987, 24846.57911617507, 0.0712421875, 1.01558984375, 0.15176953124999998, 192.0, 0.0, 0.0, 0.0, 0.0, 0.0, 0.0, 0.0, 0.0, 0.0, 1.7074738079863129E9, 0.0, 2024-02-09 11:16:47.986
110.0, -25244.32840875726, -27398.164856215106, 5241.014688135945, -8467.734869448528, 39482.47903376568, 9628.48331075708, 24413.514067353495, -3053.918844928604, 13981.843171339415, -2522.1931960813044, 37216.034497742, 23194.44992476105, 35032.80550632543, 25341.69260760458, 24569.81981632946, 24814.9066942819, 0.0712421875, 1.01558984375, 0.15176953124999998, 192.0, 0.0, 0.0, 0.0, 0.0, 0.0, 0.0, 0.0, 0.0, 0.0, 1.7074738079933276E9, 0.0, 2024-02-09 11:16:47.993
112.0, -25325.040557985372, -27450.33382777379, 5189.9856555444785, -8437.67177315614, 39222.12591435026, 9565.809019304397, 24268.428894094097, -3158.077974090335, 14035.174433609776, -2525.680068216332, 37459.42264311584, 23191.365384026216, 35486.85884319054, 25441.18022217515, 24706.56778890703, 25018.396975803018, 0.0712421875, 1.01558984375, 0.15176953124999998, 192.0, 0.0, 0.0, 0.0, 0.0, 0.0, 0.0, 0.0, 0.0, 0.0, 1.707473808001362E9, 0.0, 2024-02-09 11:16:48.001
114.0, -25275.08440912776, -27417.90144656914, 5219.869937881224, -8458.48124724403, 39225.09869636282, 9587.04317653694, 24279.24713841047, -3158.592064212807, 13803.185677908144, -2558.514780821178, 36968.53363138838, 23129.42870014056, 34828.04117537036, 25224.07772828075, 24434.770576330495, 24715.21791401123, 0.07162109375, 1.015794921875, 0.15288476562499997, 192.0, 1.0, 32.0, 15.5, 96.0, 2.0, 104.0, 0.0, 0.0, 0.0, 1.7074738080103517E9, 0.0, 2024-02-09 11:16:48.010
116.0, -25282.48283654247, -27423.779955360886, 5206.101263296755, -8466.684337459128, 39466.18461205776, 9599.515449943001, 24391.028212431458, -3095.202516937556, 14114.992513059678, -2502.903640616374, 37499.2981552241, 23228.245762377475, 35470.43031101589, 25483.76029536251, 24717.162515778844, 24981.494245707305, 0.07162109375, 1.015794921875, 0.15288476562499997, 192.0, 0.0, 0.0, 0.0, 0.0, 0.0, 0.0, 0.0, 0.0, 0.0, 1.7074738080183797E9, 0.0, 2024-02-09 11:16:48.018
118.0, -25331.991950510976, -27452.72546443051, 5181.335530440275, -8442.544453447397, 39065.23902001846, 9541.333859125836, 24182.531140152354, -3226.3402016568425, 13835.863928301804, -2570.964702482784, 37104.23107197655, 23115.637673811638, 35110.790742729994, 25273.7656562049, 24507.704318488162, 24837.884287581957, 0.07162109375, 1.015794921875, 0.15288476562499997, 192.0, 0.0, 0.0, 0.0, 0.0, 0.0, 0.0, 0.0, 0.0, 0.0, 1.7074738080253513E9, 0.0, 2024-02-09 11:16:48.025
120.0, -25254.99019086244, -27407.84316156425, 5219.087626825289, -8476.072070130358, 39467.72688242518, 9611.741854160055, 24395.319747366877, -3089.1228424457126, 13973.304804957486, -2530.038658385117, 37187.513671817025, 23175.69681116305, 35057.43712871517, 25342.229049471505, 24547.356313151875, 24793.71724053827, 0.07162109375, 1.015794921875, 0.15288476562499997, 192.0, 0.0, 0.0, 0.0, 0.0, 0.0, 0.0, 0.0, 0.0, 0.0, 1.7074738080334291E9, 0.0, 2024-02-09 11:16:48.033
122.0, -25342.519622149423, -27467.902298915662, 5167.656262833627, -8451.954537863081, 39206.47969323155, 9547.659402806688, 24243.573754259796, -3188.878677949748, 14035.532061521062, -2541.7062689907875, 37440.15543939536, 23167.270203503394, 35509.85878823505, 25428.685597024632, 24683.612547351426, 25003.018975617764, 0.07162109375, 1.015794921875, 0.15288476562499997, 192.0, 0.0, 0.0, 0.0, 0.0, 0.0, 0.0, 0.0, 0.0, 0.0, 1.7074738080423589E9, 0.0, 2024-02-09 11:16:48.042
124.0, -25278.19130160705, -27421.05304253734, 5221.2110425485425, -8456.000203609492, 39221.90239690571, 9581.768164845487, 24266.95367896005, -3168.270369561955, 13803.766823263983, -2579.8383450315414, 36949.825221279294, 23103.85830448369, 34839.977006909496, 25209.839667062723, 24415.704538310118, 24700.242245226174, 0.07162109375, 1.015794921875, 0.15288476562499997, 192.0, 0.0, 0.0, 0.0, 0.0, 0.0, 0.0, 0.0, 0.0, 0.0, 1.7074738080496345E9, 0.0, 2024-02-09 11:16:48.049
126.0, -25283.28749934286, -27426.14924027315, 5213.41028373364, -8458.704764688584, 39480.44502502025, 9607.204450035626, 24404.193389915632, -3079.3774818631987, 14125.721350398226, -2504.9376493618074, 37498.76171335718, 23219.88620995119, 35482.41084604393, 25485.280213985472, 24723.108079803955, 24980.153141039988, 0.078, 1.018, 0.152, 192.0, 1.0, 56.0, 15.5, 104.0, 2.0, 96.0, 0.0, 0.0, 0.0, 1.707473808057382E9, 0.0, 2024-02-09 11:16:48.057
128.0, -25334.383587167693, -27456.81583366583, 5189.896248566657, -8437.71647664505, 39069.485851464975, 9548.464065607079, 24184.140465753135, -3226.3178499123874, 13841.988306282557, -2574.3398158955356, 37111.20481624661, 23109.42388885306, 35126.14639117079, 25282.996926664942, 24519.170763393733, 24841.795842861637, 0.078, 1.018, 0.152, 192.0, 0.0, 0.0, 0.0, 0.0, 0.0, 0.0, 0.0, 0.0, 0.0, 1.7074738080667005E9, 0.0, 2024-02-09 11:16:48.066
130.0, -25251.4586152385, -27406.703222597032, 5240.433542780107, -8463.800962424393, 39485.228298333685, 9639.56977600691, 24404.059279448902, -3063.1501153886456, 13981.440839939218, -2533.525530520145, 37187.33485786139, 23177.954337353032, 35061.37103573931, 25345.425348928613, 24555.805272555983, 24800.28865340813, 0.078, 1.018, 0.152, 192.0, 0.0, 0.0, 0.0, 0.0, 0.0, 0.0, 0.0, 0.0, 0.0, 1.7074738080744083E9, 0.0, 2024-02-09 11:16:48.074
132.0, -25330.181459210096, -27456.458205754545, 5182.0731380073, -8434.721342888039, 39230.08313537635, 9577.074298509873, 24255.911917199126, -3166.81750617236, 14048.049038416033, -2539.5157980341673, 37450.25842788916, 23173.77456113989, 35517.257215649755, 25450.947934502117, 24703.483248172197, 25020.699205481913, 0.078, 1.018, 0.152, 192.0, 0.0, 0.0, 0.0, 0.0, 0.0, 0.0, 0.0, 0.0, 0.0, 1.7074738080814252E9, 0.0, 2024-02-09 11:16:48.081
134.0, -25273.43038003807, -27415.442754679058, 5222.395685004674, -8448.847645383794, 39231.22307434357, 9605.773938390486, 24278.84480701027, -3156.043965344902, 13820.128300205268, -2561.5546180671, 36963.817413308316, 23125.51714486088, 34847.84482095776, 25226.111737026185, 24434.88233505277, 24716.46961170073, 0.078, 1.018, 0.152, 192.0, 0.0, 0.0, 0.0, 0.0, 0.0, 0.0, 0.0, 0.0, 0.0, 1.7074738080894127E9, 0.0, 2024-02-09 11:16:48.089
136.0, -25283.935699932063, -27430.61958916421, 5202.189708017077, -8470.998224139003, 39484.20011808874, 9608.903182614229, 24389.664756019683, -3093.883764014693, 14120.826318362513, -2511.956097120774, 37489.597498130504, 23214.946474426568, 35472.6207819725, 25478.70880111561, 24722.325768748018, 24976.8450828606, 0.08, 1.016, 0.154, 192.0, 1.0, 64.0, 15.5, 96.0, 2.0, 104.0, 0.0, 0.0, 0.0, 1.7074738080986717E9, 0.0, 2024-02-09 11:16:48.098
138.0, -25343.30193320536, -27469.377514049713, 5172.417184402608, -8454.189712308611, 39069.39644448715, 9546.430056861647, 24177.904329050107, -3230.1176464697896, 13845.83280632887, -2581.2465049322254, 37108.96964180108, 23107.56869406327, 35128.0909929384, 25284.405086565625, 24524.37871985182, 24833.659807879903, 0.08, 1.016, 0.154, 192.0, 0.0, 0.0, 0.0, 0.0, 0.0, 0.0, 0.0, 0.0, 0.0, 1.707473808105468E9, 0.0, 2024-02-09 11:16:48.105
140.0, -25256.979496118965, -27409.65365286513, 5231.22462406452, -8471.91464566167, 39475.48293775117, 9626.471653756102, 24393.330442110353, -3095.4483861265644, 13968.096848499401, -2548.9482341943067, 37171.845098953854, 23163.805683112823, 35047.46825068811, 25344.710093106045, 24551.849013787392, 24780.887339220924, 0.08, 1.016, 0.154, 192.0, 0.0, 0.0, 0.0, 0.0, 0.0, 0.0, 0.0, 0.0, 0.0, 1.7074738081134849E9, 0.0, 2024-02-09 11:16:48.113
142.0, -25339.189212225585, -27467.72348496002, 5172.59599835825, -8451.753372162982, 39215.39803926922, 9551.302737152904, 24243.50669902643, -3197.037064675935, 14040.784721468059, -2546.780114982142, 37434.41104107035, 23163.939793579557, 35509.612919046034, 25438.028626206953, 24694.564902134527, 24993.295966779708, 0.08, 1.016, 0.154, 192.0, 0.0, 0.0, 0.0, 0.0, 0.0, 0.0, 0.0, 0.0, 0.0, 1.7074738081225123E9, 0.0, 2024-02-09 11:16:48.122
144.0, -25291.75881049142, -27434.553496188342, 5217.947687858068, -8465.38793628072, 39212.29114678993, 9582.170496245682, 24269.904109228148, -3160.3802037692317, 13804.057395941902, -2587.482641635256, 36938.62699730718, 23100.81846723777, 34827.32591954779, 25213.61711187567, 24427.483907638063, 24700.577521393006, 0.08, 1.016, 0.154, 192.0, 0.0, 0.0, 0.0, 0.0, 0.0, 0.0, 0.0, 0.0, 0.0, 1.7074738081294985E9, 0.0, 2024-02-09 11:16:48.129
146.0, -25281.72287723099, -27426.059833295327, 5221.9710018600235, -8460.448200756098, 39475.46058600672, 9618.223860052092, 24395.78913400044, -3078.1257841737015, 14124.469652708729, -2521.16501583636, 37482.55669862708, 23211.03491914689, 35460.72965392228, 25479.066429026894, 24724.04685307108, 24977.985021827822, 0.082, 1.018, 0.154, 192.0, 1.0, 72.0, 15.5, 104.0, 2.0, 104.0, 0.0, 0.0, 0.0, 1.7074738081375E9, 0.0, 2024-02-09 11:16:48.137
148.0, -25332.88602028919, -27460.570926734323, 5197.227620747998, -8436.218909766545, 39055.359548969216, 9554.856664521298, 24166.951974267005, -3223.3897713887422, 13856.606347156328, -2588.0190835021835, 37118.245615750035, 23106.942845218524, 35123.08420218041, 25284.539197032358, 24530.167821665746, 24847.428482464373, 0.082, 1.018, 0.154, 192.0, 0.0, 0.0, 0.0, 0.0, 0.0, 0.0, 0.0, 0.0, 0.0, 1.707473808145741E9, 0.0, 2024-02-09 11:16:48.145
150.0, -25248.7093506705, -27405.272710951893, 5246.267348082942, -8461.208160067577, 39468.48684173666, 9640.933232418685, 24415.12339295428, -3074.974188205503, 13983.318386473464, -2545.7966382261084, 37179.131767646286, 23172.54521519485, 35038.10286976134, 25339.01039826994, 24560.67795284724, 24794.94658648331, 0.082, 1.018, 0.154, 192.0, 0.0, 0.0, 0.0, 0.0, 0.0, 0.0, 0.0, 0.0, 0.0, 1.7074738081545777E9, 0.0, 2024-02-09 11:16:48.154
152.0, -25336.14937497966, -27465.309496558846, 5175.702890837538, -8452.803904152383, 39218.19200732613, 9568.200655961116, 24253.252059608945, -3164.492924749008, 14053.212291385209, -2553.016251685173, 37448.559695310556, 23163.559813923814, 35502.706230009346, 25426.18220164564, 24713.049794799066, 25013.65840597849, 0.082, 1.018, 0.154, 192.0, 0.0, 0.0, 0.0, 0.0, 0.0, 0.0, 0.0, 0.0, 0.0, 1.7074738081625493E9, 0.0, 2024-02-09 11:16:48.162
154.0, -25282.52754003138, -27426.28335073988, 5220.495786725973, -8460.939939134114, 39218.75080093751, 9601.035368565961, 24289.305423415357, -3140.129523292723, 13809.913552989192, -2587.7955660576304, 36945.131354943675, 23095.94578694651, 34817.0664688428, 25215.047623520808, 24440.40321593323, 24712.289835487587, 0.082, 1.018, 0.154, 192.0, 0.0, 0.0, 0.0, 0.0, 0.0, 0.0, 0.0, 0.0, 0.0, 1.7074738081695538E9, 0.0, 2024-02-09 11:16:48.169
156.0, -25284.069810398796, -27433.90529559914, 5211.756254643948, -8467.980738637536, 39479.26038256411, 9619.207336808126, 24409.244884162534, -3081.4561940975423, 14129.074112066523, -2524.5177775046564, 37477.12522472444, 23206.564570255825, 35452.39245324045, 25488.14123727575, 24732.585219453005, 24976.576861927137, 0.076, 1.014, 0.162, 192.0, 1.0, 48.0, 15.5, 88.0, 2.5, 8.0, 0.0, 0.0, 0.0, 1.7074738081775699E9, 0.0, 2024-02-09 11:16:48.177
158.0, -25329.846183043264, -27460.705037201053, 5189.672731122105, -8437.515310944953, 39067.0718630638, 9560.93633901314, 24202.78182062886, -3185.5929715148177, 13861.099047791846, -2586.1415369679376, 37114.959909315105, 23106.920493474066, 35126.68283303772, 25296.609139038224, 24533.788804267504, 24844.165127773897, 0.076, 1.014, 0.162, 192.0, 0.0, 0.0, 0.0, 0.0, 0.0, 0.0, 0.0, 0.0, 0.0, 1.7074738081855812E9, 0.0, 2024-02-09 11:16:48.185
160.0, -25253.7608449174, -27411.262978465915, 5235.918490400135, -8467.980738637536, 39488.75987395762, 9634.406523037735, 24421.225419190578, -3057.5174757859086, 13978.848037582404, -2546.9812806822397, 37164.13374711678, 23163.760979623912, 35040.31569246241, 25343.324284949817, 24574.893662320814, 24790.967975970267, 0.076, 1.014, 0.162, 192.0, 0.0, 0.0, 0.0, 0.0, 0.0, 0.0, 0.0, 0.0, 0.0, 1.7074738081940377E9, 0.0, 2024-02-09 11:16:48.194
162.0, -25332.88602028919, -27464.34837154727, 5180.486164150973, -8443.237357525511, 39257.329911867375, 9571.79928681842, 24275.93908023108, -3154.3228810218434, 14053.301698363031, -2549.0152894276725, 37442.43531732981, 23164.230366257474, 35518.75478252826, 25460.71564682909, 24733.769861909135, 25012.496115266815, 0.076, 1.014, 0.162, 192.0, 0.0, 0.0, 0.0, 0.0, 0.0, 0.0, 0.0, 0.0, 0.0, 1.7074738082019205E9, 0.0, 2024-02-09 11:16:48.201
164.0, -25274.927946916574, -27419.57782740329, 5228.028324607411, -8449.518197717452, 39248.299807107425, 9602.577638933379, 24287.338469903287, -3142.6105669272624, 13810.941733234136, -2585.8062608011082, 36944.03611946537, 23106.965196962978, 34835.95369290754, 25231.94554232902, 24465.951259845646, 24710.188771508787, 0.076, 1.014, 0.162, 192.0, 0.0, 0.0, 0.0, 0.0, 0.0, 0.0, 0.0, 0.0, 0.0, 1.7074738082106383E9, 0.0, 2024-02-09 11:16:48.210
166.0, -25271.61988873719, -27420.270731481403, 5222.529795471406, -8463.1974653241, 39521.32636562901, 9616.055740839927, 24393.755125255004, -3080.7632900194276, 14135.444359236284, -2512.5148907321563, 37485.61888761746, 23221.339073340783, 35451.69954916234, 25476.5630336479, 24755.65221973088, 24968.977268812334, 0.07200000000000001, 1.022, 0.16, 192.0, 1.0, 32.0, 15.5, 120.0, 2.5, 0.0, 0.0, 0.0, 0.0, 1.707473808217664E9, 0.0, 2024-02-09 11:16:48.217
168.0, -25326.20284869705, -27453.552478975354, 5197.831117848292, -8433.42494170963, 39105.136883871186, 9555.79543778842, 24169.54477662382, -3218.2488701640214, 13867.64810891725, -2582.229981688259, 37133.891836868745, 23123.43843262654, 35134.26007440806, 25304.029918197386, 24563.71779009316, 24845.036845807655, 0.07200000000000001, 1.022, 0.16, 192.0, 0.0, 0.0, 0.0, 0.0, 0.0, 0.0, 0.0, 0.0, 0.0, 1.7074738082256916E9, 0.0, 2024-02-09 11:16:48.225
170.0, -25241.020350577874, -27395.974385258483, 5256.370336576741, -8453.206235552578, 39516.766609760125, 9640.95558416314, 24399.946558469124, -3076.695272528562, 13983.117220773367, -2537.9511759222955, 37176.71777924511, 23188.68317469158, 35027.396384167245, 25361.272735747425, 24586.494217693118, 24781.982574699232, 0.07200000000000001, 1.022, 0.16, 192.0, 0.0, 0.0, 0.0, 0.0, 0.0, 0.0, 0.0, 0.0, 0.0, 1.7074738082339363E9, 0.0, 2024-02-09 11:16:48.233
172.0, -25327.34278766427, -27454.91593538713, 5198.836946348781, -8428.529909673918, 39289.06938899391, 9584.47272592458, 24273.0780569408, -3155.038136844413, 14071.987756727667, -2542.8685597024632, 37463.93769549581, 23194.271110805406, 35516.631366805006, 25482.352135461824, 24749.103158605478, 25014.351310056605, 0.07200000000000001, 1.022, 0.16, 192.0, 0.0, 0.0, 0.0, 0.0, 0.0, 0.0, 0.0, 0.0, 0.0, 1.7074738082417119E9, 0.0, 2024-02-09 11:16:48.241
174.0, -25286.327336588784, -27430.28431299738, 5220.048751836866, -8449.182921550622, 39261.84496424734, 9601.057720310417, 24269.837053994783, -3158.368546768254, 13823.034026984458, -2587.482641635256, 36948.55117184534, 23117.783441279345, 34833.31618706181, 25237.84640286522, 24473.394390749265, 24711.68633838729, 0.07200000000000001, 1.022, 0.16, 192.0, 0.0, 0.0, 0.0, 0.0, 0.0, 0.0, 0.0, 0.0, 0.0, 1.7074738082496984E9, 0.0, 2024-02-09 11:16:48.249
176.0, -25283.19809236504, -27429.770222874908, 5210.817481376825, -8462.683375201628, 39542.91815077283, 9623.253002554537, 24414.989282487546, -3068.0898509132685, 14137.165443559343, -2531.9609084082736, 37481.349704426495, 23215.21469536003, 35444.23406651426, 25497.819542624897, 24760.144920366398, 24971.972402569343, 0.078, 1.02, 0.162, 192.0, 1.0, 56.0, 15.5, 112.0, 2.5, 8.0, 0.0, 0.0, 0.0, 1.7074738082579596E9, 0.0, 2024-02-09 11:16:48.257
178.0, -25328.7285958205, -27456.122929587716, 5186.8117078318255, -8435.771874877439, 39116.670384010125, 9568.915911783686, 24202.78182062886, -3202.1779659006556, 13877.438172988675, -2590.8577550480077, 37128.81799087739, 23111.7037667875, 35141.77026054505, 25307.092107187764, 24571.697362863706, 24847.16026153091, 0.078, 1.02, 0.162, 192.0, 0.0, 0.0, 0.0, 0.0, 0.0, 0.0, 0.0, 0.0, 0.0, 1.7074738082667675E9, 0.0, 2024-02-09 11:16:48.266
180.0, -25241.310923255794, -27397.449600392534, 5244.32274631533, -8459.263558299966, 39523.539188330076, 9650.633889512288, 24429.40615766122, -3048.2862053258664, 13989.219247009665, -2544.589644025522, 37169.207593108134, 23182.290575777362, 35035.35360519333, 25355.774206611422, 24602.67688067876, 24790.67740329235, 0.078, 1.02, 0.162, 192.0, 0.0, 0.0, 0.0, 0.0, 0.0, 0.0, 0.0, 0.0, 0.0, 1.7074738082737825E9, 0.0, 2024-02-09 11:16:48.273
182.0, -25325.599351596757, -27456.01117086544, 5187.482260165484, -8439.035229567913, 39295.46198790813, 9578.929493299664, 24289.126609459712, -3145.1810175396226, 14070.35607938243, -2546.847170215508, 37455.77930876963, 23185.68804093457, 35523.672166308424, 25471.265670211993, 24764.302344835087, 25020.363929315085, 0.078, 1.02, 0.162, 192.0, 0.0, 0.0, 0.0, 0.0, 0.0, 0.0, 0.0, 0.0, 0.0, 1.7074738082817929E9, 0.0, 2024-02-09 11:16:48.281
184.0, -25275.039705638854, -27423.08705128277, 5229.74940893047, -8449.853473884283, 39264.035435203965, 9592.51935392849, 24286.46675186953, -3150.0536978308796, 13822.519936861985, -2588.0190835021835, 36945.17605843259, 23112.843705754723, 34846.950751179545, 25227.072862037763, 24484.391449021274, 24711.775745365114, 0.078, 1.02, 0.162, 192.0, 0.0, 0.0, 0.0, 0.0, 0.0, 0.0, 0.0, 0.0, 0.0, 1.7074738082898123E9, 0.0, 2024-02-09 11:16:48.289
186.0, -25267.171891590584, -27418.549647158343, 5226.664868195638, -8458.10126758829, 39541.375880405416, 9622.448339754146, 24413.44701212013, -3065.2735311119, 14144.407408762861, -2526.1941583388043, 37479.98624801472, 23220.914390196132, 35456.54987770914, 25499.272406014494, 24765.95637392478, 24968.507882178772, 0.078, 1.014, 0.16, 192.0, 1.0, 56.0, 15.5, 88.0, 2.5, 0.0, 0.0, 0.0, 0.0, 1.7074738082977817E9, 0.0, 2024-02-09 11:16:48.297
188.0, -25328.616837098223, -27462.739045946488, 5187.616370632216, -8441.940956347104, 39112.1329798857, 9547.927623740152, 24194.757544369408, -3214.069093950879, 13885.194228314665, -2588.9578567693065, 37134.89766536924, 23116.48704010094, 35162.69149335522, 25312.948264235052, 24577.844092588915, 24848.546069687138, 0.078, 1.014, 0.16, 192.0, 0.0, 0.0, 0.0, 0.0, 0.0, 0.0, 0.0, 0.0, 0.0, 1.7074738083048184E9, 0.0, 2024-02-09 11:16:48.304
190.0, -25244.41781573508, -27411.12886799918, 5245.686202727104, -8467.466648515065, 39515.850188237455, 9632.260755570025, 24414.162267942702, -3079.6457027966626, 13985.598264407905, -2556.972510453762, 37155.95300864613, 23162.665744145605, 35033.29724470344, 25339.077453503305, 24588.461171205185, 24776.23817637422, 0.078, 1.014, 0.16, 192.0, 0.0, 0.0, 0.0, 0.0, 0.0, 0.0, 0.0, 0.0, 0.0, 1.707473808313793E9, 0.0, 2024-02-09 11:16:48.313
192.0, -25317.575075337303, -27460.123891845215, 5190.544449155861, -8439.057581312369, 39288.085912237875, 9569.094725739327, 24262.19275739107, -3168.203314328589, 14077.128657952388, -2554.692632519321, 37460.584933827515, 23175.786218140867, 35536.546771114685, 25464.98483002005, 24755.987495897713, 25011.065603621675, 0.078, 1.014, 0.16, 192.0, 0.0, 0.0, 0.0, 0.0, 0.0, 0.0, 0.0, 0.0, 0.0, 1.7074738083228312E9, 0.0, 2024-02-09 11:16:48.322
194.0, -25273.65389748262, -27429.5243536859, 5236.142007844688, -8449.004107594981, 39255.3182548664, 9604.90222035673, 24278.84480701027, -3132.61933715574, 13825.582125852363, -2587.4155864018903, 36951.278084668884, 23111.077917942755, 34855.556172794844, 25230.71619638398, 24475.249585539055, 24709.808791853047, 0.078, 1.014, 0.16, 192.0, 0.0, 0.0, 0.0, 0.0, 0.0, 0.0, 0.0, 0.0, 0.0, 1.7074738083288567E9, 0.0, 2024-02-09 11:16:48.328
196.0, -25277.029010895374, -27435.224048522003, 5223.9156036276345, -8468.338366548822, 39538.51485711514, 9619.117929830305, 24413.64817782023, -3068.8051067358383, 14138.75241741567, -2530.2845275741256, 37477.23698344672, 23210.386718557682, 35459.9696946108, 25484.341440718348, 24766.80574021408, 24966.965611811356, 0.074, 1.018, 0.154, 192.0, 1.0, 40.0, 15.5, 104.0, 2.0, 104.0, 0.0, 0.0, 0.0, 1.707473808337957E9, 0.0, 2024-02-09 11:16:48.337
198.0, -25326.6275318417, -27467.00822913745, 5194.590114902272, -8435.056619054869, 39118.8832067112, 9570.36877517328, 24210.135544554658, -3184.5647912698737, 13876.655861932739, -2596.423339417379, 37133.93654035766, 23104.014766694876, 35168.65940912478, 25303.605235052735, 24590.0034415726, 24859.409017492417, 0.074, 1.018, 0.154, 192.0, 0.0, 0.0, 0.0, 0.0, 0.0, 0.0, 0.0, 0.0, 0.0, 1.7074738083458505E9, 0.0, 2024-02-09 11:16:48.345
200.0, -25237.66758890958, -27411.95588254403, 5242.266385825442, -8469.098325860301, 39517.660679538334, 9644.241290598071, 24426.45572739312, -3060.5796647762854, 13982.603130650894, -2559.945292466318, 37151.57206673289, 23165.63852615816, 35025.18356146617, 25335.948209279562, 24596.306633508997, 24778.13807465292, 0.074, 1.018, 0.154, 192.0, 0.0, 0.0, 0.0, 0.0, 0.0, 0.0, 0.0, 0.0, 0.0, 1.7074738083538692E9, 0.0, 2024-02-09 11:16:48.353
202.0, -25307.785011265878, -27459.87802265621, 5196.221792247509, -8441.76214239146, 39309.141255514776, 9578.124830499271, 24283.404562879154, -3156.111020578268, 14084.236512689176, -2554.8267429860525, 37461.143727438895, 23178.043744330855, 35533.50693386876, 25461.877937540765, 24762.871833189947, 25001.09672559461, 0.074, 1.018, 0.154, 192.0, 0.0, 0.0, 0.0, 0.0, 0.0, 0.0, 0.0, 0.0, 0.0, 1.7074738083618605E9, 0.0, 2024-02-09 11:16:48.361
204.0, -25257.828862408267, -27424.875190839197, 5251.9670429190455, -8441.650383669185, 39277.40177838824, 9609.059644825416, 24287.405525136655, -3127.14315976419, 13831.63944859975, -2581.268856676681, 36954.161459703624, 23112.843705754723, 34851.06347215932, 25236.550001686814, 24488.861797912337, 24709.585274408495, 0.074, 1.018, 0.154, 192.0, 0.0, 0.0, 0.0, 0.0, 0.0, 0.0, 0.0, 0.0, 0.0, 1.7074738083699083E9, 0.0, 2024-02-09 11:16:48.369
206.0, -25246.250658780416, -27419.264902980914, 5253.598720264283, -8448.110037816768, 39568.17562200733, 9637.267546328014, 24422.49946862453, -3046.006327391425, 14153.303403056074, -2518.2145855682597, 37488.01052427418, 23223.708358253047, 35454.40411024143, 25493.528007689478, 24776.52874905214, 24965.42334144394, 0.07, 1.016, 0.152, 192.0, 1.0, 24.0, 15.5, 96.0, 2.0, 96.0, 0.0, 0.0, 0.0, 1.7074738083778968E9, 0.0, 2024-02-09 11:16:48.377
208.0, -25307.069755443306, -27459.922726145116, 5217.478301224506, -8424.551299160874, 39135.825829008325, 9573.65448160821, 24200.30077699432, -3183.111927880279, 13898.828792432403, -2574.205705428804, 37161.83151743788, 23133.362607164694, 35179.500005185604, 25307.96382522152, 24605.292034780032, 24865.421636750896, 0.07, 1.016, 0.152, 192.0, 0.0, 0.0, 0.0, 0.0, 0.0, 0.0, 0.0, 0.0, 0.0, 1.7074738083849146E9, 0.0, 2024-02-09 11:16:48.384
210.0, -25220.099117767706, -27403.417516162102, 5271.904798973179, -8450.926357618137, 39529.82002852202, 9651.706773246142, 24406.428564361166, -3053.203589106034, 13991.990863322124, -2544.209664369782, 37171.10749138683, 23184.279881033886, 35033.02902376998, 25344.263058216937, 24609.561217970993, 24792.376135870953, 0.07, 1.016, 0.152, 192.0, 0.0, 0.0, 0.0, 0.0, 0.0, 0.0, 0.0, 0.0, 0.0, 1.707473808393932E9, 0.0, 2024-02-09 11:16:48.393
212.0, -25298.91136871712, -27458.939249389085, 5217.500652968962, -8424.886575327704, 39320.71945914262, 9589.859496338308, 24284.343336146278, -3121.7116858615504, 14094.317149438519, -2534.710172976276, 37487.54113764061, 23201.06604111982, 35555.9927887908, 25479.513463916002, 24781.692002021315, 25027.42708056296, 0.07, 1.016, 0.152, 192.0, 0.0, 0.0, 0.0, 0.0, 0.0, 0.0, 0.0, 0.0, 0.0, 1.7074738084022737E9, 0.0, 2024-02-09 11:16:48.402
214.0, -25267.8647956687, -27442.063682325326, 5237.818388678836, -8445.33842150431, 39268.14815618374, 9601.124775543783, 24275.045010452868, -3136.530892435419, 13832.734684078061, -2582.453499132812, 36957.581276605284, 23125.04775822732, 34865.90503047765, 25230.93971382853, 24499.94826316217, 24719.80002162457, 0.07, 1.016, 0.152, 192.0, 0.0, 0.0, 0.0, 0.0, 0.0, 0.0, 0.0, 0.0, 0.0, 1.7074738084089403E9, 0.0, 2024-02-09 11:16:48.408
216.0, -25252.375036761172, -27436.14047004467, 5236.901967156168, -8449.518197717452, 39572.71302613176, 9641.223805096604, 24419.057299978413, -3041.759495944917, 14148.207205320265, -2521.366181536458, 37476.78994855761, 23232.470242079526, 35456.706339920325, 25493.684469900665, 24783.65895553338, 24976.46510320486, 0.07, 1.02, 0.152, 192.0, 1.0, 24.0, 15.5, 112.0, 2.0, 96.0, 0.0, 0.0, 0.0, 1.7074738084171927E9, 0.0, 2024-02-09 11:16:48.417
218.0, -25312.00949096793, -27477.066514142338, 5201.563859172328, -8427.077046284325, 39142.17372443363, 9573.6097781193, 24197.50680893741, -3181.144974368212, 13895.386623786286, -2580.352435154013, 37150.186258576665, 23134.05551124281, 35187.546633189515, 25317.26215091493, 24610.34352902693, 24865.913375128912, 0.07, 1.02, 0.152, 192.0, 0.0, 0.0, 0.0, 0.0, 0.0, 0.0, 0.0, 0.0, 0.0, 1.7074738084259763E9, 0.0, 2024-02-09 11:16:48.425
220.0, -25229.397443461115, -27426.663330395622, 5251.788228963403, -8456.62605245424, 39537.48667687019, 9646.6776307437, 24417.17975344417, -3047.950929159037, 13987.0511277975, -2543.7402777362204, 37150.745052188046, 23194.628738716692, 35041.45563142963, 25349.850994330765, 24615.48443025165, 24786.318813123562, 0.07, 1.02, 0.152, 192.0, 0.0, 0.0, 0.0, 0.0, 0.0, 0.0, 0.0, 0.0, 0.0, 1.7074738084330182E9, 0.0, 2024-02-09 11:16:48.433
222.0, -25307.24856939895, -27477.021810653427, 5194.165431757621, -8436.665944655651, 39326.35209874536, 9578.370699688281, 24277.213129665033, -3152.199465298589, 14081.151971954343, -2542.64504225791, 37466.01640773015, 23201.02133763091, 35559.546716159195, 25486.397801208237, 24783.90482472239, 25018.24051359183, 0.07, 1.02, 0.152, 192.0, 0.0, 0.0, 0.0, 0.0, 0.0, 0.0, 0.0, 0.0, 0.0, 1.7074738084410012E9, 0.0, 2024-02-09 11:16:48.441
224.0, -25259.72876068697, -27441.370778247212, 5235.672621211126, -8432.374409720233, 39285.18018545869, 9615.89927862874, 24300.525999131918, -3133.111075533757, 13829.02429449848, -2573.1104699504936, 36945.04194796586, 23140.15753747911, 34873.37051312572, 25258.700580442022, 24507.41374581024, 24716.46961170073, 0.07, 1.02, 0.152, 192.0, 0.0, 0.0, 0.0, 0.0, 0.0, 0.0, 0.0, 0.0, 0.0, 1.7074738084490378E9, 0.0, 2024-02-09 11:16:48.449
226.0, -25246.608286691702, -27439.09090031277, 5234.666792710637, -8441.71743890255, 39584.76061639316, 9650.812703467931, 24444.87356482429, -3042.0277168783805, 14148.341315786996, -2506.2787540291256, 37465.50231760768, 23248.898774254176, 35461.48961323376, 25523.524048748503, 24790.43153410334, 24972.37473396954, 0.076, 1.012, 0.15, 192.0, 1.0, 48.0, 15.5, 80.0, 2.0, 88.0, 0.0, 0.0, 0.0, 1.707473808458215E9, 0.0, 2024-02-09 11:16:48.458
228.0, -25308.321453132805, -27480.01694441044, 5200.64743764966, -8423.724284616028, 39155.49536412899, 9575.532028142456, 24219.07624233678, -3197.4170443316752, 13907.188344858689, -2559.7664785106754, 37151.39325277725, 23154.261488230408, 35198.16371180579, 25337.132851735696, 24622.368767543885, 24874.049410110645, 0.076, 1.012, 0.15, 192.0, 0.0, 0.0, 0.0, 0.0, 0.0, 0.0, 0.0, 0.0, 0.0, 1.70747380846507E9, 0.0, 2024-02-09 11:16:48.465
230.0, -25223.630693391646, -27423.981121060984, 5257.465572055051, -8450.524026217941, 39545.01921475163, 9654.344279091869, 24428.199163460635, -3058.098621141746, 13990.560351676984, -2536.163036365871, 37144.75478467403, 23206.229294088997, 35036.60530288283, 25360.669238647133, 24615.417375018285, 24788.95631896929, 0.076, 1.012, 0.15, 192.0, 0.0, 0.0, 0.0, 0.0, 0.0, 0.0, 0.0, 0.0, 0.0, 1.7074738084730372E9, 0.0, 2024-02-09 11:16:48.473
232.0, -25300.319528617805, -27476.798293208874, 5207.442367964073, -8425.043037538891, 39335.71747967214, 9598.241400509049, 24292.725240317017, -3139.0119360699578, 14102.475536164706, -2525.4118472828686, 37478.01929450265, 23230.458585078548, 35563.81589935016, 25503.67569967219, 24794.879531249946, 25030.444566064427, 0.076, 1.012, 0.15, 192.0, 0.0, 0.0, 0.0, 0.0, 0.0, 0.0, 0.0, 0.0, 0.0, 1.7074738084820504E9, 0.0, 2024-02-09 11:16:48.482
234.0, -25265.920193901085, -27456.39115052118, 5244.4568567820625, -8431.56974691984, 39270.67390330719, 9618.290915285459, 24292.725240317017, -3115.9225840476256, 13834.433416656664, -2573.8927810064297, 36947.992378233954, 23147.555964893814, 34870.5318415799, 25243.255525023407, 24506.51967603203, 24740.60949571246, 0.076, 1.012, 0.15, 192.0, 0.0, 0.0, 0.0, 0.0, 0.0, 0.0, 0.0, 0.0, 0.0, 1.7074738084890711E9, 0.0, 2024-02-09 11:16:48.489
236.0, -25243.389635490137, -27438.28623751238, 5251.497656285484, -8435.749523132983, 39569.963761563755, 9644.95654642064, 24451.93671607217, -3030.471864994987, 14149.593013476493, -2505.362332506458, 37469.07859672053, 23256.923050513633, 35455.365235253004, 25499.227702525583, 24785.268281134166, 24992.357193512584, 0.075, 1.013, 0.151, 192.0, 1.0, 40.0, 15.5, 88.0, 2.0, 96.0, 0.0, 0.0, 0.0, 1.7074738084970562E9, 0.0, 2024-02-09 11:16:48.497
238.0, -25305.14750542015, -27476.127740875214, 5210.169280787621, -8415.968229290036, 39132.36130861775, 9568.424173405669, 24216.75166091343, -3182.910762180181, 13902.56153375644, -2562.851019245508, 37154.1201656008, 23164.275069746385, 35195.86148212689, 25344.285409961394, 24611.125840082866, 24884.8229509381, 0.075, 1.013, 0.151, 192.0, 0.0, 0.0, 0.0, 0.0, 0.0, 0.0, 0.0, 0.0, 0.0, 1.7074738085051289E9, 0.0, 2024-02-09 11:16:48.505
240.0, -25214.46647816497, -27413.967539545007, 5262.964101191056, -8441.695087158096, 39520.38759236188, 9656.020659926016, 24430.993131517545, -3052.4883332834643, 13992.259084255587, -2522.9084519038743, 37147.191124819656, 23222.59077103028, 35029.7209655906, 25359.953982824565, 24601.760459156092, 24790.09625793651, 0.075, 1.013, 0.151, 192.0, 0.0, 0.0, 0.0, 0.0, 0.0, 0.0, 0.0, 0.0, 0.0, 1.7074738085141351E9, 0.0, 2024-02-09 11:16:48.514
242.0, -25295.357441348726, -27470.115121616738, 5202.055597550345, -8422.785511348906, 39312.51636892753, 9597.570848175388, 24308.48322015801, -3124.192729496089, 14100.083899507988, -2518.2816408016256, 37481.17089047085, 23233.6325327912, 35551.47773641083, 25496.634900168767, 24777.04283917461, 25030.355159086605, 0.075, 1.013, 0.151, 192.0, 0.0, 0.0, 0.0, 0.0, 0.0, 0.0, 0.0, 0.0, 0.0, 1.7074738085211377E9, 0.0, 2024-02-09 11:16:48.521
244.0, -25265.24964156743, -27448.165708561624, 5233.236281065498, -8440.689258657607, 39246.9139989512, 9608.746720403042, 24288.590167592785, -3142.521159949441, 13825.157442707712, -2563.8344960015415, 36944.84078226576, 23148.7629590944, 34841.496925532454, 25237.824051120766, 24490.113495601832, 24727.489021717196, 0.075, 1.013, 0.151, 192.0, 0.0, 0.0, 0.0, 0.0, 0.0, 0.0, 0.0, 0.0, 0.0, 1.7074738085291326E9, 0.0, 2024-02-09 11:16:48.529
246.0, -25248.150557059118, -27442.309551514336, 5243.182807348109, -8450.680488429129, 39561.80537483757, 9636.61934573881, 24435.798756575437, -3056.981033918981, 14135.690228425292, -2501.8307568825194, 37459.199125671286, 23253.32441965633, 35415.86970280048, 25493.907987345217, 24768.213900114766, 24968.351419967585, 0.0745, 1.0154999999999998, 0.1535, 192.0, 1.0, 40.0, 15.5, 104.0, 2.0, 112.0, 0.0, 0.0, 0.0, 1.7074738085381465E9, 0.0, 2024-02-09 11:16:48.538
248.0, -25307.695604288056, -27479.681668243607, 5211.085702310289, -8422.204365993068, 39129.47793358302, 9570.905217040208, 24218.964483614505, -3195.7406634975273, 13892.480897007097, -2564.035661701639, 37152.17556383319, 23159.58120341077, 35170.89458357031, 25316.01045322543, 24606.588435958438, 24881.11256135852, 0.0745, 1.0154999999999998, 0.1535, 192.0, 0.0, 0.0, 0.0, 0.0, 0.0, 0.0, 0.0, 0.0, 0.0, 1.7074738085451624E9, 0.0, 2024-02-09 11:16:48.545
250.0, -25216.880466566145, -27422.103574526736, 5265.914531459157, -8445.696049415596, 39519.60528130594, 9655.238348870082, 24428.981474516568, -3051.1248768716905, 13978.490409671118, -2523.5343007486226, 37135.523514213986, 23213.91829418162, 34988.236127881544, 25341.603200626756, 24591.322194495464, 24789.358650369486, 0.0745, 1.0154999999999998, 0.1535, 192.0, 0.0, 0.0, 0.0, 0.0, 0.0, 0.0, 0.0, 0.0, 0.0, 1.707473808553137E9, 0.0, 2024-02-09 11:16:48.553
252.0, -25299.939548962066, -27481.20158686657, 5206.324780741308, -8426.160624761656, 39324.87688361131, 9584.584484646855, 24300.324833431823, -3136.1509127796785, 14093.31132093803, -2522.0590856145723, 37481.37205617095, 23229.966846700532, 35535.11625946954, 25488.364754720304, 24775.880548462934, 25042.648618537023, 0.0745, 1.0154999999999998, 0.1535, 192.0, 0.0, 0.0, 0.0, 0.0, 0.0, 0.0, 0.0, 0.0, 0.0, 1.7074738085611577E9, 0.0, 2024-02-09 11:16:48.561
254.0, -25263.0144671219, -27455.117101087228, 5243.272214325931, -8431.837967853304, 39258.53690606796, 9610.71367391511, 24286.936138503093, -3140.8000756263827, 13819.345989149331, -2567.2766646476584, 36943.320863642795, 23145.656066615113, 34840.602855754245, 25231.09617603972, 24484.79378042147, 24733.94867586478, 0.0745, 1.0154999999999998, 0.1535, 192.0, 0.0, 0.0, 0.0, 0.0, 0.0, 0.0, 0.0, 0.0, 0.0, 1.7074738085704756E9, 0.0, 2024-02-09 11:16:48.570
0.0, -25245.736568657943, -27445.61760969372, 5249.910682429157, -8444.824331381838, 39574.94820057729, 9639.815645195918, 24445.588820646863, -3049.336737315266, 14143.334525029008, -2504.200041794782, 37456.47221284774, 23257.168919702643, 35421.77056333668, 25487.18011226417, 24770.29261234911, 24984.019992830756, 0.07425, 1.01575, 0.15675, 192.0, 1.0, 40.0, 15.5, 96.0, 2.5, 0.0, 0.0, 0.0, 0.0, 1.7074738085771747E9, 0.0, 2024-02-09 11:16:48.577
2.0, -25307.226217654494, -27483.81674096784, 5215.287830267886, -8420.930316559115, 39140.586750577306, 9564.22204544807, 24209.12971605417, -3193.9525239411028, 13910.22818210461, -2558.8947604769182, 37166.65949424023, 23165.325601735785, 35181.71282788668, 25321.643092828166, 24605.00146210211, 24893.495427786762, 0.07425, 1.01575, 0.15675, 192.0, 0.0, 0.0, 0.0, 0.0, 0.0, 0.0, 0.0, 0.0, 0.0, 1.7074738085852752E9, 0.0, 2024-02-09 11:16:48.585
4.0, -25217.729832855446, -27423.645844894156, 5267.926188460135, -8442.499749958486, 39525.46143835324, 9649.046915655961, 24426.142802970746, -3051.1695803606012, 13981.016156794567, -2532.139722363916, 37134.16005780221, 23209.850276690755, 34992.72882851706, 25328.236857442484, 24581.44272344622, 24788.33047012454, 0.07425, 1.01575, 0.15675, 192.0, 0.0, 0.0, 0.0, 0.0, 0.0, 0.0, 0.0, 0.0, 0.0, 1.707473808593315E9, 0.0, 2024-02-09 11:16:48.593
6.0, -25295.983290193475, -27476.641830997687, 5206.749463885959, -8423.634877638207, 39332.99056684859, 9597.95082783113, 24309.779621336416, -3119.1635869936454, 14105.493021666172, -2507.8880796299077, 37485.17185272835, 23236.784128759402, 35541.6876723394, 25485.36962096329, 24775.00883042918, 25045.73315927186, 0.07425, 1.01575, 0.15675, 192.0, 0.0, 0.0, 0.0, 0.0, 0.0, 0.0, 0.0, 0.0, 0.0, 1.7074738086013615E9, 0.0, 2024-02-09 11:16:48.601
