%OpenBCI Raw EXG Data
%Number of channels = 16
%Sample Rate = 125 Hz
%Board = OpenBCI_GUI$BoardCytonSerialDaisy
Sample Index, EXG Channel 0, EXG Channel 1, EXG Channel 2, EXG Channel 3, EXG Channel 4, EXG Channel 5, EXG Channel 6, EXG Channel 7, EXG Channel 8, EXG Channel 9, EXG Channel 10, EXG Channel 11, EXG Channel 12, EXG Channel 13, EXG Channel 14, EXG Channel 15, Accel Channel 0, Accel Channel 1, Accel Channel 2, Other, Other, Other, Other, Other, Other, Other, Analog Channel 0, Analog Channel 1, Analog Channel 2, Timestamp, Other, Timestamp (Formatted)
0.0, -9849.452656442245, -11896.581875870452, 22291.528855744466, 1527.8311404980589, 47601.8843176227, 21151.299315845885, 37554.6634262399, 12390.801297521746, 0.0, 0.0, 0.0, 0.0, 0.0, 0.0, 0.0, 0.0, 0.0, 0.0, 0.0, 192.0, 0.0, 0.0, 0.0, 0.0, 0.0, 0.0, 0.0, 0.0, 0.0, 1.7074747767029517E9, 0.0, 2024-02-09 11:32:56.702
132.0, -9823.815205552008, -11880.578026840452, 22311.913646687706, 1531.4968265887294, 47489.16447033459, 21142.60448725277, 37498.47114067926, 12333.133796827055, 35208.1102380884, 8343.637984232662, 39797.01278174076, 28971.30298272407, 41883.8386993216, 37029.91152166266, 31503.979146954913, 24674.761256547125, 0.056, 0.512, 0.07, 192.0, 1.5, 64.0, 16.0, 0.0, 2.0, 48.0, 0.0, 0.0, 0.0, 1.7074747767029939E9, 0.0, 2024-02-09 11:32:56.702
0.0, -4076.086470614251, -5866.461201484347, 11154.079276809607, 779.2712186898254, 23691.485666213714, 10561.489827810507, 18840.53127056733, 6221.89864181264, 17788.971100922954, 4209.436978034613, 20127.16473664817, 14543.631916479102, 21220.433261446153, 18648.663896162976, 15849.063199646855, 12433.090798031188, 0.112, 0.998, 0.138, 192.0, 1.5, 64.0, 15.5, 24.0, 2.0, 40.0, 0.0, 0.0, 0.0, 1.7074747767919908E9, 0.0, 2024-02-09 11:32:56.791
2.0, -8055.3004807592015, -11681.133411065748, 22391.95524358216, 1551.8816175319694, 47628.28172782442, 21191.10777272079, 37802.14194084906, 12522.408368874594, 35467.85986040352, 9255.946785920476, 39828.99812805631, 29071.93053626186, 41888.30904821266, 37062.34390286731, 31411.420573165487, 24613.651587206317, 0.112, 0.998, 0.138, 192.0, 0.0, 0.0, 0.0, 0.0, 0.0, 0.0, 0.0, 0.0, 0.0, 1.707474776798941E9, 0.0, 2024-02-09 11:32:56.798
4.0, -8093.901943433517, -11710.525955024475, 22363.38971416828, 1554.988510011257, 47669.520696344465, 21174.075743445843, 37813.94366192146, 12534.634773091648, 35749.51419228485, 9310.08271099123, 40227.57443518334, 29149.088758121583, 42411.697496378125, 37267.71173092267, 31584.06544733828, 24781.55789155458, 0.112, 0.998, 0.138, 192.0, 0.0, 0.0, 0.0, 0.0, 0.0, 0.0, 0.0, 0.0, 0.0, 1.7074747768059316E9, 0.0, 2024-02-09 11:32:56.805
6.0, -8112.476243075877, -11711.665893991696, 22360.28282168899, 1575.7085771213267, 47442.11404825617, 21140.346961062787, 37710.74565777131, 12467.981871125921, 35443.854086858526, 9243.183939836495, 39849.42762248846, 29059.32415238907, 41964.93082820545, 37061.36042611128, 31413.007547021814, 24634.326950827475, 0.112, 0.998, 0.138, 192.0, 0.0, 0.0, 0.0, 0.0, 0.0, 0.0, 0.0, 0.0, 0.0, 1.7074747768151748E9, 0.0, 2024-02-09 11:32:56.815
8.0, -8031.741742103308, -11668.012937070482, 22433.68595048022, 1579.4413184453629, 47762.74982246755, 21224.68009289266, 37870.76179632686, 12614.944590919566, 35668.69028433446, 9317.36937968366, 40079.47177642248, 29155.10137738006, 42186.21309831299, 37204.97038423662, 31523.626330331128, 24721.431698969805, 0.106, 1.012, 0.136, 192.0, 1.5, 40.0, 15.5, 80.0, 2.0, 32.0, 0.0, 0.0, 0.0, 1.7074747768219495E9, 0.0, 2024-02-09 11:32:56.821
10.0, -8134.984449742371, -11725.948658698639, 22346.871775015807, 1582.9952458137568, 47462.74470838842, 21133.529679003917, 37707.303489125195, 12480.275330576342, 35625.0596791577, 9286.367510124148, 40107.18793954706, 29123.697176420355, 42310.0864660843, 37200.41062836774, 31527.67199607754, 24757.596821498493, 0.106, 1.012, 0.136, 192.0, 0.0, 0.0, 0.0, 0.0, 0.0, 0.0, 0.0, 0.0, 0.0, 1.7074747768299472E9, 0.0, 2024-02-09 11:32:56.829
12.0, -8045.2645474987685, -11668.638785915231, 22426.15341259878, 1578.8378213450696, 47612.21082356106, 21191.063069231877, 37779.14199580455, 12520.240249662429, 35477.82873843059, 9279.416117598548, 39852.176887056456, 29099.557292408623, 41909.29733625619, 37079.085359464334, 31410.861779554103, 24626.414433290298, 0.106, 1.012, 0.136, 192.0, 0.0, 0.0, 0.0, 0.0, 0.0, 0.0, 0.0, 0.0, 0.0, 1.707474776838012E9, 0.0, 2024-02-09 11:32:56.838
14.0, -8083.843658428629, -11688.867114647284, 22386.546121423977, 1578.6813591338826, 47655.48380082653, 21183.798752283903, 37792.39658026655, 12544.000154018422, 35764.95924770347, 9338.447074705015, 40249.143868582716, 29177.944860213385, 42436.44087749015, 37281.86038516288, 31584.49013048293, 24794.410144616384, 0.106, 1.012, 0.136, 192.0, 0.0, 0.0, 0.0, 0.0, 0.0, 0.0, 0.0, 0.0, 0.0, 1.707474776847028E9, 0.0, 2024-02-09 11:32:56.847
16.0, -8116.298391377734, -11699.953579897116, 22365.267260702523, 1579.9330568233797, 47421.99747824639, 21138.961152906555, 37688.617430760554, 12456.448370986984, 35452.571267196094, 9270.363661094148, 39863.41981451748, 29079.105446232017, 41975.16792716598, 37075.95611524059, 31412.5158086438, 24645.145195143843, 0.106, 1.012, 0.136, 192.0, 0.0, 0.0, 0.0, 0.0, 0.0, 0.0, 0.0, 0.0, 0.0, 1.7074747768540075E9, 0.0, 2024-02-09 11:32:56.854
18.0, -8038.916652073462, -11655.741829364519, 22432.63541849082, 1571.506449163729, 47737.44764774414, 21211.336101452842, 37853.57330484072, 12578.421840479594, 35661.38126389757, 9332.769731613365, 40078.15302349962, 29160.130519882503, 42189.56585998128, 37208.74782904957, 31515.982033727414, 24716.782536123104, 0.08600000000000001, 1.02, 0.136, 192.0, 1.0, 88.0, 15.5, 112.0, 2.0, 32.0, 0.0, 0.0, 0.0, 1.7074747768621557E9, 0.0, 2024-02-09 11:32:56.862
20.0, -8146.674412092497, -11707.262600334001, 22346.178870937692, 1581.4976789352513, 47451.43472569403, 21130.065158613346, 37722.36856488807, 12482.532856766327, 35618.71178373239, 9297.36456839616, 40106.3162215133, 29123.250141531247, 42312.81337890785, 37205.7303435481, 31524.453344875976, 24752.61238248496, 0.08600000000000001, 1.02, 0.136, 192.0, 0.0, 0.0, 0.0, 0.0, 0.0, 0.0, 0.0, 0.0, 0.0, 1.707474776871068E9, 0.0, 2024-02-09 11:32:56.871
22.0, -8060.240216283824, -11659.429867199644, 22422.28656080801, 1578.1225655224998, 47598.0845210653, 21184.044621472913, 37794.02825761178, 12519.9049734956, 35466.09407259156, 9283.439431600504, 39842.118602051574, 29098.350298208035, 41900.13312102951, 37074.36914138426, 31419.73542210286, 24625.58741874545, 0.08600000000000001, 1.02, 0.136, 192.0, 0.0, 0.0, 0.0, 0.0, 0.0, 0.0, 0.0, 0.0, 0.0, 1.7074747768772278E9, 0.0, 2024-02-09 11:32:56.877
24.0, -8098.461699302399, -11678.719422664575, 22387.19432201318, 1582.6599696469273, 47639.5470070299, 21177.629670814236, 37785.802815652234, 12554.81839833479, 35757.18084063302, 9337.061266548786, 40239.30910102238, 29173.273345622227, 42432.73048791057, 37285.92840265374, 31584.33366827174, 24792.152618426397, 0.08600000000000001, 1.02, 0.136, 192.0, 0.0, 0.0, 0.0, 0.0, 0.0, 0.0, 0.0, 0.0, 0.0, 1.707474776886031E9, 0.0, 2024-02-09 11:32:56.886
26.0, -8120.142891424048, -11676.975986597061, 22378.275975975514, 1593.0982343075557, 47418.80117878928, 21129.75223419097, 37689.42209356095, 12446.479492959917, 35447.87740086048, 9269.156666893563, 39863.95625638441, 29082.391152666947, 41981.895802247025, 37077.09605420781, 31416.44971566793, 24644.608753276916, 0.08600000000000001, 1.02, 0.136, 192.0, 0.0, 0.0, 0.0, 0.0, 0.0, 0.0, 0.0, 0.0, 0.0, 1.7074747768941605E9, 0.0, 2024-02-09 11:32:56.894
28.0, -8030.557099647177, -11623.957648749072, 22451.477939066644, 1593.4558622188406, 47750.34460429485, 21219.360377712295, 37848.164182682536, 12597.264361055419, 35668.44441514545, 9345.264356763882, 40096.70497139752, 29175.508520067757, 42196.20432808451, 37219.8342942994, 31525.258007676366, 24720.627036169415, 0.076, 1.028, 0.136, 192.0, 1.0, 48.0, 16.0, 16.0, 2.0, 32.0, 0.0, 0.0, 0.0, 1.7074747769011652E9, 0.0, 2024-02-09 11:32:56.901
30.0, -8128.6142025726085, -11671.186884783136, 22367.636545614787, 1597.635638431983, 47458.69904264201, 21135.40722553816, 37693.40070407399, 12476.028499129832, 35640.05769968721, 9316.296495949806, 40134.814695693814, 29144.77487144171, 42326.537350003404, 37220.52719837752, 31536.165658970556, 24766.98455416972, 0.076, 1.028, 0.136, 192.0, 0.0, 0.0, 0.0, 0.0, 0.0, 0.0, 0.0, 0.0, 0.0, 1.7074747769091704E9, 0.0, 2024-02-09 11:32:56.909
32.0, -8042.805855608685, -11623.085930715315, 22437.798671459994, 1592.2041645293432, 47604.3877130017, 21195.19814195611, 37763.160498519006, 12526.498738109916, 35483.23786058877, 9301.209068442473, 39865.02914011826, 29111.090792547562, 41914.52764445873, 37085.36619965627, 31416.941454045947, 24629.29780832503, 0.076, 1.028, 0.136, 192.0, 0.0, 0.0, 0.0, 0.0, 0.0, 0.0, 0.0, 0.0, 0.0, 1.7074747769191723E9, 0.0, 2024-02-09 11:32:56.919
34.0, -8077.74163219233, -11646.175282737648, 22400.314796008446, 1595.2440017752651, 47660.557646817884, 21186.9503482521, 37779.81254813821, 12558.349973958728, 35773.944648974495, 9355.635566191146, 40274.62485726176, 29192.38408713151, 42453.718775954105, 37308.77188548707, 31588.982831118446, 24809.38581340144, 0.076, 1.028, 0.136, 192.0, 0.0, 0.0, 0.0, 0.0, 0.0, 0.0, 0.0, 0.0, 0.0, 1.7074747769261427E9, 0.0, 2024-02-09 11:32:56.926
36.0, -8100.428652814467, -11649.63980312822, 22379.482970176097, 1606.0622460916336, 47429.35120217219, 21147.857147199767, 37678.06740737765, 12455.911929120057, 35464.21652605731, 9287.194524668996, 39896.165120144506, 29098.90909181942, 41999.84425304464, 37097.16792072868, 31421.32239595919, 24661.77489301859, 0.076, 1.028, 0.136, 192.0, 0.0, 0.0, 0.0, 0.0, 0.0, 0.0, 0.0, 0.0, 0.0, 1.7074747769343982E9, 0.0, 2024-02-09 11:32:56.934
38.0, -8022.041085009705, -11604.042244439393, 22444.90652619678, 1598.5297082101952, 47755.79842994195, 21240.348665755828, 37847.314816393235, 12592.436384253071, 35675.99930477134, 9357.155484814106, 40114.29579428385, 29184.516273083245, 42199.534738008355, 37224.55051237947, 31526.688519321506, 24738.2402108002, 0.07, 1.032, 0.136, 192.0, 1.0, 24.0, 16.0, 32.0, 2.0, 32.0, 0.0, 0.0, 0.0, 1.7074747769421852E9, 0.0, 2024-02-09 11:32:56.942
40.0, -8137.08551372117, -11661.68739338963, 22351.252716929044, 1597.41212098743, 47455.01100480688, 21145.621972754238, 37690.00323891678, 12462.237472800907, 35638.94011246444, 9320.006885529387, 40142.011957408424, 29147.233563331793, 42329.51013201596, 37215.45335238616, 31528.968397255947, 24771.678420505337, 0.07, 1.032, 0.136, 192.0, 0.0, 0.0, 0.0, 0.0, 0.0, 0.0, 0.0, 0.0, 0.0, 1.7074747769491355E9, 0.0, 2024-02-09 11:32:56.949
42.0, -8047.298556244202, -11606.903267729673, 22435.697607481197, 1603.2012228013543, 47617.843463163794, 21214.77827009896, 37780.32663826068, 12537.38403765965, 35474.36421804002, 9312.630809859134, 39870.304151809716, 29119.539751951666, 41915.0417345812, 37094.888042794235, 31416.44971566793, 24636.807994462015, 0.07, 1.032, 0.136, 192.0, 0.0, 0.0, 0.0, 0.0, 0.0, 0.0, 0.0, 0.0, 0.0, 1.7074747769582198E9, 0.0, 2024-02-09 11:32:56.958
44.0, -8085.69885321842, -11641.101436746292, 22402.99700534308, 1599.379074499497, 47675.175687691655, 21204.96585428308, 37805.517054261814, 12571.626910165181, 35763.61814303615, 9365.291519795837, 40276.92708694066, 29198.10613371207, 42455.1716393437, 37313.68926926723, 31604.07025862578, 24822.66274960789, 0.07, 1.032, 0.136, 192.0, 0.0, 0.0, 0.0, 0.0, 0.0, 0.0, 0.0, 0.0, 0.0, 1.707474776966253E9, 0.0, 2024-02-09 11:32:56.966
46.0, -8115.22550764388, -11651.53970140692, 22386.300252234967, 1599.7143506663265, 47441.15292324459, 21149.086493144812, 37679.65438123398, 12443.819635369735, 35453.04065382965, 9278.700861775978, 39892.41002707601, 29091.264795215702, 42004.046381002234, 37091.043542747924, 31431.42538445299, 24666.424055865296, 0.07, 1.032, 0.136, 192.0, 0.0, 0.0, 0.0, 0.0, 0.0, 0.0, 0.0, 0.0, 0.0, 1.7074747769742742E9, 0.0, 2024-02-09 11:32:56.974
48.0, -8042.180006763936, -11616.20159342308, 22445.241802363613, 1580.6259609014942, 47770.461174304626, 21212.587799142337, 37825.14188589357, 12547.19645347553, 35662.230630186874, 9337.307135737794, 40100.81769237729, 29170.457025820855, 42197.63483972965, 37215.16277970824, 31526.844981532693, 24722.41517572584, 0.07200000000000001, 1.036, 0.14400000000000002, 192.0, 1.0, 32.0, 16.0, 48.0, 2.0, 64.0, 0.0, 0.0, 0.0, 1.707474776982186E9, 0.0, 2024-02-09 11:32:56.982
50.0, -8147.903758037539, -11667.968233581572, 22357.310039676435, 1593.7240831523043, 47478.525039973865, 21131.607428980762, 37685.26466909226, 12430.900327074567, 35630.62526352707, 9297.766899796356, 40136.93811141707, 29129.352167767545, 42342.87647520024, 37208.74782904957, 31538.222019460445, 24756.412179042363, 0.07200000000000001, 1.036, 0.14400000000000002, 192.0, 0.0, 0.0, 0.0, 0.0, 0.0, 0.0, 0.0, 0.0, 0.0, 1.7074747769901762E9, 0.0, 2024-02-09 11:32:56.990
52.0, -8053.177065035948, -11605.718625273541, 22431.070796378946, 1597.121548309511, 47621.30798355436, 21193.81233379988, 37769.95542883342, 12483.404574800084, 35472.19609882785, 9290.480231103926, 39869.164212842494, 29110.643757658454, 41924.720039930355, 37071.61987681626, 31425.770393105795, 24624.291017567044, 0.07200000000000001, 1.036, 0.14400000000000002, 192.0, 0.0, 0.0, 0.0, 0.0, 0.0, 0.0, 0.0, 0.0, 0.0, 1.707474776998299E9, 0.0, 2024-02-09 11:32:56.998
54.0, -8087.755213708308, -11627.243355184002, 22389.451848203167, 1594.729911652793, 47680.54010636093, 21173.069914945354, 37795.52582449029, 12492.121755137654, 35775.44221585301, 9348.840635876732, 40285.890136467235, 29194.552206343677, 42470.3261220844, 37299.22769060465, 31602.706802214005, 24799.774563285657, 0.07200000000000001, 1.036, 0.14400000000000002, 192.0, 0.0, 0.0, 0.0, 0.0, 0.0, 0.0, 0.0, 0.0, 0.0, 1.7074747770052376E9, 0.0, 2024-02-09 11:32:57.005
56.0, -8111.626876786576, -11632.563070364366, 22374.163254995736, 1604.1399960684773, 47446.47263842495, 21124.030187610413, 37681.82250044614, 12373.702213013437, 35466.47405224729, 9274.901065218577, 39905.99988770484, 29097.389173196458, 42027.068677791205, 37085.56736535637, 31431.715957130906, 24642.06065440901, 0.07200000000000001, 1.036, 0.14400000000000002, 192.0, 0.0, 0.0, 0.0, 0.0, 0.0, 0.0, 0.0, 0.0, 0.0, 1.7074747770142615E9, 0.0, 2024-02-09 11:32:57.014
58.0, -8037.039105539216, -11607.104433429771, 22433.708302224673, 1585.2080685148321, 47776.540848796474, 21208.609188629292, 37847.806554771254, 12515.389921115628, 35671.66306634701, 9343.409161974092, 40113.24526229445, 29176.96138345735, 42216.63382251666, 37210.62537558382, 31530.376557156633, 24707.238341240685, 0.082, 1.02, 0.146, 192.0, 1.0, 72.0, 15.5, 112.0, 2.0, 72.0, 0.0, 0.0, 0.0, 1.7074747770222273E9, 0.0, 2024-02-09 11:32:57.022
60.0, -8134.962097997916, -11655.674774131152, 22350.738626806575, 1598.5520599546505, 47485.655246455106, 21132.032112125413, 37707.45995133638, 12418.875088557612, 35643.29870263323, 9304.561830110768, 40154.752451747954, 29140.19276382837, 42363.41772835466, 37214.04519248548, 31539.071385749747, 24757.261545331665, 0.082, 1.02, 0.146, 192.0, 0.0, 0.0, 0.0, 0.0, 0.0, 0.0, 0.0, 0.0, 0.0, 1.707474777029297E9, 0.0, 2024-02-09 11:32:57.029
62.0, -8052.59591968011, -11608.82551775283, 22421.705415452172, 1586.3927109709634, 47614.75892242896, 21180.781266782436, 37772.32471374568, 12455.12961806412, 35475.88413666298, 9296.068167217752, 39871.60055298812, 29112.43189721488, 41934.711269701875, 37069.74233028202, 31416.561474390208, 24622.882857666358, 0.082, 1.02, 0.146, 192.0, 0.0, 0.0, 0.0, 0.0, 0.0, 0.0, 0.0, 0.0, 0.0, 1.707474777037326E9, 0.0, 2024-02-09 11:32:57.037
64.0, -8087.509344519299, -11632.406608153178, 22392.826961615916, 1587.9349813383797, 47679.802498793906, 21182.614109827773, 37788.35091452014, 12488.791345213813, 35769.16137566106, 9350.56172019979, 40276.79297647393, 29188.427828362925, 42468.806203461434, 37276.719483938155, 31590.614508463685, 24793.203150415797, 0.082, 1.02, 0.146, 192.0, 0.0, 0.0, 0.0, 0.0, 0.0, 0.0, 0.0, 0.0, 0.0, 1.7074747770463023E9, 0.0, 2024-02-09 11:32:57.046
66.0, -8122.914507736506, -11641.615526868765, 22375.392600940777, 1595.6239814310052, 47427.36189691567, 21137.91062091716, 37672.30065730818, 12394.176410934499, 35456.54987770914, 9279.527876320824, 39896.90272771153, 29083.195815467338, 42021.45838993292, 37074.92793499565, 31423.959901804916, 24649.39202659035, 0.082, 1.02, 0.146, 192.0, 0.0, 0.0, 0.0, 0.0, 0.0, 0.0, 0.0, 0.0, 0.0, 1.7074747770533357E9, 0.0, 2024-02-09 11:32:57.053
68.0, -8046.248024254803, -11617.587401579309, 22444.504194796587, 1584.2916469921647, 47752.37861304029, 21215.649988132714, 37837.05536568825, 12520.642581062626, 35660.53189760827, 9341.352801484205, 40100.147140043635, 29164.958496684852, 42199.78060719736, 37202.46698885763, 31519.33479539571, 24710.211123253244, 0.08, 1.018, 0.16, 192.0, 1.0, 64.0, 15.5, 104.0, 2.5, 0.0, 0.0, 0.0, 0.0, 1.7074747770614989E9, 0.0, 2024-02-09 11:32:57.061
70.0, -8153.737563340374, -11678.764126153485, 22350.023370984003, 1580.5812574125837, 47464.77871713385, 21119.291617785886, 37694.51829129676, 12390.130745188088, 35640.05769968721, 9304.003036499385, 40152.27140811341, 29131.14030732397, 42355.72872826204, 37211.05005872847, 31535.986845014915, 24751.248926073185, 0.08, 1.018, 0.16, 192.0, 0.0, 0.0, 0.0, 0.0, 0.0, 0.0, 0.0, 0.0, 0.0, 1.7074747770693343E9, 0.0, 2024-02-09 11:32:57.069
72.0, -8076.0205478692715, -11624.471738871543, 22419.514944495553, 1571.9981875417457, 47595.78229138641, 21168.28664163192, 37765.48507994236, 12437.65055390007, 35463.411863256915, 9283.685300789512, 39857.25073304781, 29090.773056837686, 41920.33909801711, 37061.740405767014, 31410.92883478747, 24606.119049324876, 0.08, 1.018, 0.16, 192.0, 0.0, 0.0, 0.0, 0.0, 0.0, 0.0, 0.0, 0.0, 0.0, 1.7074747770783987E9, 0.0, 2024-02-09 11:32:57.078
74.0, -8114.867879732595, -11649.617451383765, 22377.15838875275, 1564.4209461713967, 47654.43326883713, 21155.881423459225, 37787.14392031955, 12461.410458256061, 35761.40532033507, 9331.607440901691, 40255.78233668594, 29167.171319385925, 42459.64198823476, 37267.37645475584, 31582.210252548488, 24774.964126940267, 0.08, 1.018, 0.16, 192.0, 0.0, 0.0, 0.0, 0.0, 0.0, 0.0, 0.0, 0.0, 0.0, 1.707474777085382E9, 0.0, 2024-02-09 11:32:57.085
76.0, -8142.360525412622, -11664.101381790804, 22355.34308616437, 1574.926266065391, 47404.92074548254, 21117.54818171837, 37680.41434054546, 12379.625425294093, 35453.24181952975, 9254.136294619597, 39876.719102468385, 29062.56515533509, 42015.15519799652, 37053.224391129545, 31408.671308597484, 24625.40860478981, 0.08, 1.018, 0.16, 192.0, 0.0, 0.0, 0.0, 0.0, 0.0, 0.0, 0.0, 0.0, 0.0, 1.7074747770934105E9, 0.0, 2024-02-09 11:32:57.093
78.0, -8054.071134814159, -11620.4931283585, 22421.034863118515, 1564.8009258271368, 47732.61967094179, 21198.77442106896, 37845.12434543662, 12506.024540188855, 35660.084862719166, 9320.431568674037, 40075.02377927587, 29145.065444119628, 42177.94295286453, 37182.26101187003, 31502.10160042067, 24690.340422432473, 0.078, 1.006, 0.15, 192.0, 1.0, 56.0, 15.5, 56.0, 2.0, 88.0, 0.0, 0.0, 0.0, 1.7074747771024387E9, 0.0, 2024-02-09 11:32:57.102
80.0, -8158.476133164899, -11672.773858639463, 22332.14197541976, 1571.1711729968993, 47450.54065591582, 21113.770736905426, 37702.475512322846, 12393.528210345294, 35647.52318233528, 9289.295588647794, 40139.82148645181, 29118.131592050984, 42345.849257212794, 37194.75563702055, 31523.648682075585, 24739.2907427896, 0.078, 1.006, 0.15, 192.0, 0.0, 0.0, 0.0, 0.0, 0.0, 0.0, 0.0, 0.0, 0.0, 1.707474777109422E9, 0.0, 2024-02-09 11:32:57.109
82.0, -8072.667786200976, -11618.973209735539, 22407.66851993424, 1573.0710712756004, 47581.007788301446, 21170.56651956636, 37773.03996956825, 12438.745789378381, 35466.16112782492, 9281.919512977543, 39844.80081138621, 29079.060742743106, 41899.99901056278, 37043.47903054703, 31394.857930524104, 24593.87029336337, 0.078, 1.006, 0.15, 192.0, 0.0, 0.0, 0.0, 0.0, 0.0, 0.0, 0.0, 0.0, 0.0, 1.7074747771174872E9, 0.0, 2024-02-09 11:32:57.117
84.0, -8098.707568491408, -11640.721457090553, 22377.89599631977, 1577.8543445890361, 47666.97259747655, 21182.122371449754, 37810.79206595327, 12501.129508153143, 35773.36350361866, 9332.233289746438, 40265.17006935717, 29172.759255499754, 42441.604130459324, 37276.94300138271, 31586.904118884104, 24783.368382855464, 0.078, 1.006, 0.15, 192.0, 0.0, 0.0, 0.0, 0.0, 0.0, 0.0, 0.0, 0.0, 0.0, 1.7074747771263924E9, 0.0, 2024-02-09 11:32:57.126
86.0, -8131.832853774173, -11653.707820619085, 22359.299344932955, 1584.9621993258238, 47425.752571314886, 21146.180766365622, 37699.45802682138, 12410.850812298157, 35462.18251731188, 9256.617338254135, 39884.98924791685, 29071.617611839487, 41999.95601176692, 37070.23406866003, 31422.4176314375, 24642.418282320297, 0.078, 1.006, 0.15, 192.0, 0.0, 0.0, 0.0, 0.0, 0.0, 0.0, 0.0, 0.0, 0.0, 1.7074747771344411E9, 0.0, 2024-02-09 11:32:57.134
88.0, -8053.4229342249555, -11615.754558533974, 22422.95711314167, 1566.0079200277235, 47758.726508465596, 21220.947351568622, 37851.56164783974, 12538.367514415684, 35659.68253131897, 9326.108911765685, 40076.6107531322, 29147.300618565157, 42169.672807416064, 37187.088988672374, 31513.277472648322, 24703.080916772, 0.076, 1.006, 0.15, 192.0, 1.0, 48.0, 15.5, 56.0, 2.0, 88.0, 0.0, 0.0, 0.0, 1.7074747771414275E9, 0.0, 2024-02-09 11:32:57.141
90.0, -8158.744354098363, -11676.059565074393, 22339.272181901, 1576.7144056218156, 47480.78256616385, 21135.720149960536, 37713.62903280604, 12427.771082850824, 35642.00230145482, 9287.194524668996, 40133.25007358195, 29109.883798346975, 42346.00571942398, 37205.909157503746, 31532.075289735236, 24749.729007450227, 0.076, 1.006, 0.15, 192.0, 0.0, 0.0, 0.0, 0.0, 0.0, 0.0, 0.0, 0.0, 0.0, 1.7074747771494217E9, 0.0, 2024-02-09 11:32:57.149
92.0, -8074.791201924229, -11620.023741724937, 22410.596598457887, 1578.7484143672484, 47607.60636420326, 21189.47609537555, 37781.108949316615, 12465.746696680391, 35463.88124989048, 9272.710594261956, 39841.626863673555, 29084.246347456738, 41904.24584200929, 37058.34294060981, 31410.481799898364, 24609.3600522709, 0.076, 1.006, 0.15, 192.0, 0.0, 0.0, 0.0, 0.0, 0.0, 0.0, 0.0, 0.0, 0.0, 1.7074747771584775E9, 0.0, 2024-02-09 11:32:57.158
94.0, -8105.03311217226, -11632.518366875454, 22378.14186550878, 1578.6590073894272, 47688.944362276125, 21181.407115627186, 37806.03114438429, 12500.593066286216, 35762.96994244694, 9330.691019379023, 40251.87078140626, 29164.265592606735, 42443.705194438124, 37280.31811479546, 31586.30062178381, 24790.297423636606, 0.076, 1.006, 0.15, 192.0, 0.0, 0.0, 0.0, 0.0, 0.0, 0.0, 0.0, 0.0, 0.0, 1.7074747771654863E9, 0.0, 2024-02-09 11:32:57.165
96.0, -8140.147702711547, -11659.340460221823, 22354.94075476417, 1583.889315591969, 47434.693269097006, 21133.663789470647, 37687.52219528225, 12393.863486512124, 35454.314703263604, 9251.364678307138, 39877.30024782423, 29058.966524477786, 42016.69746836394, 37069.33999888182, 31415.39918367853, 24639.289038096555, 0.076, 1.006, 0.15, 192.0, 0.0, 0.0, 0.0, 0.0, 0.0, 0.0, 0.0, 0.0, 0.0, 1.707474777173484E9, 0.0, 2024-02-09 11:32:57.173
98.0, -8061.536617462232, -11631.087855230315, 22421.638360218807, 1562.3198821925978, 47760.84992418885, 21195.712232078582, 37841.458659345946, 12491.227685359441, 35649.69130154745, 9304.137146966117, 40062.1044709807, 29135.38713877048, 42177.27240053086, 37174.54966003295, 31505.3873068556, 24693.1790939783, 0.08299999999999999, 1.01, 0.149, 192.0, 1.0, 104.0, 15.5, 88.0, 2.0, 80.0, 0.0, 0.0, 0.0, 1.7074747771814787E9, 0.0, 2024-02-09 11:32:57.181
100.0, -8170.747240870863, -11692.868076904784, 22326.97872245058, 1562.2304752147766, 47466.47744971245, 21106.864047868738, 37686.78458771522, 12385.772155019302, 35639.588313053646, 9262.317033090238, 40126.20927407852, 29096.38334469597, 42357.40510909619, 37186.485491572086, 31522.173466941535, 24729.590085695992, 0.08299999999999999, 1.01, 0.149, 192.0, 0.0, 0.0, 0.0, 0.0, 0.0, 0.0, 0.0, 0.0, 0.0, 1.7074747771907575E9, 0.0, 2024-02-09 11:32:57.190
102.0, -8074.701794946408, -11632.183090708624, 22415.491630493598, 1578.2566759892318, 47594.26237276344, 21189.453743631097, 37774.62694342458, 12482.152877110586, 35460.66259868891, 9245.173245093018, 39832.70851763589, 29059.435911111344, 41910.14670254549, 37038.06990838885, 31394.83557877965, 24594.71965965267, 0.08299999999999999, 1.01, 0.149, 192.0, 0.0, 0.0, 0.0, 0.0, 0.0, 0.0, 0.0, 0.0, 0.0, 1.707474777197536E9, 0.0, 2024-02-09 11:32:57.197
104.0, -8108.452929073922, -11657.038230542927, 22386.456714446154, 1573.2945887201536, 47668.894847499716, 21186.168037196167, 37798.85623441413, 12529.560927100292, 35770.56953556175, 9308.22751620144, 40256.609351230785, 29150.87689767801, 42460.290188823965, 37267.24234428911, 31588.133464829145, 24788.732801524737, 0.08299999999999999, 1.01, 0.149, 192.0, 0.0, 0.0, 0.0, 0.0, 0.0, 0.0, 0.0, 0.0, 0.0, 1.707474777205493E9, 0.0, 2024-02-09 11:32:57.205
106.0, -8144.886272536072, -11668.661137659687, 22361.445112400666, 1581.0059405572345, 47401.702094280976, 21132.32268480333, 37662.82351765913, 12411.253143698352, 35457.35454050953, 9224.475529727404, 39881.07769263717, 29043.11913765897, 42030.15321852604, 37056.73361500903, 31413.141657488544, 24635.712758983704, 0.08299999999999999, 1.01, 0.149, 192.0, 0.0, 0.0, 0.0, 0.0, 0.0, 0.0, 0.0, 0.0, 0.0, 1.7074747772135813E9, 0.0, 2024-02-09 11:32:57.213
108.0, -8058.608538938587, -11628.651515084686, 22439.363293571867, 1573.02636778669, 47729.93746160716, 21212.76661309798, 37820.98446142489, 12539.507453382905, 35649.646598058534, 9294.145917194595, 40063.579686114754, 29122.89251361996, 42173.11497606218, 37174.08027339939, 31496.960699195948, 24694.07316375651, 0.0865, 1.022, 0.1485, 192.0, 1.0, 104.0, 16.0, 40.0, 2.0, 80.0, 0.0, 0.0, 0.0, 1.7074747772215767E9, 0.0, 2024-02-09 11:32:57.221
110.0, -8161.381859944089, -11680.060527331892, 22355.365437908822, 1590.8183563731143, 47443.72337385695, 21129.08168185731, 37663.62818045952, 12423.70306535996, 35645.19860091193, 9272.59883553968, 40139.06152714032, 29103.04416454365, 42353.56060904987, 37203.76339003604, 31519.62536807363, 24751.293629562097, 0.0865, 1.022, 0.1485, 192.0, 0.0, 0.0, 0.0, 0.0, 0.0, 0.0, 0.0, 0.0, 0.0, 1.7074747772295847E9, 0.0, 2024-02-09 11:32:57.229
112.0, -8076.087603102637, -11619.4425963691, 22437.597505759895, 1598.5297082101952, 47560.578293869294, 21187.62090058576, 37741.4569546529, 12477.101382863688, 35459.74617716625, 9264.999242424876, 39846.63365443154, 29073.629268840465, 41899.01553380675, 37059.05819643238, 31394.187378190447, 24611.43876450524, 0.0865, 1.022, 0.1485, 192.0, 0.0, 0.0, 0.0, 0.0, 0.0, 0.0, 0.0, 0.0, 0.0, 1.7074747772375877E9, 0.0, 2024-02-09 11:32:57.237
114.0, -8101.4121295705, -11632.496015130999, 22417.05625260547, 1607.3586472700415, 47644.17381813214, 21199.28851119143, 37760.366530462095, 12520.329656640251, 35760.399491834585, 9335.071961292262, 40264.655979234696, 29163.907964695452, 42426.49435120754, 37295.07026613597, 31585.11597932768, 24798.120534195965, 0.0865, 1.022, 0.1485, 192.0, 0.0, 0.0, 0.0, 0.0, 0.0, 0.0, 0.0, 0.0, 0.0, 1.707474777246611E9, 0.0, 2024-02-09 11:32:57.246
116.0, -8135.207967186924, -11642.934279791627, 22395.82209537293, 1621.216728832332, 47388.91689645254, 21146.51604253245, 37640.76234588175, 12400.569009848716, 35457.6674649319, 9256.863207443144, 39906.73749527187, 29078.725466576278, 41996.78206405426, 37092.518757881975, 31429.54783791874, 24663.987715719668, 0.0865, 1.022, 0.1485, 192.0, 0.0, 0.0, 0.0, 0.0, 0.0, 0.0, 0.0, 0.0, 0.0, 1.7074747772536173E9, 0.0, 2024-02-09 11:32:57.253
118.0, -8053.154713291492, -11597.895514714184, 22458.809311247984, 1603.0000571012565, 47710.71496137559, 21225.127127781765, 37793.00007736684, 12514.205278659498, 35642.33757762165, 9312.675513348046, 40079.85175607822, 29147.63589473199, 42142.73895534741, 37197.77312252201, 31511.37757436962, 24710.65815814235, 0.08925, 1.032, 0.15225, 192.0, 1.0, 112.0, 16.0, 72.0, 2.0, 112.0, 0.0, 0.0, 0.0, 1.707474777261626E9, 0.0, 2024-02-09 11:32:57.261
120.0, -8158.90081630955, -11664.503713191, 22366.295440947466, 1605.4587489913404, 47427.04897249329, 21156.775493237437, 37663.538773481705, 12435.325972476718, 35653.11111844911, 9281.830105999721, 40158.75341400545, 29119.875028118495, 42333.60050125128, 37229.35613743736, 31539.38431017212, 24772.483083305728, 0.08925, 1.032, 0.15225, 192.0, 0.0, 0.0, 0.0, 0.0, 0.0, 0.0, 0.0, 0.0, 0.0, 1.70747477726963E9, 0.0, 2024-02-09 11:32:57.269
122.0, -8082.279036316757, -11618.43676786861, 22432.43425279072, 1593.6123244300277, 47554.923302522104, 21208.519781651474, 37727.84474227962, 12473.480400261928, 35453.37592999649, 9248.391896294583, 39852.28864577874, 29079.530129376668, 41881.514117898245, 37061.78510925593, 31406.816113807694, 24623.642816977837, 0.08925, 1.032, 0.15225, 192.0, 0.0, 0.0, 0.0, 0.0, 0.0, 0.0, 0.0, 0.0, 0.0, 1.707474777277642E9, 0.0, 2024-02-09 11:32:57.277
124.0, -8118.242993145346, -11655.808884597885, 22385.450885945666, 1570.0312340296787, 47644.95612918808, 21189.744316309014, 37760.72415837338, 12489.350138825195, 35756.01854992134, 9302.974856254443, 40263.940723412124, 29157.20244135886, 42420.101752293325, 37279.379341528336, 31585.58536596124, 24794.94658648331, 0.08925, 1.032, 0.15225, 192.0, 0.0, 0.0, 0.0, 0.0, 0.0, 0.0, 0.0, 0.0, 0.0, 1.7074747772856224E9, 0.0, 2024-02-09 11:32:57.285
126.0, -8156.0844965081815, -11674.4055359847, 22354.225498941603, 1569.606550885028, 47384.11127139465, 21127.517059745438, 37642.50578194926, 12364.649756509038, 35454.471165474795, 9210.7739103763, 39893.86289046561, 29043.99085569273, 42003.04055250175, 37062.030978444935, 31410.25828245381, 24635.153965372323, 0.08925, 1.032, 0.15225, 192.0, 0.0, 0.0, 0.0, 0.0, 0.0, 0.0, 0.0, 0.0, 0.0, 1.7074747772936969E9, 0.0, 2024-02-09 11:32:57.293
128.0, -8065.828152397651, -11634.082988987326, 22426.175764343236, 1561.4928676477514, 47721.89083360325, 21209.19033398513, 37813.138999121074, 12491.51825803736, 35645.57858056767, 9270.7883442388, 40068.4076629171, 29119.539751951666, 42141.509609402376, 37162.16679360471, 31489.1822921255, 24680.237433938677, 0.091625, 1.028, 0.15812500000000002, 192.0, 1.0, 120.0, 16.0, 0.0, 2.5, 16.0, 0.0, 0.0, 0.0, 1.7074747773026884E9, 0.0, 2024-02-09 11:32:57.302
130.0, -8173.4294502055, -11695.863210661795, 22332.924286475692, 1566.7231758502933, 47453.93812107303, 21125.57245797783, 37681.62133474604, 12388.968454476411, 35653.24522891584, 9240.97111713542, 40152.51727730242, 29098.774981352686, 42344.26228335647, 37190.5758608074, 31523.872199520138, 24745.03514111461, 0.091625, 1.028, 0.15812500000000002, 192.0, 0.0, 0.0, 0.0, 0.0, 0.0, 0.0, 0.0, 0.0, 0.0, 1.7074747773096907E9, 0.0, 2024-02-09 11:32:57.309
132.0, -8095.667731245486, -11649.30452696139, 22402.86289487635, 1564.9126845494134, 47565.71919509402, 21182.9493859946, 37751.17996349096, 12435.191862009986, 35452.615970685, 9219.714608158423, 39838.609378172085, 29051.501041829713, 41885.492728411285, 37037.846390944294, 31391.795741533726, 24598.117124809876, 0.091625, 1.028, 0.15812500000000002, 192.0, 0.0, 0.0, 0.0, 0.0, 0.0, 0.0, 0.0, 0.0, 0.0, 1.7074747773176756E9, 0.0, 2024-02-09 11:32:57.317
134.0, -8114.331437865668, -11668.616434170775, 22382.791028355485, 1565.2703124606983, 47673.141678946224, 21194.035851244433, 37795.68228670148, 12486.891446935111, 35762.142927902096, 9284.378204867626, 40248.070984848855, 29136.817650415618, 42423.230996517064, 37271.489175735616, 31578.67867692455, 24785.581205556537, 0.091625, 1.028, 0.15812500000000002, 192.0, 0.0, 0.0, 0.0, 0.0, 0.0, 0.0, 0.0, 0.0, 0.0, 1.707474777325722E9, 0.0, 2024-02-09 11:32:57.325
136.0, -8149.781304571785, -11687.056623346403, 22355.298382675457, 1578.2343242447764, 47404.65252454907, 21138.871745928736, 37663.806994415165, 12382.97818696239, 35467.23401155877, 9210.796262120755, 39891.0689224087, 29038.89465795692, 42017.32331720869, 37076.4031501297, 31416.717936601395, 24650.330799857475, 0.091625, 1.028, 0.15812500000000002, 192.0, 0.0, 0.0, 0.0, 0.0, 0.0, 0.0, 0.0, 0.0, 0.0, 1.707474777332984E9, 0.0, 2024-02-09 11:32:57.332
138.0, -8064.330585519146, -11638.68744834512, 22432.277790579534, 1579.2848562341758, 47733.64785118674, 21226.66939814918, 37819.75511547984, 12517.178060672053, 35643.72338577788, 9276.063355930251, 40054.03549123234, 29116.231693772283, 42137.441591911505, 37179.22117462411, 31491.953908437958, 24702.052736527057, 0.08981249999999999, 1.02, 0.1610625, 192.0, 1.0, 96.0, 15.5, 80.0, 2.5, 16.0, 0.0, 0.0, 0.0, 1.7074747773417313E9, 0.0, 2024-02-09 11:32:57.341
140.0, -8163.5946826451645, -11696.310245550902, 22346.51414710452, 1588.6949406498602, 47462.83411536624, 21152.41690306865, 37682.470701035345, 12434.02957129831, 35658.9672754964, 9263.792248224288, 40146.437602810576, 29101.34543196505, 42348.37500433624, 37216.392125653285, 31524.453344875976, 24771.589013527515, 0.08981249999999999, 1.02, 0.1610625, 192.0, 0.0, 0.0, 0.0, 0.0, 0.0, 0.0, 0.0, 0.0, 0.0, 1.707474777349763E9, 0.0, 2024-02-09 11:32:57.349
142.0, -8085.251818329313, -11665.509541691488, 22411.781240914017, 1576.2673707327094, 47566.099174749754, 21196.829819301347, 37737.076012739664, 12474.106249106677, 35456.1698980534, 9239.428846768003, 39832.619110658066, 29066.007323981208, 41883.14579524348, 37056.04071093091, 31390.812264777695, 24622.234657077155, 0.08981249999999999, 1.02, 0.1610625, 192.0, 0.0, 0.0, 0.0, 0.0, 0.0, 0.0, 0.0, 0.0, 0.0, 1.70747477735775E9, 0.0, 2024-02-09 11:32:57.357
144.0, -8105.837774972651, -11669.108172548793, 22381.62873764381, 1566.343196194553, 47660.982329962535, 21182.256481916487, 37770.983609078365, 12496.502697050893, 35760.19832613449, 9300.516164364359, 40240.65020568969, 29145.065444119628, 42407.87534807627, 37273.299667036496, 31564.9994093179, 24788.1516561689, 0.08981249999999999, 1.02, 0.1610625, 192.0, 0.0, 0.0, 0.0, 0.0, 0.0, 0.0, 0.0, 0.0, 0.0, 1.7074747773647673E9, 0.0, 2024-02-09 11:32:57.364
146.0, -8150.630670861086, -11693.493925749532, 22346.737664549073, 1570.277103218687, 47391.46499532044, 21121.638550953692, 37646.17146803993, 12379.088983427166, 35454.672331174894, 9218.7758348913, 39880.47419553688, 29040.571038791066, 41996.40208439852, 37061.829812744836, 31401.183474204958, 24635.958628172713, 0.08981249999999999, 1.02, 0.1610625, 192.0, 0.0, 0.0, 0.0, 0.0, 0.0, 0.0, 0.0, 0.0, 0.0, 1.7074747773740993E9, 0.0, 2024-02-09 11:32:57.374
148.0, -8064.889379130528, -11644.051867014394, 22420.29725555149, 1564.1750769823882, 47721.60026092533, 21204.027081015956, 37811.5743770092, 12509.109080923687, 35630.26763561578, 9282.768879266845, 40041.294996892815, 29118.019833328704, 42108.89841424208, 37163.26202908302, 31481.873271688615, 24681.355021161442, 0.08590624999999999, 1.008, 0.15853125, 192.0, 1.0, 72.0, 15.5, 16.0, 2.0, 112.0, 0.0, 0.0, 0.0, 1.707474777381821E9, 0.0, 2024-02-09 11:32:57.381
150.0, -8174.412926961533, -11700.691187464141, 22326.71050151712, 1578.7484143672484, 47454.452211195494, 21121.973827120524, 37684.41530280296, 12408.123899474609, 35642.7622607663, 9248.816579439233, 40133.361832304225, 29092.158864993915, 42321.239986567496, 37192.475759086105, 31519.647719818084, 24742.79996666908, 0.08590624999999999, 1.008, 0.15853125, 192.0, 0.0, 0.0, 0.0, 0.0, 0.0, 0.0, 0.0, 0.0, 0.0, 1.7074747773888135E9, 0.0, 2024-02-09 11:32:57.388
152.0, -8103.244972615836, -11663.49788469051, 22394.972729083627, 1575.1274317654886, 47553.26927343241, 21180.647156315703, 37750.42000417948, 12457.70006867648, 35441.93183683537, 9226.44248323947, 39810.78145632523, 29049.109405172996, 41857.15071644196, 37046.04948115939, 31390.946375244424, 24601.134610311343, 0.08590624999999999, 1.008, 0.15853125, 192.0, 0.0, 0.0, 0.0, 0.0, 0.0, 0.0, 0.0, 0.0, 0.0, 1.7074747773978007E9, 0.0, 2024-02-09 11:32:57.397
154.0, -8126.289621149257, -11684.575579711865, 22372.039839272482, 1565.1138502495112, 47658.00954794998, 21177.853188258792, 37780.50545221633, 12490.870057448157, 35745.55793351626, 9280.220780398939, 40221.89709209169, 29128.27928403369, 42389.189289711634, 37272.8973356363, 31570.229717520444, 24775.81349322957, 0.08590624999999999, 1.008, 0.15853125, 192.0, 0.0, 0.0, 0.0, 0.0, 0.0, 0.0, 0.0, 0.0, 0.0, 1.7074747774058409E9, 0.0, 2024-02-09 11:32:57.405
156.0, -8167.953272813949, -11699.372434541277, 22350.649219828752, 1580.6259609014942, 47393.25313487687, 21137.396530794686, 37664.67871244892, 12391.047166710756, 35448.34678749404, 9202.839041094667, 39868.538363997744, 29028.99283516322, 42001.051247245225, 37076.984295485534, 31408.73836383085, 24637.992636918145, 0.08590624999999999, 1.008, 0.15853125, 192.0, 0.0, 0.0, 0.0, 0.0, 0.0, 0.0, 0.0, 0.0, 0.0, 1.7074747774129488E9, 0.0, 2024-02-09 11:32:57.412
158.0, -8075.104126346604, -11655.4512566866, 22419.179668328725, 1567.9301700508797, 47727.29995576143, 21227.809337116403, 37827.86879871712, 12529.538575355838, 35620.38816456654, 9265.178056380517, 40025.53701705182, 29104.877007588984, 42120.23074868092, 37179.914078702226, 31488.04235315828, 24693.715535845226, 0.08595312499999999, 1.0070000000000001, 0.15426562500000002, 192.0, 1.0, 88.0, 15.5, 56.0, 2.0, 88.0, 0.0, 0.0, 0.0, 1.7074747774208283E9, 0.0, 2024-02-09 11:32:57.420
160.0, -8175.3964037175665, -11712.895239936739, 22330.353835863334, 1576.8485160885473, 47452.507609427885, 21139.028208139924, 37669.50668925127, 12403.184163949987, 35643.29870263323, 9236.947803133466, 40127.59508223475, 29080.84888229953, 42347.23506536902, 37215.140427963786, 31517.881932006116, 24758.602649998982, 0.08595312499999999, 1.0070000000000001, 0.15426562500000002, 192.0, 0.0, 0.0, 0.0, 0.0, 0.0, 0.0, 0.0, 0.0, 0.0, 1.7074747774298506E9, 0.0, 2024-02-09 11:32:57.429
162.0, -8093.7454812223295, -11664.950748080106, 22404.203999543668, 1580.5812574125837, 47545.490866361964, 21194.304072177896, 37733.36562316008, 12462.170417567542, 35448.61500842751, 9212.15971853253, 39810.33442143613, 29036.860649211485, 41876.70849284035, 37054.76666149696, 31376.5071483263, 24607.884837136848, 0.08595312499999999, 1.0070000000000001, 0.15426562500000002, 192.0, 0.0, 0.0, 0.0, 0.0, 0.0, 0.0, 0.0, 0.0, 0.0, 1.707474777437894E9, 0.0, 2024-02-09 11:32:57.437
164.0, -8113.325609365179, -11684.016786100483, 22382.768676611027, 1567.3490246950419, 47653.27097812545, 21191.308938420887, 37771.274181756286, 12514.562906570782, 35757.96315168896, 9267.92732094852, 40230.65897591817, 29124.971225854308, 42408.277679476465, 37277.211222316175, 31562.92069708356, 24788.598691058003, 0.08595312499999999, 1.0070000000000001, 0.15426562500000002, 192.0, 0.0, 0.0, 0.0, 0.0, 0.0, 0.0, 0.0, 0.0, 0.0, 1.7074747774449356E9, 0.0, 2024-02-09 11:32:57.444
166.0, -8156.822104075206, -11697.114908351292, 22349.308115161435, 1565.6279403719832, 47383.016035916335, 21121.392681764686, 37638.61657841403, 12390.823649266202, 35464.21652605731, 9186.298750197739, 39880.47419553688, 29026.422384550857, 42004.64987810253, 37069.40705411519, 31399.21652069289, 24642.731206742672, 0.08595312499999999, 1.0070000000000001, 0.15426562500000002, 192.0, 0.0, 0.0, 0.0, 0.0, 0.0, 0.0, 0.0, 0.0, 0.0, 1.7074747774529371E9, 0.0, 2024-02-09 11:32:57.452
168.0, -8054.965204592372, -11645.862358315273, 22435.742310970105, 1566.7231758502933, 47714.24653699953, 21210.06205201889, 37795.70463844593, 12516.28399089384, 35634.9615019514, 9251.387030051594, 40029.11329616467, 29102.865350588007, 42113.01113522186, 37154.70131095664, 31472.239669828377, 24679.343364160464, 0.08497656249999999, 1.0125000000000002, 0.1511328125, 192.0, 1.0, 80.0, 15.5, 104.0, 2.0, 80.0, 0.0, 0.0, 0.0, 1.7074747774620447E9, 0.0, 2024-02-09 11:32:57.462
170.0, -8158.230263975891, -11699.998283386027, 22351.81151054043, 1582.4811556912848, 47458.0508420528, 21122.018530609435, 37673.8429276756, 12408.772100063814, 35660.218973185896, 9235.740808932878, 40145.588236521275, 29097.791504596655, 42339.81428620986, 37194.48741608708, 31517.591359328195, 24747.449129515786, 0.08497656249999999, 1.0125000000000002, 0.1511328125, 192.0, 0.0, 0.0, 0.0, 0.0, 0.0, 0.0, 0.0, 0.0, 0.0, 1.707474777468932E9, 0.0, 2024-02-09 11:32:57.468
172.0, -8086.570571252177, -11657.440561943122, 22416.050424104982, 1582.3246934800975, 47545.80379078434, 21170.119484677256, 37723.68731781093, 12442.389123724595, 35449.77729913918, 9213.612581922125, 39822.337308208625, 29051.79161450763, 41868.86303053654, 37037.42170779964, 31383.391485618533, 24594.496142208118, 0.08497656249999999, 1.0125000000000002, 0.1511328125, 192.0, 0.0, 0.0, 0.0, 0.0, 0.0, 0.0, 0.0, 0.0, 0.0, 1.7074747774771569E9, 0.0, 2024-02-09 11:32:57.477
174.0, -8104.407263327511, -11671.343346994323, 22399.219560530135, 1580.536553923673, 47663.88805674172, 21194.81816230037, 37768.63667591056, 12513.735892025936, 35756.01854992134, 9281.472478088437, 40238.81736264436, 29139.14223183897, 42397.57119388237, 37272.115024580366, 31573.537775699828, 24785.42474334535, 0.08497656249999999, 1.0125000000000002, 0.1511328125, 192.0, 0.0, 0.0, 0.0, 0.0, 0.0, 0.0, 0.0, 0.0, 0.0, 1.7074747774860022E9, 0.0, 2024-02-09 11:32:57.486
176.0, -8148.104923737636, -11691.236399559546, 22368.66472585973, 1590.3042662506423, 47384.29008535029, 21138.916449417648, 37642.12580229352, 12388.677881798492, 35466.11642433601, 9203.040206794763, 39893.32644859868, 29040.88396321344, 42015.28930846325, 37081.00760948749, 31415.823866823182, 24653.72826501468, 0.08497656249999999, 1.0125000000000002, 0.1511328125, 192.0, 0.0, 0.0, 0.0, 0.0, 0.0, 0.0, 0.0, 0.0, 0.0, 1.7074747774940493E9, 0.0, 2024-02-09 11:32:57.494
178.0, -8056.775695893252, -11647.4493321716, 22452.059084422483, 1584.7386818812708, 47716.81698761189, 21237.73351165456, 37810.30032757525, 12545.005982518911, 35633.68745251745, 9272.375318095126, 40041.54086608182, 29115.829362372086, 42113.21230092196, 37185.211442138134, 31490.679859004005, 24699.862265570435, 0.08348828124999999, 1.01425, 0.14956640625, 192.0, 1.0, 72.0, 15.5, 96.0, 2.0, 80.0, 0.0, 0.0, 0.0, 1.707474777501022E9, 0.0, 2024-02-09 11:32:57.501
180.0, -8162.790019844773, -11703.619265987787, 22364.775522324508, 1591.4665569623182, 47464.77871713385, 21158.742446749504, 37663.00233161478, 12445.160740037054, 35657.693226062445, 9248.30248931676, 40155.13243140369, 29096.115123762505, 42355.61696953976, 37241.96252131015, 31540.367786928153, 24782.22844388824, 0.08348828124999999, 1.01425, 0.14956640625, 192.0, 0.0, 0.0, 0.0, 0.0, 0.0, 0.0, 0.0, 0.0, 0.0, 1.7074747775091398E9, 0.0, 2024-02-09 11:32:57.509
182.0, -8092.091452132637, -11658.848721843806, 22423.82883117543, 1589.7454726392596, 47550.29649141985, 21201.948368781614, 37720.915701498474, 12463.936205379512, 35446.44688921534, 9226.196614050463, 39822.761991353276, 29047.768300505675, 41881.84939406507, 37064.46731859056, 31388.82295952117, 24615.372671529374, 0.08348828124999999, 1.01425, 0.14956640625, 192.0, 0.0, 0.0, 0.0, 0.0, 0.0, 0.0, 0.0, 0.0, 0.0, 1.7074747775180101E9, 0.0, 2024-02-09 11:32:57.518
184.0, -8102.50736504881, -11669.443448715621, 22399.91246460825, 1584.761033625726, 47668.51486784397, 21209.726775852057, 37772.07884455667, 12521.223726418464, 35757.44906156648, 9289.31794039225, 40236.17985679863, 29134.493068992266, 42409.171749254674, 37282.93326889673, 31570.877918109647, 24789.33629862503, 0.08348828124999999, 1.01425, 0.14956640625, 192.0, 0.0, 0.0, 0.0, 0.0, 0.0, 0.0, 0.0, 0.0, 0.0, 1.7074747775252154E9, 0.0, 2024-02-09 11:32:57.525
186.0, -8152.262348206324, -11696.801983928917, 22360.08165598889, 1579.955408567835, 47390.74973949787, 21137.32947556132, 37644.42803197241, 12394.578742334694, 35473.000761628246, 9211.556221432236, 39890.53248054177, 29038.604085279, 42020.05023003223, 37082.08049322134, 31411.353517932122, 24648.989695190157, 0.08348828124999999, 1.01425, 0.14956640625, 192.0, 0.0, 0.0, 0.0, 0.0, 0.0, 0.0, 0.0, 0.0, 0.0, 1.7074747775330455E9, 0.0, 2024-02-09 11:32:57.533
188.0, -8058.765001149774, -11646.577614137843, 22437.06106389297, 1561.8057920701258, 47718.29220274594, 21219.941523068133, 37805.673516473, 12532.779578301857, 35624.56794077968, 9264.663966258046, 40029.87325547615, 29109.3697082245, 42101.3882281051, 37154.3213313009, 31476.307687319244, 24680.25978568313, 0.07974414062499999, 1.013125, 0.14878320312499999, 192.0, 1.0, 48.0, 15.5, 80.0, 2.0, 80.0, 0.0, 0.0, 0.0, 1.7074747775420527E9, 0.0, 2024-02-09 11:32:57.542
190.0, -8160.4877901658765, -11700.579428741865, 22351.319772162413, 1560.3976321694413, 47474.83700213874, 21132.1885743366, 37677.93329691092, 12432.93433582, 35665.96337151091, 9243.8321404257, 40153.634864525186, 29094.617556884, 42351.61600728226, 37196.946107977165, 31526.733222810417, 24753.484100518715, 0.07974414062499999, 1.013125, 0.14878320312499999, 192.0, 0.0, 0.0, 0.0, 0.0, 0.0, 0.0, 0.0, 0.0, 0.0, 1.707474777550166E9, 0.0, 2024-02-09 11:32:57.550
192.0, -8092.538487021743, -11667.230626014547, 22408.62964494582, 1551.7698588096928, 47559.63952060217, 21164.956231708078, 37717.96527123037, 12440.533928934805, 35454.2699997747, 9208.069349297208, 39823.61135764258, 29038.581733534545, 41875.926181784416, 37020.367326780244, 31381.24571815082, 24586.2036450152, 0.07974414062499999, 1.013125, 0.14878320312499999, 192.0, 0.0, 0.0, 0.0, 0.0, 0.0, 0.0, 0.0, 0.0, 0.0, 1.7074747775572076E9, 0.0, 2024-02-09 11:32:57.557
194.0, -8110.196365141436, -11679.389974998234, 22397.05144131797, 1555.0779169890782, 47687.37974016425, 21176.221510913554, 37776.6162486811, 12497.866153462668, 35762.54525930229, 9273.850533229177, 40234.01173758647, 29123.607769442533, 42405.43900793064, 37245.76231786756, 31561.177261016044, 24757.239193587207, 0.07974414062499999, 1.013125, 0.14878320312499999, 192.0, 0.0, 0.0, 0.0, 0.0, 0.0, 0.0, 0.0, 0.0, 0.0, 1.7074747775651517E9, 0.0, 2024-02-09 11:32:57.565
196.0, -8156.799752330751, -11694.03036761646, 22370.251699716056, 1575.6415218879608, 47414.21907117595, 21135.630742982717, 37652.04997683167, 12414.583553622193, 35473.60425872854, 9211.19859352095, 39897.908556212016, 29029.998663663708, 42035.9199685955, 37058.65586503218, 31420.160105247513, 24643.848793965437, 0.07974414062499999, 1.013125, 0.14878320312499999, 192.0, 0.0, 0.0, 0.0, 0.0, 0.0, 0.0, 0.0, 0.0, 0.0, 1.7074747775741713E9, 0.0, 2024-02-09 11:32:57.574
198.0, -8065.8058006531965, -11652.5008264185, 22445.95705818618, 1570.7688415967039, 47742.16386582421, 21227.004674316013, 37808.98157465238, 12536.109988225699, 35626.62430126957, 9270.83304772771, 40024.084153662225, 29101.010155798216, 42119.04610622479, 37173.02974140999, 31492.22212937142, 24687.300585186553, 0.07974414062499999, 1.013125, 0.14878320312499999, 192.0, 0.0, 0.0, 0.0, 0.0, 0.0, 0.0, 0.0, 0.0, 0.0, 1.7074747775811696E9, 0.0, 2024-02-09 11:32:57.581
200.0, -8165.159304757036, -11702.568733998387, 22356.37126640931, 1583.6434464029608, 47490.77379593537, 21160.95526945058, 37679.27440157824, 12435.79535911028, 35663.75054880983, 9256.572634765225, 40145.99056792147, 29096.04806852914, 42354.87936197274, 37234.89937006228, 31537.305597937775, 24763.631792501426, 0.074, 1.018, 0.152, 192.0, 1.0, 40.0, 15.5, 104.0, 2.0, 96.0, 0.0, 0.0, 0.0, 1.7074747775891795E9, 0.0, 2024-02-09 11:32:57.589
202.0, -8098.12642313557, -11663.833160857339, 22410.775412413528, 1569.2712747181984, 47557.42669790109, 21193.789982055427, 37710.0527536932, 12451.642745929092, 35450.425499728386, 9229.325858274206, 39811.60847087008, 29043.54382080362, 41884.62101037753, 37064.22144940156, 31390.25347116631, 24596.910130609293, 0.074, 1.018, 0.152, 192.0, 0.0, 0.0, 0.0, 0.0, 0.0, 0.0, 0.0, 0.0, 0.0, 1.7074747775973523E9, 0.0, 2024-02-09 11:32:57.597
204.0, -8110.688103519453, -11678.942940109127, 22395.24095001709, 1562.3198821925978, 47677.0532342259, 21205.43524091664, 37758.7125013724, 12515.814604260278, 35759.8406982232, 9284.869943245643, 40221.2935949914, 29125.708833421333, 42410.71401962209, 37280.362818284375, 31556.036359791324, 24767.364533825465, 0.074, 1.018, 0.152, 192.0, 0.0, 0.0, 0.0, 0.0, 0.0, 0.0, 0.0, 0.0, 0.0, 1.7074747776051447E9, 0.0, 2024-02-09 11:32:57.605
206.0, -8163.706441367441, -11697.584294984854, 22364.037914757482, 1562.051661259134, 47409.07816995122, 21139.3411325623, 37634.14622952297, 12398.155021447543, 35480.35448555404, 9205.856526596133, 39893.03587592076, 29026.914122928876, 42045.71003266693, 37074.77147278446, 31407.79959056373, 24635.958628172713, 0.074, 1.018, 0.152, 192.0, 0.0, 0.0, 0.0, 0.0, 0.0, 0.0, 0.0, 0.0, 0.0, 1.7074747776131723E9, 0.0, 2024-02-09 11:32:57.613
208.0, -8071.125515833559, -11654.423076441655, 22434.021226647048, 1543.566768594595, 47729.66924067369, 21219.650950390216, 37793.51416748931, 12533.114854468688, 35628.8594757151, 9249.867111428632, 40021.33488909422, 29087.71086784731, 42116.900338757085, 37150.14155508776, 31470.630344227597, 24661.886651740868, 0.074, 1.018, 0.152, 192.0, 0.0, 0.0, 0.0, 0.0, 0.0, 0.0, 0.0, 0.0, 0.0, 1.707474777621162E9, 0.0, 2024-02-09 11:32:57.621
210.0, -8175.463458950932, -11711.621190502787, 22341.70852204663, 1549.0652977306006, 47486.43755751104, 21142.80565295287, 37673.30648580867, 12439.908080090056, 35671.193679713455, 9226.710704172934, 40151.734966246484, 29075.21624269679, 42361.31666437587, 37192.07342768591, 31524.632158831617, 24737.56965846654, 0.068, 1.016, 0.158, 192.0, 1.0, 16.0, 15.5, 96.0, 2.0, 120.0, 0.0, 0.0, 0.0, 1.7074747776302533E9, 0.0, 2024-02-09 11:32:57.630
212.0, -8107.894135462539, -11674.182018540147, 22398.370194240833, 1547.4336203853632, 47563.19344797057, 21178.61314757027, 37713.83019850614, 12456.247205286885, 35452.235991029265, 9190.456174666426, 39812.055505759185, 29029.17164911886, 41872.215792204835, 37010.778428408914, 31382.340953629133, 24576.68180187724, 0.068, 1.016, 0.158, 192.0, 0.0, 0.0, 0.0, 0.0, 0.0, 0.0, 0.0, 0.0, 0.0, 1.7074747776372137E9, 0.0, 2024-02-09 11:32:57.637
214.0, -8122.690990291952, -11686.900161135216, 22386.635528401795, 1551.8145622986035, 47698.26503971399, 21191.10777272079, 37765.37332122008, 12510.181964657542, 35751.25762835236, 9254.091591130686, 40223.05938280337, 29118.131592050984, 42391.424464157164, 37250.724405136636, 31568.821557619758, 24760.27903083313, 0.068, 1.016, 0.158, 192.0, 0.0, 0.0, 0.0, 0.0, 0.0, 0.0, 0.0, 0.0, 0.0, 1.707474777645192E9, 0.0, 2024-02-09 11:32:57.645
216.0, -8171.954235071449, -11709.765995712996, 22351.208013440137, 1561.5152193922067, 47418.64471657809, 21135.18370809361, 37643.24338951628, 12387.090907942165, 35473.40309302844, 9177.112183226607, 39890.44307356395, 29021.3485385595, 42029.21444525891, 37067.75302502549, 31419.198980235935, 24634.19284036074, 0.068, 1.016, 0.158, 192.0, 0.0, 0.0, 0.0, 0.0, 0.0, 0.0, 0.0, 0.0, 0.0, 1.7074747776532269E9, 0.0, 2024-02-09 11:32:57.653
218.0, -8081.340263049635, -11667.632957414742, 22435.295276081, 1554.921454777891, 47750.031679872474, 21227.67522664967, 37822.012641669826, 12527.9068980106, 35618.44356279893, 9232.58921296468, 40010.181368611025, 29084.156940478915, 42094.034504179304, 37156.82472667989, 31484.108446134145, 24669.910928000325, 0.068, 1.016, 0.158, 192.0, 0.0, 0.0, 0.0, 0.0, 0.0, 0.0, 0.0, 0.0, 0.0, 1.7074747776613898E9, 0.0, 2024-02-09 11:32:57.661
220.0, -8178.413889219033, -11718.37141732829, 22347.94465874966, 1565.471478160796, 47503.268421085886, 21154.920298447647, 37695.680582008434, 12442.120902791132, 35670.00903725732, 9224.654343683045, 40149.723309245506, 29077.27260318668, 42365.831716755834, 37223.29881468997, 31544.748728841394, 24755.69692321979, 0.084, 1.008, 0.164, 192.0, 1.0, 80.0, 15.5, 64.0, 2.5, 16.0, 0.0, 0.0, 0.0, 1.7074747776692328E9, 0.0, 2024-02-09 11:32:57.669
222.0, -8110.196365141436, -11673.64557667322, 22403.82401988793, 1563.8845043044691, 47563.30520669284, 21194.23701694453, 37730.638710336534, 12451.329821506719, 35445.39635722594, 9185.874067053088, 39802.757180065775, 29022.577884504546, 41877.51315564074, 37051.88328646222, 31393.941509001437, 24591.076325306454, 0.084, 1.008, 0.164, 192.0, 0.0, 0.0, 0.0, 0.0, 0.0, 0.0, 0.0, 0.0, 0.0, 1.707474777677309E9, 0.0, 2024-02-09 11:32:57.677
224.0, -8116.745426266841, -11683.323882022367, 22380.533502165497, 1554.5191233776957, 47697.01334202449, 21196.226322201055, 37780.416045238504, 12505.28693262183, 35754.05159640928, 9247.140198605084, 40215.571548410844, 29115.33762399407, 42397.4594351601, 37281.79332992951, 31568.195708775012, 24763.90001343489, 0.084, 1.008, 0.164, 192.0, 0.0, 0.0, 0.0, 0.0, 0.0, 0.0, 0.0, 0.0, 0.0, 1.7074747776863046E9, 0.0, 2024-02-09 11:32:57.686
226.0, -8166.142781513069, -11703.596914243331, 22342.244963913556, 1556.9331117788688, 47404.563117571255, 21135.22841158252, 37640.22590401482, 12396.366881891117, 35474.54303199566, 9175.502857625826, 39889.45959680791, 29012.050212866096, 42040.211503530925, 37078.97360074206, 31411.4652766544, 24634.34930257193, 0.084, 1.008, 0.164, 192.0, 0.0, 0.0, 0.0, 0.0, 0.0, 0.0, 0.0, 0.0, 0.0, 1.7074747776923103E9, 0.0, 2024-02-09 11:32:57.692
228.0, -8066.521056475766, -11660.145123022214, 22426.01930213205, 1543.2314924277655, 47725.265947016, 21217.39342420023, 37800.04087687026, 12528.555098599803, 35632.83808622815, 9226.531890217291, 40011.27660408933, 29082.05587650012, 42097.67783852552, 37159.05990112542, 31467.74696919286, 24665.954669231734, 0.084, 1.008, 0.164, 192.0, 0.0, 0.0, 0.0, 0.0, 0.0, 0.0, 0.0, 0.0, 0.0, 1.7074747777013152E9, 0.0, 2024-02-09 11:32:57.701
230.0, -8170.858999593139, -11717.007960916515, 22341.61911506881, 1547.0312889851677, 47476.982769606446, 21127.584114978807, 37677.01687538825, 12430.632106141104, 35677.340409438664, 9202.973151561398, 40152.69609125806, 29073.584565351557, 42361.20490565359, 37198.08604694439, 31517.47960060592, 24737.301437533075, 0.09, 1.012, 0.166, 192.0, 1.0, 104.0, 15.5, 80.0, 2.5, 24.0, 0.0, 0.0, 0.0, 1.707474777709351E9, 0.0, 2024-02-09 11:32:57.709
232.0, -8104.384911583056, -11685.000262856516, 22404.449868732678, 1542.1362569494554, 47543.21098842752, 21180.334231893332, 37715.70774504039, 12467.624243214637, 35449.866706117, 9165.355165643115, 39805.282927189226, 29018.800439691597, 41875.59090561759, 37009.951413864066, 31374.517843069774, 24581.979165313147, 0.09, 1.012, 0.166, 192.0, 0.0, 0.0, 0.0, 0.0, 0.0, 0.0, 0.0, 0.0, 0.0, 1.7074747777173214E9, 0.0, 2024-02-09 11:32:57.717
234.0, -8117.326571622679, -11694.991492628038, 22380.82407484342, 1533.284966145154, 47679.355463904794, 21186.57036859636, 37775.18573703596, 12517.870964750167, 35760.31008485676, 9234.042076354275, 40216.51032167796, 29097.255062729724, 42396.92299329317, 37231.85953281636, 31553.24239173441, 24752.031237129122, 0.09, 1.012, 0.166, 192.0, 0.0, 0.0, 0.0, 0.0, 0.0, 0.0, 0.0, 0.0, 0.0, 1.7074747777253227E9, 0.0, 2024-02-09 11:32:57.725
236.0, -8169.249673992357, -11721.075978407382, 22340.70269354614, 1545.1984459398325, 47403.57964081522, 21127.025321367422, 37644.852715117064, 12401.641893582571, 35482.32143906611, 9152.078229436664, 39888.677285751975, 29000.874340638442, 42050.78387865828, 37044.842486958805, 31406.12320972958, 24629.655436236317, 0.09, 1.012, 0.166, 192.0, 0.0, 0.0, 0.0, 0.0, 0.0, 0.0, 0.0, 0.0, 0.0, 1.7074747777335951E9, 0.0, 2024-02-09 11:32:57.733
238.0, -8083.731899706352, -11680.172286054169, 22420.43136601822, 1536.3918586244415, 47738.229958800075, 21218.309845722895, 37811.48497003138, 12533.092502724232, 35621.43869655594, 9212.137366788074, 39994.669257959045, 29069.069512971582, 42106.30561188527, 37135.1658863027, 31467.94813489296, 24654.35411385943, 0.09, 1.012, 0.166, 192.0, 0.0, 0.0, 0.0, 0.0, 0.0, 0.0, 0.0, 0.0, 0.0, 1.7074747777414196E9, 0.0, 2024-02-09 11:32:57.741
240.0, -8188.695691668474, -11733.950583213638, 22325.95054220564, 1541.085724960056, 47494.9088686596, 21129.953399891067, 37680.48139577883, 12422.02668452581, 35667.86326978961, 9192.266665967307, 40140.983777163485, 29053.915030230884, 42378.05812097289, 37205.7303435481, 31528.81193504476, 24738.642542200392, 0.09, 1.012, 0.162, 192.0, 1.0, 104.0, 15.5, 80.0, 2.5, 8.0, 0.0, 0.0, 0.0, 1.7074747777483535E9, 0.0, 2024-02-09 11:32:57.748
242.0, -8113.280905876269, -11688.710652436097, 22396.269130262033, 1557.4919053902515, 47554.52097112191, 21193.14178146622, 37726.28012016775, 12474.821504929247, 35434.93574082086, 9170.831343034666, 39789.77081653724, 29006.954015130286, 41879.256591708254, 37034.78420195392, 31378.563508816187, 24581.86740659087, 0.09, 1.012, 0.162, 192.0, 0.0, 0.0, 0.0, 0.0, 0.0, 0.0, 0.0, 0.0, 0.0, 1.7074747777574165E9, 0.0, 2024-02-09 11:32:57.757
244.0, -8115.493728577344, -11690.811716414895, 22388.177798769215, 1553.0662599881007, 47696.633362368746, 21199.28851119143, 37782.96414410641, 12521.782520029847, 35758.857221467166, 9252.124637618619, 40210.9894407975, 29111.157847780927, 42397.59354562683, 37273.70199843669, 31567.614563419174, 24767.99038267021, 0.09, 1.012, 0.162, 192.0, 0.0, 0.0, 0.0, 0.0, 0.0, 0.0, 0.0, 0.0, 0.0, 1.7074747777653916E9, 0.0, 2024-02-09 11:32:57.765
246.0, -8169.316729225723, -11709.050739890426, 22346.648257571254, 1556.6872425898605, 47406.21714666094, 21132.70266445907, 37644.33862499459, 12400.032567981789, 35474.610087229026, 9175.301691925728, 39889.50430029682, 29008.742154686708, 42043.005471587836, 37083.712170566585, 31417.254378468322, 24635.086910138954, 0.09, 1.012, 0.162, 192.0, 0.0, 0.0, 0.0, 0.0, 0.0, 0.0, 0.0, 0.0, 0.0, 1.7074747777734325E9, 0.0, 2024-02-09 11:32:57.773
248.0, -8068.1527338210035, -11653.126675263247, 22426.555743998975, 1549.7582018087153, 47733.40198199773, 21239.275782021974, 37811.48497003138, 12557.969994302988, 35610.374583050565, 9243.273346814316, 39992.32232479123, 29078.926632276372, 42085.60789651965, 37153.98605513407, 31467.65756221504, 24663.943012230757, 0.09, 1.012, 0.162, 192.0, 0.0, 0.0, 0.0, 0.0, 0.0, 0.0, 0.0, 0.0, 0.0, 1.7074747777814574E9, 0.0, 2024-02-09 11:32:57.781
250.0, -8173.027118805304, -11713.40933005921, 22337.21582141111, 1548.3276901635754, 47499.848604184226, 21154.13798739171, 37687.5445470267, 12463.310356534763, 35665.98572325536, 9226.844814639666, 40141.743736474964, 29074.79155955214, 42361.0484434424, 37220.81777105544, 31532.790545557804, 24756.367475553452, 0.08, 1.014, 0.158, 192.0, 1.0, 64.0, 15.5, 88.0, 2.0, 120.0, 0.0, 0.0, 0.0, 1.7074747777894468E9, 0.0, 2024-02-09 11:32:57.789
252.0, -8105.569554039187, -11677.087745319337, 22395.285653506002, 1543.9467482503353, 47539.25472965893, 21178.23316791453, 37707.45995133638, 12460.918719878046, 35429.28074947366, 9187.304578698227, 39791.24603167129, 29017.50403851319, 41866.73961481328, 37021.77548668093, 31374.182566902946, 24583.29791823601, 0.08, 1.014, 0.158, 192.0, 0.0, 0.0, 0.0, 0.0, 0.0, 0.0, 0.0, 0.0, 0.0, 1.707474777797438E9, 0.0, 2024-02-09 11:32:57.797
254.0, -8105.390740083545, -11685.894332634727, 22391.888188348796, 1546.5842540960616, 47684.09403372932, 21193.722926822058, 37772.6152864236, 12527.57162184377, 35747.256666094865, 9252.370506807627, 40208.73191460752, 29112.00721407023, 42382.684932075135, 37245.62820740083, 31553.06357777877, 24756.434530786817, 0.08, 1.014, 0.158, 192.0, 0.0, 0.0, 0.0, 0.0, 0.0, 0.0, 0.0, 0.0, 0.0, 1.7074747778044732E9, 0.0, 2024-02-09 11:32:57.804
0.0, -8159.481961665388, -11716.560926027409, 22355.544251864463, 1556.3296146785754, 47391.397940087074, 21126.60063822277, 37651.31236926465, 12428.911021818045, 35476.08530236308, 9171.166619201496, 39897.08154166717, 29019.51569551417, 42042.35727099863, 37059.70639702158, 31418.908407558014, 24646.419244577795, 0.08, 1.014, 0.158, 192.0, 0.0, 0.0, 0.0, 0.0, 0.0, 0.0, 0.0, 0.0, 0.0, 1.7074747778134933E9, 0.0, 2024-02-09 11:32:57.813
2.0, -8071.684309444941, -11675.612530185286, 22421.90658115227, 1535.2295679127656, 47700.52256590397, 21203.691804849124, 37805.00296413934, 12526.565793343281, 35605.83717892614, 9218.440558724471, 39989.46130150095, 29084.42516141238, 42074.119099869626, 37131.12022055629, 31466.003533125346, 24656.812805749512, 0.08, 1.014, 0.158, 192.0, 0.0, 0.0, 0.0, 0.0, 0.0, 0.0, 0.0, 0.0, 0.0, 1.7074747778217E9, 0.0, 2024-02-09 11:32:57.821
4.0, -8169.160267014536, -11722.282972607967, 22326.12935616128, 1536.8388935135476, 47471.68540617054, 21115.111841572743, 37678.425035288936, 12400.926637760002, 35664.264638932305, 9208.359921975127, 40140.11205912972, 29076.490292130744, 42361.8978097317, 37199.65066905626, 31520.85471401867, 24731.825260141526, 0.084, 1.016, 0.156, 192.0, 1.0, 80.0, 15.5, 96.0, 2.0, 112.0, 0.0, 0.0, 0.0, 1.70747477782858E9, 0.0, 2024-02-09 11:32:57.828
6.0, -8101.903867948517, -11685.000262856516, 22388.110743535846, 1544.1032104615224, 47524.34611610724, 21179.19429292611, 37722.748544543814, 12488.56782776926, 35431.113592518996, 9183.214209462907, 39786.14983393548, 29028.903428185396, 41868.4830508808, 37020.61319596925, 31370.136901156537, 24576.61474664387, 0.084, 1.016, 0.156, 192.0, 0.0, 0.0, 0.0, 0.0, 0.0, 0.0, 0.0, 0.0, 0.0, 1.7074747778365235E9, 0.0, 2024-02-09 11:32:57.836
8.0, -8104.049635416226, -11692.26457980449, 22382.701621377662, 1542.4715331162852, 47678.55080110441, 21199.176752469153, 37793.71533318941, 12535.126511469665, 35748.21779110644, 9265.870960458633, 40204.50743490546, 29127.85460088904, 42386.52943212145, 37268.09171057841, 31562.831290105736, 24768.102141392486, 0.084, 1.016, 0.156, 192.0, 0.0, 0.0, 0.0, 0.0, 0.0, 0.0, 0.0, 0.0, 0.0, 1.707474777845533E9, 0.0, 2024-02-09 11:32:57.845
10.0, -8164.578159401198, -11709.430719546166, 22345.620077326308, 1561.4481641588409, 47388.559268541256, 21145.84549019879, 37658.82255540163, 12430.36388520764, 35467.122252836496, 9202.995503305854, 39896.23217537787, 29036.83829746703, 42048.07931757919, 37099.13487424074, 31421.165933748, 24649.280267868075, 0.084, 1.016, 0.156, 192.0, 0.0, 0.0, 0.0, 0.0, 0.0, 0.0, 0.0, 0.0, 0.0, 1.7074747778525484E9, 0.0, 2024-02-09 11:32:57.852
12.0, -8075.864085658084, -11667.275329503456, 22424.655845720274, 1557.5589606236174, 47709.66442938619, 21243.1649855572, 37823.39844982606, 12572.699793899035, 35585.92177461646, 9244.100361359164, 39982.33109501971, 29099.937272064362, 42082.0316174068, 37168.91702043021, 31473.871347173616, 24679.58923334947, 0.084, 1.016, 0.156, 192.0, 0.0, 0.0, 0.0, 0.0, 0.0, 0.0, 0.0, 0.0, 0.0, 1.707474777860636E9, 0.0, 2024-02-09 11:32:57.860
14.0, -8185.1417643000805, -11729.971972700594, 22321.681359014674, 1552.149838465433, 47476.40162425061, 21150.00291466748, 37696.395837831005, 12454.36965875264, 35646.718519534894, 9234.958497876942, 40134.3229573158, 29089.834283570563, 42368.89390574621, 37235.39110844029, 31538.400833416086, 24771.544310038604, 0.08, 1.016, 0.158, 192.0, 1.0, 64.0, 15.5, 96.0, 2.0, 120.0, 0.0, 0.0, 0.0, 1.7074747778685846E9, 0.0, 2024-02-09 11:32:57.868
16.0, -8112.073911675681, -11681.513390721488, 22375.03497302949, 1546.8524750295253, 47515.18190088057, 21168.845435243304, 37725.050774222706, 12449.385219739106, 35404.91734801738, 9200.268590482307, 39771.62120003953, 29025.349500817003, 41861.933989755395, 37028.65982397316, 31371.746226757317, 24591.43395321774, 0.08, 1.016, 0.158, 192.0, 0.0, 0.0, 0.0, 0.0, 0.0, 0.0, 0.0, 0.0, 0.0, 1.707474777877614E9, 0.0, 2024-02-09 11:32:57.877
18.0, -8109.279943618768, -11680.731079665551, 22371.056362516447, 1547.1653994518995, 47673.6557690687, 21188.42556338615, 37801.873719915595, 12528.420988133072, 35724.56964547272, 9281.517181577346, 40194.940888278594, 29134.33660678108, 42377.20875468359, 37269.18694605672, 31555.52226966885, 24765.75520822468, 0.08, 1.016, 0.158, 192.0, 0.0, 0.0, 0.0, 0.0, 0.0, 0.0, 0.0, 0.0, 0.0, 1.707474777884573E9, 0.0, 2024-02-09 11:32:57.884
20.0, -8164.779325101295, -11707.262600334001, 22326.039949183458, 1550.6522715869276, 47370.40965204354, 21114.307178772353, 37648.987787841295, 12405.195820950965, 35456.92985736488, 9204.649532395546, 39891.89593695354, 29041.88979171393, 42038.2221982744, 37077.74425479701, 31413.253416210824, 24645.078139910478, 0.08, 1.016, 0.158, 192.0, 0.0, 0.0, 0.0, 0.0, 0.0, 0.0, 0.0, 0.0, 0.0, 1.707474777892915E9, 0.0, 2024-02-09 11:32:57.892
22.0, -8055.501646459299, -11649.729210106041, 22417.43623226121, 1550.6522715869276, 47691.51481288848, 21211.313749708384, 37810.45678978643, 12526.297572409818, 35587.70991417288, 9257.958442921454, 39987.78492066681, 29104.09469653305, 42060.3280735407, 37131.097868811834, 31459.901506889048, 24653.34828535894, 0.08, 1.016, 0.158, 192.0, 0.0, 0.0, 0.0, 0.0, 0.0, 0.0, 0.0, 0.0, 0.0, 1.7074747779015813E9, 0.0, 2024-02-09 11:32:57.901
24.0, -8158.342022698167, -11706.07795787787, 22333.840707998363, 1561.2246467142877, 47466.23158052345, 21129.506365001962, 37692.752503484786, 12446.591251682194, 35670.970162268895, 9250.939995162487, 40162.62026579622, 29113.750650137743, 42364.2000394106, 37220.303680932964, 31534.95866476997, 24753.394693540897, 0.088, 1.014, 0.164, 192.0, 1.0, 96.0, 15.5, 88.0, 2.5, 16.0, 0.0, 0.0, 0.0, 1.7074747779086218E9, 0.0, 2024-02-09 11:32:57.908
26.0, -8096.114766134592, -11665.174265524658, 22391.687022648697, 1564.4432979158519, 47513.058485157315, 21159.837682227815, 37729.319957413674, 12452.715629662947, 35431.20299949682, 9210.997427820854, 39800.45495038688, 29054.809100009097, 41868.348940414064, 37020.367326780244, 31386.16310193099, 24589.645813661315, 0.088, 1.014, 0.164, 192.0, 0.0, 0.0, 0.0, 0.0, 0.0, 0.0, 0.0, 0.0, 0.0, 1.7074747779166217E9, 0.0, 2024-02-09 11:32:57.916
28.0, -8096.293580090235, -11671.723326650063, 22389.47419994762, 1567.7066526063268, 47675.466260369576, 21192.784153554938, 37807.126379862595, 12529.00213348891, 35745.96026491645, 9276.443335585993, 40214.945699566095, 29153.268534334726, 42382.751987308504, 37251.976102826135, 31569.872089609158, 24771.72312399425, 0.088, 1.014, 0.164, 192.0, 0.0, 0.0, 0.0, 0.0, 0.0, 0.0, 0.0, 0.0, 0.0, 1.707474777925675E9, 0.0, 2024-02-09 11:32:57.925
30.0, -8154.51987439631, -11697.807812429406, 22346.916478504718, 1575.2615422322206, 47369.672044476516, 21125.773623677927, 37658.12965132352, 12403.541791861271, 35474.87830816249, 9202.034378294275, 39916.32639364319, 29060.955829734306, 42054.382509515584, 37074.413844873176, 31432.520619931296, 24662.55720407453, 0.088, 1.014, 0.164, 192.0, 0.0, 0.0, 0.0, 0.0, 0.0, 0.0, 0.0, 0.0, 0.0, 1.7074747779337103E9, 0.0, 2024-02-09 11:32:57.933
32.0, -8059.726126161352, -11644.610660625776, 22429.327360311432, 1566.1420304944552, 47693.548821633914, 21209.23503747404, 37817.36347882313, 12532.489005623938, 35594.28132704274, 9258.807809210755, 39998.513758005356, 29120.076193818593, 42072.152146357555, 37134.62944443577, 31472.485539017387, 24667.45223611024, 0.088, 1.014, 0.164, 192.0, 0.0, 0.0, 0.0, 0.0, 0.0, 0.0, 0.0, 0.0, 0.0, 1.7074747779406989E9, 0.0, 2024-02-09 11:32:57.940
34.0, -8166.366298957622, -11707.4637660341, 22324.07299567139, 1556.6201873564944, 47463.37055723317, 21127.070024856333, 37693.311297096174, 12424.306562460251, 35668.042083745255, 9238.423018267515, 40167.7835187654, 29108.497990190746, 42371.28554240293, 37206.69146855968, 31534.556333369776, 24757.976801154233, 0.096, 1.01, 0.168, 192.0, 1.5, 0.0, 15.5, 72.0, 2.5, 32.0, 0.0, 0.0, 0.0, 1.7074747779486856E9, 0.0, 2024-02-09 11:32:57.948
36.0, -8109.861088974606, -11674.07025981787, 22361.95920252314, 1545.2655011731986, 47494.97592389297, 21157.80367348238, 37727.84474227962, 12432.666114886537, 35425.2127319828, 9200.11212827112, 39794.97877299533, 29042.046253925117, 41850.66871054992, 37018.2886145459, 31364.25839236479, 24581.934461824236, 0.096, 1.01, 0.168, 192.0, 0.0, 0.0, 0.0, 0.0, 0.0, 0.0, 0.0, 0.0, 0.0, 1.7074747779576957E9, 0.0, 2024-02-09 11:32:57.957
38.0, -8122.288658891757, -11690.208219314602, 22353.197318696657, 1529.1945969098326, 47659.57417006185, 21186.078630218344, 37808.55689150773, 12515.322865882263, 35724.83786640619, 9264.842780213688, 40191.11873997674, 29124.43478398738, 42357.49451607401, 37248.265713246554, 31541.440670662007, 24758.17796685433, 0.096, 1.01, 0.168, 192.0, 0.0, 0.0, 0.0, 0.0, 0.0, 0.0, 0.0, 0.0, 0.0, 1.7074747779649408E9, 0.0, 2024-02-09 11:32:57.964
40.0, -8174.323519983712, -11707.374359056277, 22314.819373466897, 1539.0740679590783, 47366.4310415305, 21125.058367855356, 37663.181145570416, 12394.31052140123, 35451.185459039865, 9134.934441439444, 39884.78808221675, 29010.999680876695, 42038.15514304103, 37050.67629226164, 31403.172779461478, 24643.669980009792, 0.096, 1.01, 0.168, 192.0, 0.0, 0.0, 0.0, 0.0, 0.0, 0.0, 0.0, 0.0, 0.0, 1.707474777972768E9, 0.0, 2024-02-09 11:32:57.972
42.0, -8070.4996669888105, -11640.296773945902, 22414.016415359547, 1556.5978356120393, 47695.24755421252, 21207.53630489544, 37824.6277957711, 12526.029351476354, 35574.67884715544, 9286.03223395732, 39975.46910947193, 29112.767173381708, 42064.77607068731, 37133.86948512429, 31453.84418414166, 24664.45710235323, 0.096, 1.01, 0.168, 192.0, 0.0, 0.0, 0.0, 0.0, 0.0, 0.0, 0.0, 0.0, 0.0, 1.7074747779807644E9, 0.0, 2024-02-09 11:32:57.980
44.0, -8161.493618666365, -11694.164478083192, 22339.56275457892, 1579.664835889916, 47479.977903363455, 21144.370275064743, 37717.45118110791, 12452.603870940671, 35663.92936276548, 9268.039079670796, 40157.836992482786, 29121.95374035284, 42368.4021673682, 37228.6855851037, 31534.422222903042, 24769.823225715547, 0.093, 1.0110000000000001, 0.167, 192.0, 1.0, 104.0, 15.5, 80.0, 2.5, 24.0, 0.0, 0.0, 0.0, 1.7074747779897873E9, 0.0, 2024-02-09 11:32:57.989
46.0, -8099.467527802888, -11654.512483419478, 22391.932891837703, 1574.3898241984637, 47520.97100269449, 21174.008688212478, 37749.14595474553, 12459.510559977361, 35422.75404009272, 9222.083893070685, 39794.35292415058, 29060.553498334113, 41873.08751023859, 37038.60635025577, 31387.83948276514, 24613.45042150622, 0.093, 1.0110000000000001, 0.167, 192.0, 0.0, 0.0, 0.0, 0.0, 0.0, 0.0, 0.0, 0.0, 0.0, 1.7074747779967344E9, 0.0, 2024-02-09 11:32:57.996
48.0, -8102.105033648615, -11660.435695700133, 22380.17587425421, 1562.9904345262569, 47686.217449452575, 21190.48192387604, 37820.06803990222, 12520.106139195697, 35724.27907279481, 9282.254789144372, 40196.8854900462, 29150.027531388707, 42373.40895812619, 37259.1957162852, 31564.57472617325, 24773.891243206413, 0.093, 1.0110000000000001, 0.167, 192.0, 0.0, 0.0, 0.0, 0.0, 0.0, 0.0, 0.0, 0.0, 0.0, 1.7074747780048196E9, 0.0, 2024-02-09 11:32:58.004
50.0, -8155.302185452246, -11676.707765663597, 22341.32854239089, 1580.245981245754, 47387.62049527413, 21120.61037070875, 37675.58636374311, 12387.694405042459, 35461.84724114505, 9223.693218671468, 39908.19035866146, 29063.928611746862, 42071.21337309043, 37078.68302806414, 31429.950169318938, 24663.272459897096, 0.093, 1.0110000000000001, 0.167, 192.0, 0.0, 0.0, 0.0, 0.0, 0.0, 0.0, 0.0, 0.0, 0.0, 1.7074747780128033E9, 0.0, 2024-02-09 11:32:58.012
52.0, -8053.847617369607, -11623.77883479343, 22429.30500856698, 1568.5336671511732, 47713.71009513261, 21205.994034528023, 37839.60346455616, 12546.190624975041, 35575.394102978, 9265.78155348081, 39985.95207762147, 29119.204475784838, 42078.14241387158, 37109.88606332375, 31471.0773791167, 24667.74280878816, 0.093, 1.0110000000000001, 0.167, 192.0, 0.0, 0.0, 0.0, 0.0, 0.0, 0.0, 0.0, 0.0, 0.0, 1.7074747780208216E9, 0.0, 2024-02-09 11:32:58.020
54.0, -8146.406191159033, -11673.667928417675, 22354.069036730416, 1579.3966149564524, 47502.50846177441, 21145.08553088731, 37727.33065215715, 12478.733060208924, 35671.260734946816, 9271.749469250379, 40178.601763081766, 29130.357996268034, 42387.40115015521, 37218.22496869862, 31552.035397533826, 24775.321754851553, 0.0915, 1.0095, 0.1705, 192.0, 1.0, 104.0, 15.5, 64.0, 2.5, 56.0, 0.0, 0.0, 0.0, 1.7074747780287926E9, 0.0, 2024-02-09 11:32:58.028
56.0, -8090.906809676506, -11644.387143181222, 22395.218598272633, 1573.9204375649022, 47517.59588928174, 21167.1467026647, 37729.6552335805, 12464.651461202082, 35424.05044127112, 9230.488148985882, 39812.01080227027, 29069.449492627326, 41875.16622247294, 37035.611216498764, 31381.759808273295, 24605.00146210211, 0.0915, 1.0095, 0.1705, 192.0, 0.0, 0.0, 0.0, 0.0, 0.0, 0.0, 0.0, 0.0, 0.0, 1.7074747780369952E9, 0.0, 2024-02-09 11:32:58.036
58.0, -8107.380045340067, -11661.955614323095, 22372.19630148367, 1554.8320478000699, 47686.44096689713, 21173.315784134364, 37813.09429563216, 12525.805834031802, 35734.96320664445, 9286.83689675771, 40209.0895425188, 29153.939086668386, 42382.48376637504, 37243.571846910934, 31559.031493548337, 24776.685211263324, 0.0915, 1.0095, 0.1705, 192.0, 0.0, 0.0, 0.0, 0.0, 0.0, 0.0, 0.0, 0.0, 0.0, 1.7074747780458207E9, 0.0, 2024-02-09 11:32:58.045
60.0, -8170.90370308205, -11686.028443101459, 22322.79894623744, 1565.6502921164385, 47375.46114629044, 21122.912600387644, 37666.466852005346, 12413.555373377249, 35462.40603475643, 9198.05576778123, 39902.84829173664, 29048.46120458379, 42060.88686715208, 37062.12038542276, 31412.985195277357, 24662.490148841163, 0.0915, 1.0095, 0.1705, 192.0, 0.0, 0.0, 0.0, 0.0, 0.0, 0.0, 0.0, 0.0, 0.0, 1.7074747780528316E9, 0.0, 2024-02-09 11:32:58.052
62.0, -8076.355824036101, -11646.957593793582, 22400.068926819436, 1539.2752336591761, 47699.18146123666, 21202.976549026556, 37832.16033365254, 12534.14303471363, 35571.840175609614, 9248.660117228046, 39964.85203085566, 29100.071382531096, 42062.31737879722, 37105.99685978852, 31449.195021294956, 24667.78751227707, 0.0915, 1.0095, 0.1705, 192.0, 0.0, 0.0, 0.0, 0.0, 0.0, 0.0, 0.0, 0.0, 0.0, 1.7074747780608363E9, 0.0, 2024-02-09 11:32:58.060
64.0, -8170.769592615318, -11698.478364763067, 22320.206143880623, 1553.8709227884917, 47484.02356910987, 21132.546202247882, 37716.06537295167, 12453.27442327433, 35660.911877264014, 9226.844814639666, 40152.04789066886, 29093.32115570559, 42369.94443773561, 37187.78189275049, 31524.38628964261, 24764.07882739053, 0.09175, 1.00875, 0.17125, 192.0, 1.0, 112.0, 15.5, 64.0, 2.5, 48.0, 0.0, 0.0, 0.0, 1.707474778068922E9, 0.0, 2024-02-09 11:32:58.068
66.0, -8111.068083175192, -11656.658250887187, 22377.650127130764, 1558.7436030797487, 47499.5133280174, 21158.22835662703, 37729.6552335805, 12451.218062784441, 35392.84740601151, 9201.609695149624, 39777.231487897814, 29038.17940213435, 41842.71148952383, 37011.65014644267, 31356.14470912751, 24588.841150860924, 0.09175, 1.00875, 0.17125, 192.0, 0.0, 0.0, 0.0, 0.0, 0.0, 0.0, 0.0, 0.0, 0.0, 1.707474778076896E9, 0.0, 2024-02-09 11:32:58.076
68.0, -8110.777510497273, -11667.297681247912, 22386.233197001602, 1550.6075680980168, 47681.456527883594, 21176.91441499167, 37817.274071845306, 12523.168328186075, 35733.17506708802, 9278.611454798158, 40199.567699380845, 29135.85652540404, 42388.630496100246, 37234.65350087327, 31555.321103968756, 24776.70756300778, 0.09175, 1.00875, 0.17125, 192.0, 0.0, 0.0, 0.0, 0.0, 0.0, 0.0, 0.0, 0.0, 0.0, 1.7074747780849106E9, 0.0, 2024-02-09 11:32:58.084
70.0, -8176.357528729145, -11701.808774686906, 22335.89706848825, 1554.9438065223464, 47385.877059206614, 21124.99131262199, 37667.40562527247, 12406.73809131838, 35458.315665521106, 9173.088869224652, 39898.44499807894, 29020.96855890376, 42069.31347481173, 37031.92317866364, 31417.23202672387, 24661.26080289612, 0.09175, 1.00875, 0.17125, 192.0, 0.0, 0.0, 0.0, 0.0, 0.0, 0.0, 0.0, 0.0, 0.0, 1.707474778093072E9, 0.0, 2024-02-09 11:32:58.093
72.0, -8070.589073966632, -11631.11020697477, 22427.181592843725, 1566.7231758502933, 47693.61587686728, 21227.228191760565, 37827.91350220603, 12557.254738480418, 35558.563239403156, 9234.667925199023, 39967.93657159049, 29096.09277201805, 42048.01226234582, 37122.47009545208, 31460.3261900337, 24683.053753740045, 0.09175, 1.00875, 0.17125, 192.0, 0.0, 0.0, 0.0, 0.0, 0.0, 0.0, 0.0, 0.0, 0.0, 1.707474778101948E9, 0.0, 2024-02-09 11:32:58.101
74.0, -8155.570406385709, -11681.133411065748, 22340.94856273515, 1572.4675741753072, 47478.27917078485, 21145.197289609587, 37709.4492565929, 12467.177208325531, 35644.32688287817, 9259.701878988968, 40159.69218727257, 29110.263778002714, 42371.17378368066, 37188.988886951076, 31525.973263498934, 24782.2507956327, 0.08887500000000001, 1.0113750000000001, 0.17162500000000003, 192.0, 1.0, 88.0, 15.5, 88.0, 2.5, 48.0, 0.0, 0.0, 0.0, 1.7074747781090212E9, 0.0, 2024-02-09 11:32:58.109
76.0, -8098.059367902204, -11640.117959990259, 22395.397412228278, 1583.7105016363266, 47504.318953075286, 21181.921205749655, 37723.70966955539, 12471.044060116299, 35422.77639183717, 9230.711666430434, 39798.644459086, 29061.02288496767, 41871.031149748706, 37064.48967033502, 31368.326409855654, 24613.182200572755, 0.08887500000000001, 1.0113750000000001, 0.17162500000000003, 192.0, 0.0, 0.0, 0.0, 0.0, 0.0, 0.0, 0.0, 0.0, 0.0, 1.7074747781170876E9, 0.0, 2024-02-09 11:32:58.117
78.0, -8092.493783532833, -11645.035343770427, 22387.909577835748, 1564.8456293160475, 47690.553687876905, 21185.497484862506, 37806.88051067359, 12531.57258410127, 35729.621139719624, 9303.757167310378, 40201.33348719281, 29154.676694235408, 42342.67530950014, 37264.984818099125, 31548.1461939986, 24786.788199757124, 0.08887500000000001, 1.0113750000000001, 0.17162500000000003, 192.0, 0.0, 0.0, 0.0, 0.0, 0.0, 0.0, 0.0, 0.0, 0.0, 1.7074747781249669E9, 0.0, 2024-02-09 11:32:58.124
80.0, -8153.648156362553, -11666.940053336628, 22341.440301113165, 1583.6210946585054, 47371.638997988586, 21133.79789993738, 37650.35124425307, 12408.325065174708, 35467.055197603135, 9211.131538287585, 39915.76760003181, 29053.490347086234, 42064.79842243176, 37081.253478676495, 31409.185398719957, 24669.575651833493, 0.08887500000000001, 1.0113750000000001, 0.17162500000000003, 192.0, 0.0, 0.0, 0.0, 0.0, 0.0, 0.0, 0.0, 0.0, 0.0, 1.707474778131971E9, 0.0, 2024-02-09 11:32:58.131
82.0, -8053.557044691688, -11618.861451013261, 22425.1922875872, 1568.377204939986, 47708.90447007471, 21222.33315972485, 37814.79302821076, 12541.273241194875, 35590.7497514188, 9305.925286522543, 39981.48172873041, 29124.725356665298, 42063.70318695345, 37144.12893582928, 31452.61483819662, 24684.014878751623, 0.08887500000000001, 1.0113750000000001, 0.17162500000000003, 192.0, 0.0, 0.0, 0.0, 0.0, 0.0, 0.0, 0.0, 0.0, 0.0, 1.7074747781409788E9, 0.0, 2024-02-09 11:32:58.140
84.0, -8173.205932760947, -11705.854440433317, 22317.546286290442, 1538.157646436411, 47474.12174631617, 21126.75710043396, 37689.42209356095, 12450.011068583855, 35673.11592973661, 9222.39681749306, 40169.43754785509, 29101.94892906534, 42376.62760932775, 37205.55152959246, 31527.42612688853, 24778.96508919777, 0.0844375, 1.0116875, 0.17081250000000003, 192.0, 1.0, 64.0, 15.5, 80.0, 2.5, 40.0, 0.0, 0.0, 0.0, 1.7074747781490233E9, 0.0, 2024-02-09 11:32:58.149
86.0, -8106.418920328489, -11648.835140327828, 22390.10004879237, 1555.5026001337292, 47506.35296182072, 21165.00093519699, 37711.52796882725, 12452.581519196216, 35378.94462096031, 9178.162715216007, 39761.853487712564, 29009.099782597994, 41807.14986409544, 36954.34027365926, 31333.882371650026, 24584.23669150313, 0.0844375, 1.0116875, 0.17081250000000003, 192.0, 0.0, 0.0, 0.0, 0.0, 0.0, 0.0, 0.0, 0.0, 0.0, 1.7074747781570196E9, 0.0, 2024-02-09 11:32:58.157
88.0, -8093.656074244509, -11648.946899050105, 22406.617987944843, 1561.1352397364665, 47707.25044098502, 21185.51983660696, 37803.840673427665, 12535.148863214119, 35755.50445979887, 9324.879565820644, 40215.079810032825, 29152.396816300967, 42409.462321932595, 37265.90123962179, 31559.366769715165, 24787.52580732415, 0.0844375, 1.0116875, 0.17081250000000003, 192.0, 0.0, 0.0, 0.0, 0.0, 0.0, 0.0, 0.0, 0.0, 0.0, 1.707474778165046E9, 0.0, 2024-02-09 11:32:58.165
90.0, -8176.3798804736, -11702.211106087101, 22327.716330017607, 1538.0458877141343, 47366.90042816406, 21094.659995396138, 37640.91880809293, 12408.54858261926, 35487.01530540172, 9192.713700856411, 39914.4711988534, 29026.154163617393, 42086.99370467588, 37009.61613769724, 31411.68879409895, 24668.279250655087, 0.0844375, 1.0116875, 0.17081250000000003, 192.0, 0.0, 0.0, 0.0, 0.0, 0.0, 0.0, 0.0, 0.0, 0.0, 1.707474778173077E9, 0.0, 2024-02-09 11:32:58.173
92.0, -8070.276149544257, -11632.45131164209, 22414.262284548557, 1563.437469415363, 47680.71892031657, 21208.76565084048, 37799.7726559368, 12532.9583922575, 35563.68178888343, 9255.008012653352, 39953.0279580388, 29082.637021855953, 42027.895692336046, 37093.32342068236, 31431.55949491972, 24662.423093607795, 0.0844375, 1.0116875, 0.17081250000000003, 192.0, 0.0, 0.0, 0.0, 0.0, 0.0, 0.0, 0.0, 0.0, 0.0, 1.7074747781810484E9, 0.0, 2024-02-09 11:32:58.181
94.0, -8156.3750691861005, -11694.209181572101, 22338.400463867245, 1567.8184113286034, 47478.41328125159, 21134.17787959312, 37690.62908776153, 12425.446501427472, 35690.32677296719, 9236.813692666734, 40176.09836770277, 29106.441629700857, 42386.752949566006, 37231.79247758299, 31521.368804141144, 24780.105028164988, 0.08521875000000001, 1.0118437500000002, 0.17040625000000004, 192.0, 1.0, 88.0, 15.5, 80.0, 2.5, 40.0, 0.0, 0.0, 0.0, 1.7074747781880577E9, 0.0, 2024-02-09 11:32:58.188
96.0, -8138.001935243838, -11685.246132045524, 22331.158498663724, 1507.602811766006, 47448.19372274801, 21128.1876120791, 37682.85068069109, 12415.656437356049, 35365.8464987095, 9110.146356838508, 39760.57943827861, 28988.469122465747, 41815.97880315528, 36968.60068662175, 31323.62292094504, 24571.406790185785, 0.08521875000000001, 1.0118437500000002, 0.17040625000000004, 192.0, 0.0, 0.0, 0.0, 0.0, 0.0, 0.0, 0.0, 0.0, 0.0, 1.7074747781973295E9, 0.0, 2024-02-09 11:32:58.197
98.0, -8080.468545015878, -11630.841986041307, 22414.999892115582, 1565.829106072081, 47700.142586248236, 21183.396420883706, 37813.58603401018, 12533.897165524622, 35729.21880831943, 9273.917588462542, 40197.310173190854, 29122.51253396422, 42378.9521907511, 37144.799488162935, 31523.648682075585, 24753.931135407824, 0.08521875000000001, 1.0118437500000002, 0.17040625000000004, 192.0, 0.0, 0.0, 0.0, 0.0, 0.0, 0.0, 0.0, 0.0, 0.0, 1.707474778205068E9, 0.0, 2024-02-09 11:32:58.205
100.0, -8177.385708974089, -11709.676588735174, 22315.28876010046, 1535.050753957123, 47364.933474651996, 21108.182800791597, 37647.803145385165, 12390.331910888186, 35512.96568071433, 9208.650494653046, 39935.861818297126, 29050.204640651304, 42095.84499548018, 37167.48650878507, 31411.107648743113, 24678.806922293537, 0.08521875000000001, 1.0118437500000002, 0.17040625000000004, 192.0, 0.0, 0.0, 0.0, 0.0, 0.0, 0.0, 0.0, 0.0, 0.0, 1.7074747782121475E9, 0.0, 2024-02-09 11:32:58.212
102.0, -8048.147922533503, -11592.307578600357, 22445.465319808165, 1590.2372110172762, 47720.10269404682, 21223.83072660336, 37835.982481954394, 12535.260621936397, 35586.97230660586, 9272.196504139483, 39969.09886230217, 29093.34350745005, 42062.40678577504, 37114.13289477026, 31433.392337965055, 24663.674791297293, 0.08521875000000001, 1.0118437500000002, 0.17040625000000004, 192.0, 0.0, 0.0, 0.0, 0.0, 0.0, 0.0, 0.0, 0.0, 0.0, 1.7074747782201433E9, 0.0, 2024-02-09 11:32:58.220
104.0, -8157.917339553516, -11672.997376084015, 22347.788196538473, 1578.6143039005167, 47515.27130785839, 21142.962115164057, 37728.91762601348, 12459.219987299442, 35702.68728765098, 9301.700806820489, 40195.991420267994, 29139.902191150453, 42432.57402569938, 37249.07037604694, 31546.201592230987, 24795.52773183915, 0.086609375, 1.011921875, 0.171203125, 192.0, 1.0, 96.0, 15.5, 80.0, 2.5, 48.0, 0.0, 0.0, 0.0, 1.707474778229139E9, 0.0, 2024-02-09 11:32:58.229
106.0, -8121.551051324732, -11667.11886729227, 22384.37800221181, 1555.3237861780867, 47498.35103730572, 21151.209908868066, 37717.80880901919, 12445.808940626257, 35413.03103125466, 9180.263779194805, 39796.85631952957, 29040.07930041305, 41886.83383307861, 37020.68025120262, 31368.214651133378, 24612.19872381672, 0.086609375, 1.011921875, 0.171203125, 192.0, 0.0, 0.0, 0.0, 0.0, 0.0, 0.0, 0.0, 0.0, 0.0, 1.7074747782371523E9, 0.0, 2024-02-09 11:32:58.237
108.0, -8205.05716860976, -11778.631720379797, 22270.674678167663, 1445.4426104357972, 47609.528614226416, 21129.618123724238, 37758.399576950025, 12489.37249056965, 35636.05673742971, 9048.589652608593, 40135.395841049656, 29054.004437208707, 42304.99026834849, 37183.15508164824, 31507.175446412024, 24753.506452263173, 0.086609375, 1.011921875, 0.171203125, 192.0, 0.0, 0.0, 0.0, 0.0, 0.0, 0.0, 0.0, 0.0, 0.0, 1.7074747782441845E9, 0.0, 2024-02-09 11:32:58.244
110.0, -8204.76659593184, -11698.880696163262, 22313.18769612166, 1535.3860301239527, 47345.46510523142, 21086.36749820322, 37629.54177016518, 12373.322233357696, 35318.483152208704, 8944.788151358147, 39809.97679352484, 28903.666604002312, 42009.3660961826, 36968.80185232185, 31349.483889279833, 24621.653511721317, 0.086609375, 1.011921875, 0.171203125, 192.0, 0.0, 0.0, 0.0, 0.0, 0.0, 0.0, 0.0, 0.0, 0.0, 1.7074747782521513E9, 0.0, 2024-02-09 11:32:58.252
112.0, -8181.341967742678, -11750.557929343931, 22281.224701550567, 1439.675860366328, 47600.789082144394, 21128.85816441276, 37747.916608800486, 12449.854606372668, 35417.32256619007, 9044.342821162083, 39872.91930591098, 29013.391317533413, 42017.12215150859, 37122.33598498535, 31387.079523453656, 24628.426090291276, 0.086609375, 1.011921875, 0.171203125, 192.0, 0.0, 0.0, 0.0, 0.0, 0.0, 0.0, 0.0, 0.0, 0.0, 1.7074747782611592E9, 0.0, 2024-02-09 11:32:58.261
114.0, -8128.480092105877, -11647.06935251586, 22389.09422029188, 1585.8115656151256, 47510.30922058931, 21144.929068676123, 37708.488131581325, 12453.60969944116, 35603.95963239189, 9322.666743119567, 40112.03826809386, 29056.574887821065, 42392.22912695755, 37239.50382942007, 31481.33682982169, 24736.072091588034, 0.0863046875, 1.0099609375, 0.16960156250000002, 192.0, 1.0, 88.0, 15.5, 64.0, 2.5, 32.0, 0.0, 0.0, 0.0, 1.7074747782683752E9, 0.0, 2024-02-09 11:32:58.268
116.0, -8109.704626763419, -11685.581408212354, 22385.070906289926, 1537.01770746919, 47481.67663594206, 21131.56272549185, 37686.09168363711, 12416.036417011788, 35563.63708539451, 9136.432008317948, 39839.92813109495, 29065.7614547922, 41977.78308126725, 37074.749121040004, 31374.942526214425, 24611.975206372168, 0.0863046875, 1.0099609375, 0.16960156250000002, 192.0, 0.0, 0.0, 0.0, 0.0, 0.0, 0.0, 0.0, 0.0, 0.0, 1.707474778276214E9, 0.0, 2024-02-09 11:32:58.276
118.0, -8172.490676938377, -11710.727120724574, 22328.878620729283, 1515.4706258142742, 47646.56545478886, 21146.583097765815, 37755.04681528173, 12482.175228855041, 35694.64065964707, 8869.686289988314, 40149.14216388967, 29057.714826788288, 42369.609161568784, 37239.32501546443, 31499.821722486227, 24731.959370608256, 0.0863046875, 1.0099609375, 0.16960156250000002, 192.0, 0.0, 0.0, 0.0, 0.0, 0.0, 0.0, 0.0, 0.0, 0.0, 1.7074747782851927E9, 0.0, 2024-02-09 11:32:58.285
120.0, -8200.139784829591, -11719.868984206794, 22299.329614559367, 1527.8534922425142, 47343.43109648599, 21071.950623029545, 37612.46503740133, 12363.420410563995, 35282.630954102395, 8973.979529616778, 39846.36543349808, 29010.26207330967, 42047.69933792345, 37049.82692597234, 31354.177755615445, 24620.960607643203, 0.0863046875, 1.0099609375, 0.16960156250000002, 192.0, 0.0, 0.0, 0.0, 0.0, 0.0, 0.0, 0.0, 0.0, 0.0, 1.707474778293261E9, 0.0, 2024-02-09 11:32:58.293
122.0, -8032.0546665256825, -11601.807069993863, 22445.53237504153, 1573.1604782534216, 47694.48759490104, 21190.034888986935, 37799.41502802551, 12522.184851430042, 35667.282124433776, 8827.441492967784, 39945.160143990535, 29080.781827066163, 42112.22882416592, 37120.68195589566, 31410.437096409452, 24645.145195143843, 0.0863046875, 1.0099609375, 0.16960156250000002, 192.0, 0.0, 0.0, 0.0, 0.0, 0.0, 0.0, 0.0, 0.0, 0.0, 1.7074747783002076E9, 0.0, 2024-02-09 11:32:58.300
124.0, -8197.703444683963, -11773.691984855173, 22295.283948812958, 1470.118936314456, 47455.83801935173, 21078.611442877227, 37667.18210782792, 12403.720605816914, 35773.40820710757, 8799.88179205439, 40197.891318546695, 29097.925615063385, 42468.85090695035, 37247.773974868534, 31525.973263498934, 24773.488911806216, 0.08515234375, 1.00998046875, 0.17080078125000003, 192.0, 1.0, 80.0, 15.5, 72.0, 2.5, 48.0, 0.0, 0.0, 0.0, 1.70747477830827E9, 0.0, 2024-02-09 11:32:58.308
126.0, -8022.868099554551, -11567.117162599227, 22465.35837237339, 1637.1088191400552, 47540.77464828189, 21194.929921022645, 37752.69988211392, 12473.390993284107, 35464.663560946414, 8463.689203702117, 39767.21790638184, 28965.580936143513, 41896.82506285013, 37013.97472786602, 31338.464479263366, 24576.927671066245, 0.08515234375, 1.00998046875, 0.17080078125000003, 192.0, 0.0, 0.0, 0.0, 0.0, 0.0, 0.0, 0.0, 0.0, 0.0, 1.7074747783172493E9, 0.0, 2024-02-09 11:32:58.317
128.0, -8046.002155065794, -11602.902305472173, 22444.884174452327, 1595.5122227087288, 47726.78586563896, 21220.209744001597, 37836.51892382132, 12556.7630001024, 35859.305961049315, 8754.418343832296, 40282.00093293202, 29218.557979888676, 42507.94410800268, 37341.83011553647, 31605.232549337456, 24837.191383503843, 0.08515234375, 1.00998046875, 0.17080078125000003, 192.0, 0.0, 0.0, 0.0, 0.0, 0.0, 0.0, 0.0, 0.0, 0.0, 1.707474778324283E9, 0.0, 2024-02-09 11:32:58.324
130.0, -8133.218661930402, -11648.902195561195, 22364.99903976906, 1576.9602748108239, 47395.957695955956, 21129.014626623946, 37669.640799718, 12416.349341434163, 35543.7887363182, 8536.108855737311, 39960.02405405331, 29068.84599552703, 42199.28886881934, 37139.03273809347, 31443.830602625683, 24707.97594880771, 0.08515234375, 1.00998046875, 0.17080078125000003, 192.0, 0.0, 0.0, 0.0, 0.0, 0.0, 0.0, 0.0, 0.0, 0.0, 1.707474778332284E9, 0.0, 2024-02-09 11:32:58.332
132.0, -8297.92866682156, -11851.274889859546, 22214.5941513293, 1333.5721294369853, 47543.65802331663, 21050.15767218562, 37658.12965132352, 12387.470887597907, 35503.9802794433, 8339.547614997342, 39888.52082354079, 28999.041497593105, 42069.201716089454, 37100.36422018579, 31389.091180454634, 24629.364863558396, 0.08515234375, 1.00998046875, 0.17080078125000003, 192.0, 0.0, 0.0, 0.0, 0.0, 0.0, 0.0, 0.0, 0.0, 0.0, 1.7074747783412776E9, 0.0, 2024-02-09 11:32:58.341
134.0, -8231.879261956128, -11725.836899976362, 22252.614468647775, 1482.3900440204197, 47440.348260444196, 21062.339372913764, 37637.521342935725, 12391.31538764422, 35323.33348075551, 8192.741357414885, 39955.68781562899, 28908.136952893372, 42321.55291098987, 37136.976377603576, 31377.31181112669, 24655.73992201566, 0.084576171875, 1.0089902343750001, 0.170400390625, 192.0, 1.0, 80.0, 15.5, 64.0, 2.5, 40.0, 0.0, 0.0, 0.0, 1.7074747783493013E9, 0.0, 2024-02-09 11:32:58.349
136.0, -8167.930921069494, -11757.889301525272, 22308.247960597037, 1481.6971399423053, 47441.175274989044, 21102.907789100147, 37644.249218016776, 12380.072460183199, 35341.95248388678, 8139.723019566896, 39709.55040568714, 28958.763654084643, 41881.31295219815, 37042.607312513275, 31286.496673404778, 24560.05210400249, 0.084576171875, 1.0089902343750001, 0.170400390625, 192.0, 0.0, 0.0, 0.0, 0.0, 0.0, 0.0, 0.0, 0.0, 0.0, 1.707474778356297E9, 0.0, 2024-02-09 11:32:58.356
138.0, -8056.574530193154, -11630.462006385565, 22417.033900861014, 1561.6269781144833, 47707.92099331868, 21167.95136546509, 37787.81447265321, 12515.0546449488, 35825.532475177344, 8136.794941043251, 40173.30439964586, 29068.913050760395, 42459.01613939001, 37237.46982067464, 31506.080210933713, 24751.740664451205, 0.084576171875, 1.0089902343750001, 0.170400390625, 192.0, 0.0, 0.0, 0.0, 0.0, 0.0, 0.0, 0.0, 0.0, 0.0, 1.7074747783644557E9, 0.0, 2024-02-09 11:32:58.364
140.0, -8166.142781513069, -11682.899198877716, 22324.296513115947, 1550.3393471645531, 47360.597236227666, 21079.147884744154, 37617.69534560387, 12377.077326426188, 35563.68178888343, 8265.853913528194, 39933.134905473584, 29039.09582365702, 42247.83685777627, 37143.86071489581, 31400.758791060307, 24672.83900652397, 0.084576171875, 1.0089902343750001, 0.170400390625, 192.0, 0.0, 0.0, 0.0, 0.0, 0.0, 0.0, 0.0, 0.0, 0.0, 1.707474778373342E9, 0.0, 2024-02-09 11:32:58.373
142.0, -8147.076743492693, -11700.422966530678, 22333.50543183153, 1470.6777299258388, 47626.22536733453, 21138.871745928736, 37744.29562619873, 12467.713650192458, 35381.73858901722, 8158.006746531338, 39868.18073608646, 29039.565210290577, 42119.91782425855, 37145.20181956313, 31392.890977012037, 24630.25893333661, 0.084576171875, 1.0089902343750001, 0.170400390625, 192.0, 0.0, 0.0, 0.0, 0.0, 0.0, 0.0, 0.0, 0.0, 0.0, 1.7074747783802843E9, 0.0, 2024-02-09 11:32:58.380
144.0, -8193.881296382106, -11764.952452773148, 22290.008937121504, 1470.4989159701963, 47458.58728391973, 21071.056553251336, 37643.332796494105, 12400.859582526635, 35688.181005499486, 7996.493041097288, 40113.580538461276, 28997.92391037034, 42470.52728778449, 37250.47853594763, 31462.89664064606, 24723.756280393158, 0.084576171875, 1.0089902343750001, 0.170400390625, 192.0, 0.0, 0.0, 0.0, 0.0, 0.0, 0.0, 0.0, 0.0, 0.0, 1.7074747783883162E9, 0.0, 2024-02-09 11:32:58.388
146.0, -8080.222675826869, -11663.095553290315, 22345.061283714927, 1493.5212127591626, 47441.264681966866, 21098.191571020077, 37654.97805535532, 12410.895515787068, 35515.290262137685, 7758.402259159358, 39742.18395259189, 28940.234057931193, 41991.73056980736, 37034.58303625382, 31318.213798786855, 24571.116217507868, 0.082, 1.01, 0.168, 192.0, 1.0, 72.0, 15.5, 72.0, 2.5, 32.0, 0.0, 0.0, 0.0, 1.7074747783963096E9, 0.0, 2024-02-09 11:32:58.396
148.0, -8034.356896204579, -11586.831401208807, 22484.536169116043, 1612.4548450058514, 47747.59533972685, 21205.9046275502, 37827.48881906138, 12551.62209887768, 35853.89683889113, 7997.767090531242, 40215.10216177728, 29129.5756852121, 42605.39771382782, 37369.03218853858, 31539.317254938753, 24767.163368125366, 0.082, 1.01, 0.168, 192.0, 0.0, 0.0, 0.0, 0.0, 0.0, 0.0, 0.0, 0.0, 0.0, 1.7074747784045296E9, 0.0, 2024-02-09 11:32:58.404
150.0, -8153.849322062651, -11688.97887336956, 22328.18571665117, 1557.313091434609, 47364.1288118516, 21112.474335727016, 37632.916883577935, 12388.83434400968, 35599.13165558954, 7929.0354763311725, 39985.974429365924, 29092.583548138566, 42310.689963184595, 37216.59329135338, 31458.13571907708, 24727.444318228285, 0.082, 1.01, 0.168, 192.0, 0.0, 0.0, 0.0, 0.0, 0.0, 0.0, 0.0, 0.0, 0.0, 1.7074747784123452E9, 0.0, 2024-02-09 11:32:58.412
152.0, -8009.412349392456, -11576.706060970553, 22461.715038027174, 1581.117699279511, 47696.90158330221, 21220.500316679518, 37802.07488561569, 12535.238270191941, 35604.27255681426, 7811.867631896453, 39942.05325151125, 29047.50007957221, 42197.52308100738, 37194.733285276096, 31415.153314489522, 24660.67965754028, 0.082, 1.01, 0.168, 192.0, 0.0, 0.0, 0.0, 0.0, 0.0, 0.0, 0.0, 0.0, 0.0, 1.70747477842038E9, 0.0, 2024-02-09 11:32:58.420
154.0, -8157.872636064606, -11672.662099917186, 22341.5744115799, 1555.6814140893716, 47494.14890934812, 21120.99035036449, 37677.59802074409, 12430.497995674372, 35780.27019265535, 7920.832386116074, 40216.8455978448, 29157.67182799242, 42645.92142652529, 37377.54820317605, 31544.72637709694, 24806.18951394433, 0.082, 1.01, 0.168, 192.0, 0.0, 0.0, 0.0, 0.0, 0.0, 0.0, 0.0, 0.0, 0.0, 1.7074747784294133E9, 0.0, 2024-02-09 11:32:58.429
156.0, -8122.020437958293, -11717.075016149882, 22347.229402927092, 1455.3444332294982, 47435.0956004972, 21093.832980851294, 37643.176334282914, 12384.945140474456, 35510.99872720226, 7570.513495268046, 39787.222717669334, 28975.34864847048, 42060.350425285156, 37095.55859512789, 31328.897932636493, 24575.43010418774, 0.078, 1.01, 0.164, 192.0, 1.0, 56.0, 15.5, 72.0, 2.5, 16.0, 0.0, 0.0, 0.0, 1.7074747784364045E9, 0.0, 2024-02-09 11:32:58.436
158.0, -8067.705698931897, -11643.180148980637, 22385.629699901307, 1560.5317426361732, 47679.31076041589, 21173.025211456446, 37778.672609170986, 12512.931229225545, 35808.768666835866, 7655.763048620588, 40193.0856934888, 29102.351260465537, 42546.09853578789, 37323.077001938465, 31510.90818773606, 24748.209088827265, 0.078, 1.01, 0.164, 192.0, 0.0, 0.0, 0.0, 0.0, 0.0, 0.0, 0.0, 0.0, 0.0, 1.7074747784444156E9, 0.0, 2024-02-09 11:32:58.444
160.0, -8127.809539772218, -11649.170416494659, 22352.05737972944, 1572.3558154530306, 47363.32414905121, 21095.688175641084, 37622.09863926156, 12372.048183923744, 35599.601042223105, 7580.88470469531, 39943.126135245104, 29042.56034404759, 42314.22153880853, 37213.039363984986, 31394.12032295708, 24677.465817626216, 0.078, 1.01, 0.164, 192.0, 0.0, 0.0, 0.0, 0.0, 0.0, 0.0, 0.0, 0.0, 0.0, 1.7074747784526348E9, 0.0, 2024-02-09 11:32:58.452
162.0, -8062.028355840249, -11645.191805981614, 22417.547990983487, 1520.0303816831567, 47661.474068340554, 21179.306051648386, 37771.63180966757, 12494.692205750014, 35578.81391987967, 7456.273729356973, 39948.177629492006, 29054.22795465326, 42243.299453651845, 37203.942203991675, 31407.55372137472, 24639.512555541107, 0.078, 1.01, 0.164, 192.0, 0.0, 0.0, 0.0, 0.0, 0.0, 0.0, 0.0, 0.0, 0.0, 1.707474778460693E9, 0.0, 2024-02-09 11:32:58.460
164.0, -8157.3138424532235, -11693.091594349336, 22322.866001470808, 1516.8117304815926, 47487.77866217836, 21114.173068305623, 37675.139328854006, 12439.50574868986, 35730.22463681992, 7449.90348218721, 40157.23349538249, 29031.965617175774, 42602.96137368219, 37329.156676430306, 31512.51751333684, 24766.895147191903, 0.078, 1.01, 0.164, 192.0, 0.0, 0.0, 0.0, 0.0, 0.0, 0.0, 0.0, 0.0, 0.0, 1.7074747784684732E9, 0.0, 2024-02-09 11:32:58.468
166.0, -8143.925147524495, -11677.73594590854, 22357.75707456554, 1527.473512586774, 47441.91288255607, 21127.628818467718, 37660.49893623578, 12412.996579765866, 35481.650886732445, 7469.349499863327, 39783.177051922925, 29027.56232351808, 42109.211338664456, 37132.10369731232, 31353.171927114956, 24607.326043525463, 0.076, 1.012, 0.168, 192.0, 1.0, 48.0, 15.5, 80.0, 2.5, 32.0, 0.0, 0.0, 0.0, 1.7074747784765244E9, 0.0, 2024-02-09 11:32:58.476
168.0, -8082.770774694774, -11670.091649304826, 22415.491630493598, 1541.73392554926, 47692.56534487788, 21194.81816230037, 37786.54042321926, 12535.752360314413, 35755.88443945461, 7390.157269258174, 40165.90597223115, 29090.05780101512, 42576.049873358, 37349.18383946226, 31523.603978586674, 24773.220690872753, 0.076, 1.012, 0.168, 192.0, 0.0, 0.0, 0.0, 0.0, 0.0, 0.0, 0.0, 0.0, 0.0, 1.7074747784855375E9, 0.0, 2024-02-09 11:32:58.485
170.0, -8158.833761076184, -11699.014806629993, 22331.180850408182, 1537.9788324807685, 47355.18811406948, 21116.631760195705, 37619.841113071576, 12386.845038753157, 35548.639064865005, 7247.3743256776725, 39930.340937416666, 29000.293195282604, 42335.94743441909, 37196.052038198955, 31417.924930801983, 24691.54741663306, 0.076, 1.012, 0.168, 192.0, 0.0, 0.0, 0.0, 0.0, 0.0, 0.0, 0.0, 0.0, 0.0, 1.7074747784915104E9, 0.0, 2024-02-09 11:32:58.491
172.0, -8086.391757296534, -11664.838989357828, 22393.899845349773, 1509.3909513224307, 47642.944472187104, 21186.14568545171, 37761.90880082951, 12492.457031304482, 35595.91300438798, 7306.762910695424, 39931.21265545043, 29050.27169588467, 42246.786325786874, 37220.05781174396, 31412.73932608835, 24658.93622147277, 0.076, 1.012, 0.168, 192.0, 0.0, 0.0, 0.0, 0.0, 0.0, 0.0, 0.0, 0.0, 0.0, 1.707474778500595E9, 0.0, 2024-02-09 11:32:58.500
174.0, -8137.957231754927, -11697.986626385049, 22341.663818557718, 1525.0595241856008, 47497.322857060775, 21138.402359295174, 37685.93522142592, 12448.84877787218, 35729.24116006389, 7217.512395085382, 40164.050777441356, 29046.31543711608, 42624.776676270565, 37333.425859621275, 31505.163789411046, 24782.742534010715, 0.076, 1.012, 0.168, 192.0, 0.0, 0.0, 0.0, 0.0, 0.0, 0.0, 0.0, 0.0, 0.0, 1.707474778508726E9, 0.0, 2024-02-09 11:32:58.508
176.0, -8087.21877184138, -11634.887651787718, 22391.128229037313, 1555.636710600461, 47475.865182383684, 21146.069007643346, 37677.642724233, 12420.752635091858, 35487.93172692439, 7195.250057607896, 39796.76691255175, 29000.44965749379, 42146.00231003789, 37145.38063351878, 31355.451805049397, 24611.617578460882, 0.07200000000000001, 1.008, 0.168, 192.0, 1.0, 32.0, 15.5, 64.0, 2.5, 32.0, 0.0, 0.0, 0.0, 1.7074747785166512E9, 0.0, 2024-02-09 11:32:58.516
178.0, -8069.203265810403, -11629.903212774183, 22421.034863118515, 1554.0497367441342, 47700.72373160407, 21182.43529587213, 37785.95927786342, 12513.490022836928, 35850.67818768957, 7344.179730913607, 40224.802818870885, 29147.56883949862, 42633.33739439695, 37381.83973811147, 31542.647664862594, 24782.76488575517, 0.07200000000000001, 1.008, 0.168, 192.0, 0.0, 0.0, 0.0, 0.0, 0.0, 0.0, 0.0, 0.0, 0.0, 1.7074747785245645E9, 0.0, 2024-02-09 11:32:58.524
180.0, -8171.66366239353, -11705.720329966585, 22321.83782122586, 1521.2597276281988, 47357.55739898174, 21090.79314360537, 37609.02286875521, 12364.0686111532, 35528.567198344135, 7145.115094794643, 39936.39826016405, 29011.35730878798, 42365.205867911085, 37201.304698145956, 31411.50998014331, 24679.768047305115, 0.07200000000000001, 1.008, 0.168, 192.0, 0.0, 0.0, 0.0, 0.0, 0.0, 0.0, 0.0, 0.0, 0.0, 1.707474778532627E9, 0.0, 2024-02-09 11:32:58.532
182.0, -8050.651317912498, -11630.35024766329, 22441.1961366172, 1528.2558236427099, 47682.32824591735, 21196.67335709016, 37782.98649585086, 12512.461842591983, 35615.49313253083, 7163.801153159279, 39936.5770741197, 29040.727501002253, 42279.1293000137, 37207.54083484898, 31420.405974436522, 24651.82836673598, 0.07200000000000001, 1.008, 0.168, 192.0, 0.0, 0.0, 0.0, 0.0, 0.0, 0.0, 0.0, 0.0, 0.0, 1.7074747785405953E9, 0.0, 2024-02-09 11:32:58.540
184.0, -8149.893063294061, -11699.327731052368, 22336.27704814399, 1532.7261725337712, 47498.0604646278, 21125.259533555454, 37680.77196845674, 12426.675847372515, 35760.801823234775, 7153.385240243107, 40193.59978361127, 29085.006306768217, 42660.40535693233, 37340.7125283137, 31534.444574647496, 24795.795952772613, 0.07200000000000001, 1.008, 0.168, 192.0, 0.0, 0.0, 0.0, 0.0, 0.0, 0.0, 0.0, 0.0, 0.0, 1.7074747785476842E9, 0.0, 2024-02-09 11:32:58.547
186.0, -8125.37319962659, -11678.4064982422, 22381.29346147698, 1533.083800445056, 47463.63877816663, 21140.14579536269, 37666.042168860695, 12410.046149497766, 35451.07370031759, 7023.1416253020325, 39770.168336649935, 28979.550776428077, 42104.76334151785, 37117.53035992746, 31339.67147346395, 24600.91109286679, 0.078, 1.01, 0.168, 192.0, 1.0, 56.0, 15.5, 72.0, 2.5, 32.0, 0.0, 0.0, 0.0, 1.707474778556658E9, 0.0, 2024-02-09 11:32:58.556
188.0, -8106.217754628391, -11679.434678487145, 22370.251699716056, 1522.1761491508662, 47670.7500422895, 21168.599566054294, 37751.02350127977, 12489.014862658367, 35711.40446798855, 7143.349306982674, 40152.53962904688, 29084.89454804594, 42575.55813497998, 37342.94770275924, 31517.85958026166, 24764.10117913499, 0.078, 1.01, 0.168, 192.0, 0.0, 0.0, 0.0, 0.0, 0.0, 0.0, 0.0, 0.0, 0.0, 1.707474778564648E9, 0.0, 2024-02-09 11:32:58.564
190.0, -8161.80654308874, -11695.304417050413, 22360.796911811463, 1560.1741147248883, 47369.89556192107, 21117.682292185105, 37624.82555208511, 12395.696329557459, 35569.537945930715, 7063.3524135771295, 39950.36810044862, 29020.901503670397, 42376.51585060547, 37204.25512841405, 31418.662538369008, 24693.156742233845, 0.078, 1.01, 0.168, 192.0, 0.0, 0.0, 0.0, 0.0, 0.0, 0.0, 0.0, 0.0, 0.0, 1.7074747785726347E9, 0.0, 2024-02-09 11:32:58.572
192.0, -8082.748422950319, -11665.397782969212, 22409.99310135759, 1517.996372937724, 47649.649995523694, 21191.66656633217, 37764.74747237533, 12510.09255767972, 35596.09181834362, 7048.309689558708, 39936.085335741685, 29050.763434262688, 42268.668683608616, 37213.68756457419, 31417.924930801983, 24667.78751227707, 0.078, 1.01, 0.168, 192.0, 0.0, 0.0, 0.0, 0.0, 0.0, 0.0, 0.0, 0.0, 0.0, 1.70747477857965E9, 0.0, 2024-02-09 11:32:58.579
194.0, -8152.798790073251, -11703.775728198974, 22345.150690692746, 1542.1139052050003, 47504.47541528648, 21134.75902494896, 37683.99061965831, 12446.591251682194, 35719.764020414834, 7038.564328976194, 40182.356856150254, 29066.342600148037, 42656.58320863047, 37337.762098045605, 31515.803219771773, 24789.269243391664, 0.078, 1.01, 0.168, 192.0, 0.0, 0.0, 0.0, 0.0, 0.0, 0.0, 0.0, 0.0, 0.0, 1.7074747785886948E9, 0.0, 2024-02-09 11:32:58.588
196.0, -8136.057333476226, -11701.78642294245, 22357.779426309997, 1516.051771170112, 47446.852618080695, 21137.552993005873, 37664.14227058199, 12418.383350179596, 35457.98038935428, 6968.782182786726, 39782.99823796729, 28994.906424868874, 42120.40956263657, 37111.942423813634, 31337.704519951883, 24608.756555170603, 0.08, 1.008, 0.168, 192.0, 1.0, 64.0, 15.5, 64.0, 2.5, 32.0, 0.0, 0.0, 0.0, 1.7074747785967083E9, 0.0, 2024-02-09 11:32:58.596
198.0, -8106.329513350668, -11680.842838387829, 22389.138923780793, 1522.0420386841345, 47672.158202190185, 21174.835702757326, 37771.02831256727, 12505.71161576648, 35748.59777076218, 6962.523694339239, 40154.84185872577, 29065.89556525893, 42572.27242854505, 37301.418161561276, 31503.777981254814, 24756.792158698103, 0.08, 1.008, 0.168, 192.0, 0.0, 0.0, 0.0, 0.0, 0.0, 0.0, 0.0, 0.0, 0.0, 1.7074747786036777E9, 0.0, 2024-02-09 11:32:58.603
200.0, -8188.76274690184, -11716.404463816221, 22325.838783483363, 1532.5250068336734, 47348.773163410806, 21096.492838441474, 37613.35910717954, 12375.624463036593, 35528.41073613295, 6964.960034484868, 39940.3768706771, 29020.521524014657, 42366.45756560058, 37184.295020615464, 31407.151389974522, 24681.667945583817, 0.08, 1.008, 0.168, 192.0, 0.0, 0.0, 0.0, 0.0, 0.0, 0.0, 0.0, 0.0, 0.0, 1.7074747786127267E9, 0.0, 2024-02-09 11:32:58.612
202.0, -8101.79210922624, -11683.457992489099, 22387.19432201318, 1495.6446284824167, 47639.994041919, 21178.724906292548, 37760.47828918437, 12490.490077792416, 35527.76253554375, 6909.684170446893, 39901.73070451387, 29023.136678115927, 42226.513293565906, 37150.052148109935, 31392.131017700558, 24637.031511906567, 0.08, 1.008, 0.168, 192.0, 0.0, 0.0, 0.0, 0.0, 0.0, 0.0, 0.0, 0.0, 0.0, 1.7074747786207159E9, 0.0, 2024-02-09 11:32:58.620
204.0, -8172.490676938377, -11712.135280625258, 22338.84749875635, 1534.7825330236594, 47493.545412247826, 21124.94660913308, 37682.22483184634, 12427.748731106369, 35697.14405502607, 6946.408086586963, 40176.16542293614, 29070.74589380573, 42640.57935960047, 37316.19266464623, 31507.62248130113, 24777.154597896886, 0.08, 1.008, 0.168, 192.0, 0.0, 0.0, 0.0, 0.0, 0.0, 0.0, 0.0, 0.0, 0.0, 1.707474778628706E9, 0.0, 2024-02-09 11:32:58.628
206.0, -8129.284754906268, -11681.513390721488, 22378.633603886796, 1536.1683411798886, 47445.667975624565, 21140.816347696345, 37666.51155549426, 12408.593286108171, 35434.84633384304, 6867.797001337648, 39777.14208091999, 28987.351535242982, 42089.16182388805, 37072.804519272395, 31331.06605184866, 24592.23861601813, 0.078, 1.006, 0.17200000000000001, 192.0, 1.0, 56.0, 15.5, 56.0, 2.5, 48.0, 0.0, 0.0, 0.0, 1.707474778635758E9, 0.0, 2024-02-09 11:32:58.635
208.0, -8111.1798418974695, -11678.182980797646, 22407.981444356614, 1534.8719400014807, 47688.83260355385, 21177.026173713944, 37781.64539118354, 12486.779688212835, 35739.88059042461, 6946.56454879815, 40168.76699552143, 29099.08790577506, 42558.369643493854, 37299.8535394494, 31515.400888371576, 24762.313039578563, 0.078, 1.006, 0.17200000000000001, 192.0, 0.0, 0.0, 0.0, 0.0, 0.0, 0.0, 0.0, 0.0, 0.0, 1.7074747786447744E9, 0.0, 2024-02-09 11:32:58.644
210.0, -8199.424529007021, -11722.953524941628, 22339.94273423466, 1547.5900825965505, 47362.810058928735, 21105.925274601614, 37618.05297351515, 12359.374744817585, 35518.06187845014, 6863.326652446587, 39938.85695205414, 29010.88792215442, 42346.85508571328, 37155.50597375703, 31415.913273801005, 24681.51148337263, 0.078, 1.006, 0.17200000000000001, 192.0, 0.0, 0.0, 0.0, 0.0, 0.0, 0.0, 0.0, 0.0, 0.0, 1.7074747786521425E9, 0.0, 2024-02-09 11:32:58.652
212.0, -8092.627893999565, -11670.851608616305, 22427.785089944016, 1544.6843558173605, 47661.42936485164, 21215.82880208836, 37772.52587944578, 12536.311153925795, 35533.886913524504, 6888.673530658905, 39913.53242558628, 29046.762472005186, 42222.31116560831, 37161.02685463749, 31418.17079999099, 24661.26080289612, 0.078, 1.006, 0.17200000000000001, 192.0, 0.0, 0.0, 0.0, 0.0, 0.0, 0.0, 0.0, 0.0, 0.0, 1.707474778659735E9, 0.0, 2024-02-09 11:32:58.659
214.0, -8178.637406663586, -11715.912725438206, 22357.84648154336, 1549.9370157643577, 47510.08570314476, 21161.8940427177, 37692.685448251425, 12471.200522327486, 35703.98368882939, 6893.210934783332, 40176.768920036426, 29074.4115798964, 42624.083772192454, 37294.6008795024, 31530.890647279102, 24801.182723186343, 0.078, 1.006, 0.17200000000000001, 192.0, 0.0, 0.0, 0.0, 0.0, 0.0, 0.0, 0.0, 0.0, 0.0, 1.7074747786687815E9, 0.0, 2024-02-09 11:32:58.668
216.0, -8137.689010821464, -11685.827277401362, 22393.631624416306, 1545.2207976842878, 47462.163563032576, 21169.47128408805, 37681.46487253486, 12438.142292278088, 35419.58009238006, 6849.177998206377, 39785.92631649093, 29007.244587808204, 42100.270640882336, 37083.51100486649, 31355.474156793854, 24619.708909953704, 0.082, 1.01, 0.176, 192.0, 1.0, 72.0, 15.5, 72.0, 2.5, 64.0, 0.0, 0.0, 0.0, 1.7074747786767855E9, 0.0, 2024-02-09 11:32:58.676
218.0, -8118.265344889802, -11681.915722121683, 22405.09806932188, 1523.4501985848187, 47687.3573884198, 21196.159266967687, 37783.03119933978, 12517.759206027891, 35729.17410483052, 6908.991266368779, 40170.15280367766, 29107.402754712435, 42549.47364920064, 37292.9021469238, 31525.258007676366, 24769.733818737725, 0.082, 1.01, 0.176, 192.0, 0.0, 0.0, 0.0, 0.0, 0.0, 0.0, 0.0, 0.0, 0.0, 1.707474778683844E9, 0.0, 2024-02-09 11:32:58.683
220.0, -8201.078558096715, -11724.160519142213, 22332.18667890867, 1523.7184195182824, 47352.46120124593, 21105.724108901515, 37606.273604187205, 12368.606015277626, 35505.76841899972, 6830.402532863919, 39936.845295053165, 29006.41757326336, 42331.1418093612, 37142.63136895077, 31411.107648743113, 24676.34823040345, 0.082, 1.01, 0.176, 192.0, 0.0, 0.0, 0.0, 0.0, 0.0, 0.0, 0.0, 0.0, 0.0, 1.7074747786918356E9, 0.0, 2024-02-09 11:32:58.691
222.0, -8096.964132423894, -11669.130524293247, 22412.205924058668, 1516.6776200148608, 47648.331242600834, 21195.86869428977, 37748.36364368959, 12478.75541195338, 35545.30865494116, 6890.46167021533, 39903.071809181194, 29045.331960360047, 42194.95263039501, 37150.052148109935, 31396.087276469145, 24632.941142671247, 0.082, 1.01, 0.176, 192.0, 0.0, 0.0, 0.0, 0.0, 0.0, 0.0, 0.0, 0.0, 0.0, 1.70747477870087E9, 0.0, 2024-02-09 11:32:58.700
224.0, -8198.664569695542, -11730.351952356334, 22327.917495717706, 1510.799111223115, 47492.87485991417, 21127.517059745438, 37660.85656414706, 12419.813861824736, 35693.03133404629, 6886.527763191196, 40157.03232968239, 29055.837280254043, 42601.53086203705, 37265.56596345496, 31503.2862428768, 24760.971934911246, 0.082, 1.01, 0.176, 192.0, 0.0, 0.0, 0.0, 0.0, 0.0, 0.0, 0.0, 0.0, 0.0, 1.7074747787078712E9, 0.0, 2024-02-09 11:32:58.707
226.0, -8167.886217580583, -11708.827222445872, 22363.14384497927, 1506.6193350099725, 47439.990632532914, 21133.79789993738, 37639.66711040343, 12385.570989319205, 35395.887243257435, 6851.234358696265, 39743.77092644822, 28967.078503022018, 42046.44764023396, 37035.387699054205, 31321.18658079941, 24575.743028610115, 0.082, 1.012, 0.17200000000000001, 192.0, 1.0, 72.0, 15.5, 80.0, 2.5, 48.0, 0.0, 0.0, 0.0, 1.707474778716864E9, 0.0, 2024-02-09 11:32:58.716
228.0, -8149.133103982581, -11705.787385199952, 22382.18753125519, 1499.3103145730872, 47679.154298204696, 21166.61026079777, 37754.53272515926, 12477.503714263883, 35696.272336992304, 6938.428513816419, 40121.336593787266, 29059.19004192234, 42491.38146536129, 37239.30266371997, 31496.17838814001, 24726.37143449443, 0.082, 1.012, 0.17200000000000001, 192.0, 0.0, 0.0, 0.0, 0.0, 0.0, 0.0, 0.0, 0.0, 0.0, 1.7074747787250278E9, 0.0, 2024-02-09 11:32:58.725
230.0, -8224.994924663893, -11740.007905961027, 22320.40730958072, 1519.2257188827657, 47352.50590473484, 21097.16339077513, 37596.68470581588, 12346.611898733605, 35471.59260172756, 6955.840522747103, 39901.127207413585, 28975.482758937214, 42280.26923898092, 37097.10086549531, 31395.573186346675, 24655.181128404278, 0.082, 1.012, 0.17200000000000001, 192.0, 0.0, 0.0, 0.0, 0.0, 0.0, 0.0, 0.0, 0.0, 0.0, 1.707474778732908E9, 0.0, 2024-02-09 11:32:58.732
232.0, -8117.058350689215, -11680.12758256526, 22412.25062754758, 1522.0643904285898, 47649.11355365677, 21201.56838912587, 37757.39374844954, 12490.110098136676, 35509.970546957324, 7096.790623282269, 39877.43435829096, 29019.13571585843, 42139.18502797902, 37086.774359556955, 31395.148503202025, 24635.288075839053, 0.082, 1.012, 0.17200000000000001, 192.0, 0.0, 0.0, 0.0, 0.0, 0.0, 0.0, 0.0, 0.0, 0.0, 1.7074747787399163E9, 0.0, 2024-02-09 11:32:58.739
234.0, -8204.833651165205, -11731.84951923484, 22336.165289421715, 1524.8136549965925, 47504.3636565642, 21137.731806961514, 37675.85458467658, 12428.88867007359, 35670.00903725732, 7229.403523135606, 40154.08189941429, 29051.79161450763, 42541.717593874644, 37245.963483567655, 31515.579702327217, 24781.155560154388, 0.082, 1.012, 0.17200000000000001, 192.0, 0.0, 0.0, 0.0, 0.0, 0.0, 0.0, 0.0, 0.0, 0.0, 1.707474778747897E9, 0.0, 2024-02-09 11:32:58.747
236.0, -8163.706441367441, -11702.166402598192, 22381.62873764381, 1526.4229805973746, 47452.82053385026, 21148.28183034442, 37667.42797701692, 12404.97230350641, 35380.933926216836, 7300.996160625954, 39757.941932432885, 28971.951183313275, 41992.40112214102, 37001.18953003759, 31338.710348452372, 24595.63608117534, 0.08, 1.012, 0.17200000000000001, 192.0, 1.0, 64.0, 15.5, 80.0, 2.5, 48.0, 0.0, 0.0, 0.0, 1.7074747787569556E9, 0.0, 2024-02-09 11:32:58.756
238.0, -8133.151606697036, -11691.728137937564, 22396.023261073027, 1518.957497949302, 47697.549783891416, 21188.0008802415, 37777.30915275922, 12508.19265940102, 35691.39965670105, 7496.417462398704, 40141.676681241595, 29079.686591587855, 42445.00159561654, 37217.88969253179, 31516.540827338795, 24754.22170808574, 0.08, 1.012, 0.17200000000000001, 192.0, 0.0, 0.0, 0.0, 0.0, 0.0, 0.0, 0.0, 0.0, 0.0, 1.707474778763946E9, 0.0, 2024-02-09 11:32:58.763
240.0, -8219.854023439173, -11737.258641393024, 22321.211972381112, 1517.1917101373328, 47360.641939716574, 21100.31498674333, 37602.18323495188, 12351.39517204704, 35484.22133734481, 7534.907166350743, 39922.94251000196, 28992.715953912255, 42238.42677336059, 37079.644153075715, 31406.659651596507, 24664.479454097684, 0.08, 1.012, 0.17200000000000001, 192.0, 0.0, 0.0, 0.0, 0.0, 0.0, 0.0, 0.0, 0.0, 0.0, 1.7074747787719731E9, 0.0, 2024-02-09 11:32:58.771
242.0, -8114.264382632302, -11681.871018632773, 22406.617987944843, 1511.1343873899445, 47651.97457694705, 21198.081516990846, 37755.739719359844, 12486.936150424022, 35518.9335964839, 7654.399592208814, 39885.950372928426, 29023.02491939365, 42093.02867567881, 37076.31374315188, 31393.315660156688, 24624.849811178425, 0.08, 1.012, 0.17200000000000001, 192.0, 0.0, 0.0, 0.0, 0.0, 0.0, 0.0, 0.0, 0.0, 0.0, 1.7074747787800012E9, 0.0, 2024-02-09 11:32:58.780
244.0, -8196.585857461198, -11725.769844742996, 22340.032141212483, 1518.9351462048467, 47508.83400545526, 21143.923240175634, 37679.14029111151, 12446.479492959917, 35685.588203142666, 7769.578131387011, 40165.90597223115, 29057.401902365913, 42509.732247559106, 37213.91108201875, 31516.227902916424, 24768.526824537137, 0.08, 1.012, 0.17200000000000001, 192.0, 0.0, 0.0, 0.0, 0.0, 0.0, 0.0, 0.0, 0.0, 0.0, 1.7074747787889404E9, 0.0, 2024-02-09 11:32:58.788
246.0, -8162.790019844773, -11704.848611932828, 22374.498531162564, 1520.700934016816, 47452.39585070561, 21146.203118110076, 37664.00816011526, 12407.565105863227, 35397.831845025044, 7802.92693411433, 39762.61344702404, 28978.41083746086, 41959.14172639152, 36994.75222763446, 31343.4489182769, 24590.38342122834, 0.08600000000000001, 1.008, 0.17200000000000001, 192.0, 1.0, 88.0, 15.5, 64.0, 2.5, 48.0, 0.0, 0.0, 0.0, 1.7074747787962976E9, 0.0, 2024-02-09 11:32:58.796
248.0, -8134.492711364354, -11699.238324074546, 22390.748249381573, 1513.9507071913133, 47689.32434193186, 21190.325461664852, 37774.87281261359, 12499.207258129985, 35708.63285167609, 7948.705011451842, 40140.87201844121, 29082.4135044114, 42400.18634798365, 37221.39891641127, 31517.837228517204, 24743.98460912521, 0.08600000000000001, 1.008, 0.17200000000000001, 192.0, 0.0, 0.0, 0.0, 0.0, 0.0, 0.0, 0.0, 0.0, 0.0, 1.7074747788039544E9, 0.0, 2024-02-09 11:32:58.803
250.0, -8229.86760495515, -11756.70465906914, 22308.426774552678, 1507.379294321453, 47349.5778262112, 21096.872818097214, 37596.01415348222, 12352.49040752535, 35491.84328220407, 7927.113226308015, 39916.482855854374, 28985.40693347537, 42196.04786587333, 37075.57613558485, 31404.44682889543, 24661.64078255186, 0.08600000000000001, 1.008, 0.17200000000000001, 192.0, 0.0, 0.0, 0.0, 0.0, 0.0, 0.0, 0.0, 0.0, 0.0, 1.707474778813026E9, 0.0, 2024-02-09 11:32:58.813
252.0, -8127.898946750039, -11699.975931641571, 22392.044650559983, 1498.1480238614113, 47639.41289656316, 21184.93869125112, 37736.78544006174, 12470.999356627388, 35512.630404547504, 8011.759282560263, 39860.849363905116, 29006.059945352074, 42031.51667493781, 37058.99114119901, 31379.77050301677, 24610.34352902693, 0.08600000000000001, 1.008, 0.17200000000000001, 192.0, 0.0, 0.0, 0.0, 0.0, 0.0, 0.0, 0.0, 0.0, 0.0, 1.707474778820021E9, 0.0, 2024-02-09 11:32:58.820
254.0, -8213.997866391881, -11747.451036864644, 22315.579332778376, 1504.182994864344, 47499.08864487275, 21123.65020795467, 37658.39787225698, 12426.184108994497, 35683.04010427476, 8080.468545015878, 40144.76122197643, 29040.056948668596, 42446.789735172955, 37202.71285804664, 31497.98887944089, 24751.204222584274, 0.08600000000000001, 1.008, 0.17200000000000001, 192.0, 0.0, 0.0, 0.0, 0.0, 0.0, 0.0, 0.0, 0.0, 0.0, 1.7074747788280673E9, 0.0, 2024-02-09 11:32:58.828
0.0, -8176.893970596072, -11724.071112164393, 22354.113740219324, 1505.5688030205731, 47436.19083597551, 21130.445138269086, 37636.604921413054, 12390.957759732933, 35380.643353538915, 8070.320853033168, 39732.706812942844, 28957.958991284253, 41902.1894815194, 36977.83195708179, 31314.704574907373, 24563.807197070983, 0.084, 1.009, 0.17200000000000001, 192.0, 1.0, 72.0, 15.5, 72.0, 2.5, 48.0, 0.0, 0.0, 0.0, 1.7074747788360565E9, 0.0, 2024-02-09 11:32:58.836
2.0, -8135.587946842665, -11696.042024617438, 22392.022298815526, 1513.9954106802238, 47695.69458910163, 21197.165095468175, 37766.26739099829, 12511.76893851387, 35699.87096784961, 8209.952200645472, 40121.80598042083, 29073.830434540563, 42343.18939962261, 37199.11422718933, 31497.094809662678, 24727.265504272644, 0.084, 1.009, 0.17200000000000001, 192.0, 0.0, 0.0, 0.0, 0.0, 0.0, 0.0, 0.0, 0.0, 0.0, 1.7074747788450427E9, 0.0, 2024-02-09 11:32:58.845
4.0, -8219.027008894325, -11738.219766404602, 22324.5200305605, 1517.124654903967, 47370.499059021364, 21110.350920003762, 37604.30665067514, 12375.937387458967, 35501.16395964193, 8195.982360360904, 39924.08244896918, 28993.02887833463, 42156.77585086535, 37069.85408900429, 31406.905520785516, 24668.391009377363, 0.084, 1.009, 0.17200000000000001, 192.0, 0.0, 0.0, 0.0, 0.0, 0.0, 0.0, 0.0, 0.0, 0.0, 1.7074747788520205E9, 0.0, 2024-02-09 11:32:58.852
6.0, -8112.029208186771, -11676.528951707955, 22412.384738014312, 1511.4920153012295, 47652.13103915823, 21188.202045941598, 37743.7591843318, 12477.637824730615, 35517.30191913866, 8274.414631654578, 39881.256506592814, 29031.07154739756, 41999.17370071098, 37067.88713549222, 31395.43907587994, 24620.759441943104, 0.084, 1.009, 0.17200000000000001, 192.0, 0.0, 0.0, 0.0, 0.0, 0.0, 0.0, 0.0, 0.0, 0.0, 1.7074747788604033E9, 0.0, 2024-02-09 11:32:58.860
8.0, -8201.14561333008, -11729.077902922381, 22339.026312711994, 1515.090646158534, 47511.806787467816, 21132.009760380955, 37672.27830556373, 12430.65445788556, 35685.31998220921, 8320.414521743598, 40168.25290539896, 29065.31441990309, 42425.44381921814, 37209.99952673907, 31514.886798249103, 24760.971934911246, 0.084, 1.009, 0.17200000000000001, 192.0, 0.0, 0.0, 0.0, 0.0, 0.0, 0.0, 0.0, 0.0, 0.0, 1.707474778868125E9, 0.0, 2024-02-09 11:32:58.868
