%OpenBCI Raw EXG Data
%Number of channels = 16
%Sample Rate = 125 Hz
%Board = OpenBCI_GUI$BoardCytonSerialDaisy
Sample Index, EXG Channel 0, EXG Channel 1, EXG Channel 2, EXG Channel 3, EXG Channel 4, EXG Channel 5, EXG Channel 6, EXG Channel 7, EXG Channel 8, EXG Channel 9, EXG Channel 10, EXG Channel 11, EXG Channel 12, EXG Channel 13, EXG Channel 14, EXG Channel 15, Accel Channel 0, Accel Channel 1, Accel Channel 2, Other, Other, Other, Other, Other, Other, Other, Analog Channel 0, Analog Channel 1, Analog Channel 2, Timestamp, Other, Timestamp (Formatted)
8.0, -16469.458218748357, -9638.072209128406, 15720.026578906367, -2497.583925436011, 46482.48660355647, 17343.85846183997, 34121.770754071564, 8909.092415463021, 29847.46901362765, 7349.07476294932, 39389.83105299843, 28587.255309492986, 40112.15002681613, 34267.66059013135, 28476.413008739117, 24839.29244748264, 0.0, 0.0, 0.0, 192.0, 0.0, 0.0, 0.0, 0.0, 0.0, 0.0, 0.0, 0.0, 0.0, 1.707474290044984E9, 0.0, 2024-02-09 11:24:50.044
0.0, -7711.664761503311, -5533.420209100272, 7958.00333714525, -1177.4004909277548, 23338.931600920154, 8702.159965295788, 17163.971622463658, 4623.145416157891, 14770.278605255915, 3654.5772736760705, 19451.829129675523, 14251.718133892791, 19738.53495580375, 17008.85051594383, 14129.208222533254, 12297.974502798856, 0.112, 1.02, 0.17, 192.0, 1.5, 64.0, 15.5, 112.0, 2.5, 40.0, 0.0, 0.0, 0.0, 1.707474290164402E9, 0.0, 2024-02-09 11:24:50.164
2.0, -15459.695811235406, -11092.567276068601, 15872.71134528057, -2346.977871296152, 46352.82413397123, 17339.075188526534, 34156.21479227719, 9115.555478996692, 29813.203789377665, 7472.076412686874, 39189.82764361234, 28667.654534298723, 39962.66155989904, 34169.55878371701, 28362.75438818388, 24804.75900229919, 0.112, 1.02, 0.17, 192.0, 0.0, 0.0, 0.0, 0.0, 0.0, 0.0, 0.0, 0.0, 0.0, 1.7074742901712964E9, 0.0, 2024-02-09 11:24:50.171
4.0, -15384.504542887753, -11039.012496353685, 15951.814168907902, -2363.6075691709007, 46629.22580590556, 17429.21977391479, 34290.9958113427, 9228.610602451636, 29818.210580135656, 7490.33778790686, 39096.978497145, 28688.95574676463, 39733.01973736522, 34140.27799848056, 28319.28024521831, 24718.056585557057, 0.112, 1.02, 0.17, 192.0, 0.0, 0.0, 0.0, 0.0, 0.0, 0.0, 0.0, 0.0, 0.0, 1.7074742901782992E9, 0.0, 2024-02-09 11:24:50.178
6.0, -15436.58410746862, -11073.344775837038, 15891.710328067582, -2357.9972813126187, 46529.000583767964, 17376.112029088978, 34260.21745922774, 9202.459061438925, 30011.2849487406, 7504.665256102712, 39440.681271634254, 28732.519296708026, 40236.55983645438, 34318.600215745, 28477.597651195247, 24918.417622854427, 0.112, 1.02, 0.17, 192.0, 0.0, 0.0, 0.0, 0.0, 0.0, 0.0, 0.0, 0.0, 0.0, 1.7074742901863148E9, 0.0, 2024-02-09 11:24:50.186
8.0, -15421.250810772279, -11056.871540173477, 15912.609209133294, -2361.171229025272, 46416.19132950203, 17368.847712141003, 34198.7725137201, 9139.874176964066, 29704.417849113688, 7443.935566417643, 38991.09828366021, 28644.028740409463, 39659.795422529634, 34074.60857327087, 28266.84305272616, 24682.047925239556, 0.126, 1.018, 0.16, 192.0, 1.5, 120.0, 15.5, 104.0, 2.5, 0.0, 0.0, 0.0, 0.0, 1.707474290194945E9, 0.0, 2024-02-09 11:24:50.194
10.0, -15427.732816664316, -11068.7626682237, 15928.121319785276, -2369.597836684923, 46695.49872821555, 17422.06721568909, 34318.95784365629, 9255.097419631174, 29997.27040496712, 7510.409654427726, 39375.70475050268, 28744.36572126934, 40089.32889572727, 34305.03270686063, 28435.19639196353, 24843.986313818255, 0.126, 1.018, 0.16, 192.0, 0.0, 0.0, 0.0, 0.0, 0.0, 0.0, 0.0, 0.0, 0.0, 1.70747429020136E9, 0.0, 2024-02-09 11:24:50.201
12.0, -15528.807405091216, -11148.40193371796, 15864.776475998937, -2353.504580677102, 46336.909691919056, 17343.567889162052, 34139.830963591456, 9115.689589463424, 29799.70333572666, 7436.3806767917495, 39176.506003916984, 28651.270705612984, 39966.684873900995, 34194.79390320706, 28342.056672818268, 24792.398487615406, 0.126, 1.018, 0.16, 192.0, 0.0, 0.0, 0.0, 0.0, 0.0, 0.0, 0.0, 0.0, 0.0, 1.7074742902103963E9, 0.0, 2024-02-09 11:24:50.210
14.0, -15555.763608904315, -11183.315358557149, 15937.196128034131, -2362.2217610146718, 46630.455151850605, 17438.182823441366, 34308.36311678447, 9259.21014061095, 29749.83659384687, 7445.276671084961, 39049.8163163443, 28657.842118482844, 39729.59992046355, 34165.42371099278, 28310.69717534747, 24721.342291991987, 0.126, 1.018, 0.16, 192.0, 0.0, 0.0, 0.0, 0.0, 0.0, 0.0, 0.0, 0.0, 0.0, 1.7074742902173617E9, 0.0, 2024-02-09 11:24:50.217
16.0, -15707.688415967039, -11311.748482197343, 15854.293507849397, -2374.7610896540987, 46510.828615525796, 17374.502703488197, 34205.14276088986, 9185.516439141804, 29887.54569143602, 7430.7480371890115, 39358.42685203873, 28665.8663947423, 40215.23627224401, 34331.11719263997, 28449.814432837302, 24905.49831455926, 0.126, 1.018, 0.16, 192.0, 0.0, 0.0, 0.0, 0.0, 0.0, 0.0, 0.0, 0.0, 0.0, 1.7074742902263796E9, 0.0, 2024-02-09 11:24:50.226
18.0, -15760.282070670375, -11354.082686195694, 15879.975662228546, -2369.2849122625485, 46398.71226533798, 17390.21597984028, 34172.0174756071, 9158.336717884149, 29532.264713318913, 7353.522760095926, 38879.09369219466, 28548.27386716293, 39618.44469528731, 34083.01282918607, 28240.40093903553, 24683.187864206775, 0.116, 1.046, 0.158, 192.0, 1.5, 80.0, 16.0, 88.0, 2.0, 120.0, 0.0, 0.0, 0.0, 1.7074742902335386E9, 0.0, 2024-02-09 11:24:50.233
20.0, -15779.526922646395, -11371.025308492817, 15900.606322360794, -2378.180906555761, 46692.23537352507, 17447.212928201312, 34308.13959933992, 9269.670757016034, 29801.37971656081, 7415.884127126233, 39250.02089143049, 28641.57004851938, 40034.96945321196, 34317.057945377586, 28431.374243661674, 24863.052351838633, 0.116, 1.046, 0.158, 192.0, 0.0, 0.0, 0.0, 0.0, 0.0, 0.0, 0.0, 0.0, 0.0, 1.7074742902414308E9, 0.0, 2024-02-09 11:24:50.241
22.0, -15873.47130459205, -11433.319620289758, 15835.763911695947, -2367.6755866617664, 46333.78044769531, 17364.28795627212, 34110.28195742154, 9112.783862684235, 29593.44143789309, 7359.200103187573, 39057.34885422574, 28556.499309122482, 39894.91342245501, 34200.00185966514, 28340.46969896194, 24804.066098221076, 0.116, 1.046, 0.158, 192.0, 0.0, 0.0, 0.0, 0.0, 0.0, 0.0, 0.0, 0.0, 0.0, 1.7074742902494347E9, 0.0, 2024-02-09 11:24:50.249
24.0, -15821.548202222373, -11393.175887248026, 15916.118433012776, -2376.9068571218086, 46620.9556604571, 17465.139027254467, 34249.48862188919, 9231.829253653199, 29567.75928351394, 7377.752051085478, 38944.60665519317, 28574.76068434247, 39651.6593875479, 34168.79882440553, 28306.852675301157, 24715.486134944695, 0.116, 1.046, 0.158, 192.0, 0.0, 0.0, 0.0, 0.0, 0.0, 0.0, 0.0, 0.0, 0.0, 1.7074742902586117E9, 0.0, 2024-02-09 11:24:50.258
26.0, -15892.962025757079, -11424.937716119019, 15858.070952662345, -2358.4443162017246, 46538.92475830612, 17434.003047228223, 34215.737487761675, 9203.509593428325, 29754.284590993477, 7403.478908953537, 39295.73020884159, 28625.163868089185, 40158.731062260995, 34364.33188490056, 28469.34985749124, 24917.12122167602, 0.116, 1.046, 0.158, 192.0, 0.0, 0.0, 0.0, 0.0, 0.0, 0.0, 0.0, 0.0, 0.0, 1.7074742902654307E9, 0.0, 2024-02-09 11:24:50.265
28.0, -15881.942615740612, -11397.847401839186, 15878.411040116674, -2351.984662054141, 46419.52173942587, 17442.720227565795, 34153.867859109385, 9141.550557798215, 29430.698386513996, 7359.870655521233, 38843.6214737441, 28541.903619993165, 39573.674151143336, 34129.258588464094, 28260.226936367388, 24699.54934114806, 0.094, 1.056, 0.17200000000000001, 192.0, 1.0, 120.0, 16.5, 0.0, 2.5, 48.0, 0.0, 0.0, 0.0, 1.707474290273486E9, 0.0, 2024-02-09 11:24:50.273
30.0, -15869.626804545738, -11383.855209810163, 15905.836630563335, -2368.390842484336, 46713.87186215781, 17488.47424846581, 34285.720799651244, 9229.68348618549, 29733.899800050236, 7452.339822332839, 39235.224036601074, 28656.612772537803, 40006.180406353524, 34366.23178317926, 28436.44808965303, 24861.197157048842, 0.094, 1.056, 0.17200000000000001, 192.0, 0.0, 0.0, 0.0, 0.0, 0.0, 0.0, 0.0, 0.0, 0.0, 1.7074742902824996E9, 0.0, 2024-02-09 11:24:50.282
32.0, -15946.941488616645, -11420.6461811836, 15836.523871007428, -2364.859266860398, 46352.26534035985, 17384.82920942655, 34096.22271015915, 9041.817074038634, 29539.864306433716, 7379.227266219529, 39057.05828154782, 28566.356428427272, 39890.8677567086, 34254.45070915827, 28345.56589669775, 24793.314909138073, 0.094, 1.056, 0.17200000000000001, 192.0, 0.0, 0.0, 0.0, 0.0, 0.0, 0.0, 0.0, 0.0, 0.0, 1.7074742902895036E9, 0.0, 2024-02-09 11:24:50.289
34.0, -15887.1505721987, -11366.77847704631, 15907.24479046402, -2376.213953043694, 46634.72433504157, 17474.325594225596, 34243.45365088626, 9171.43484013496, 29526.810887671818, 7418.566336460869, 38944.13726855961, 28590.071629294354, 39642.47282057677, 34222.75593552065, 28307.0314892568, 24694.69901260126, 0.094, 1.056, 0.17200000000000001, 192.0, 0.0, 0.0, 0.0, 0.0, 0.0, 0.0, 0.0, 0.0, 0.0, 1.7074742902975316E9, 0.0, 2024-02-09 11:24:50.297
36.0, -15949.042552595443, -11393.734680859408, 15840.99421989849, -2365.0380808160403, 46539.997642039976, 17431.611410571506, 34190.61412699391, 9127.357200069095, 29716.621901586284, 7439.174644848663, 39294.76908383001, 28639.223115351575, 40145.36471907672, 34405.63790865397, 28463.96308707751, 24889.516817273718, 0.094, 1.056, 0.17200000000000001, 192.0, 0.0, 0.0, 0.0, 0.0, 0.0, 0.0, 0.0, 0.0, 0.0, 1.7074742903055468E9, 0.0, 2024-02-09 11:24:50.305
38.0, -15936.659686167204, -11371.20412244846, 15861.490769564007, -2362.6687959037777, 46419.454684192504, 17435.83589027356, 34154.60546667641, 9081.22319951334, 29385.369048758635, 7393.733548371023, 38829.78574392626, 28551.0901869643, 39539.07365072652, 34166.04955983753, 28255.041331653756, 24664.859433753423, 0.074, 1.024, 0.18, 192.0, 1.0, 40.0, 16.0, 0.0, 2.5, 80.0, 0.0, 0.0, 0.0, 1.707474290314511E9, 0.0, 2024-02-09 11:24:50.314
40.0, -15922.309866226897, -11360.184712431994, 15881.674394807149, -2383.075938591473, 46733.31787983393, 17482.729850140793, 34306.418515016856, 9191.216133977907, 29694.091343175336, 7474.959787721609, 39215.46509450258, 28661.641915040247, 39962.75096687686, 34395.534920160164, 28444.561772890305, 24830.0611770226, 0.074, 1.024, 0.18, 192.0, 0.0, 0.0, 0.0, 0.0, 0.0, 0.0, 0.0, 0.0, 0.0, 1.707474290321551E9, 0.0, 2024-02-09 11:24:50.321
42.0, -15981.720802989103, -11393.377052948124, 15814.306237018853, -2367.407365728303, 46383.89305876411, 17409.594942283027, 34151.342111985934, 9077.624568656036, 29493.104457033212, 7393.219458248551, 39031.77845856887, 28569.46332090656, 39844.08555556364, 34267.6382383869, 28362.553222483784, 24778.205129886286, 0.074, 1.024, 0.18, 192.0, 0.0, 0.0, 0.0, 0.0, 0.0, 0.0, 0.0, 0.0, 0.0, 1.7074742903295293E9, 0.0, 2024-02-09 11:24:50.329
44.0, -15914.374996945262, -11342.90681396804, 15895.755993813991, -2376.4821739771573, 46677.66203614021, 17493.659853179437, 34309.83833191852, 9190.031491521775, 29487.471817430476, 7434.056095368397, 38931.79910562028, 28598.274719509453, 39597.03172409913, 34238.536267106094, 28331.864277346645, 24701.113963259933, 0.074, 1.024, 0.18, 192.0, 0.0, 0.0, 0.0, 0.0, 0.0, 0.0, 0.0, 0.0, 0.0, 1.7074742903389084E9, 0.0, 2024-02-09 11:24:50.338
46.0, -15980.513808788517, -11395.098137271183, 15820.296504532875, -2378.784403656054, 46585.572848984346, 17430.605582071017, 34252.61786611293, 9143.249290376818, 29674.935898177137, 7439.196996593118, 39272.417339374704, 28626.214400078585, 40116.91094838511, 34407.33664123257, 28491.321622290805, 24895.127105131996, 0.074, 1.024, 0.18, 192.0, 0.0, 0.0, 0.0, 0.0, 0.0, 0.0, 0.0, 0.0, 0.0, 1.7074742903456187E9, 0.0, 2024-02-09 11:24:50.345
48.0, -15964.554663247427, -11374.82510505022, 15838.312010563854, -2382.8300694024647, 46458.07849861128, 17414.467622574284, 34195.41975205181, 9082.407841969472, 29349.315684952224, 7374.958083028565, 38805.48939770334, 28528.89490472018, 39527.24957790966, 34153.040844564544, 28272.430988839984, 24665.06059945352, 0.076, 0.99, 0.18, 192.0, 1.0, 48.0, 15.0, 120.0, 2.5, 80.0, 0.0, 0.0, 0.0, 1.7074742903535843E9, 0.0, 2024-02-09 11:24:50.353
50.0, -15936.838500122847, -11366.666718324032, 15873.001917958489, -2390.3179037949926, 46765.39263312729, 17481.165228028924, 34349.84795449352, 9231.985715864386, 29658.39560728021, 7457.19015087964, 39189.514719189974, 28632.830516437356, 39950.85983882664, 34370.63507683695, 28448.428624681073, 24820.025243762168, 0.076, 0.99, 0.18, 192.0, 0.0, 0.0, 0.0, 0.0, 0.0, 0.0, 0.0, 0.0, 0.0, 1.7074742903616228E9, 0.0, 2024-02-09 11:24:50.361
52.0, -16002.910256732734, -11416.287591014814, 15800.023472311912, -2383.724139180677, 46396.72296008145, 17388.181971094844, 34156.30419925501, 9091.326188007139, 29480.095741760226, 7394.739376871512, 39024.022403242874, 28553.75004455448, 39849.82995388865, 34259.52455514963, 28363.067312606254, 24782.831940988537, 0.076, 0.99, 0.18, 192.0, 0.0, 0.0, 0.0, 0.0, 0.0, 0.0, 0.0, 0.0, 0.0, 1.7074742903705957E9, 0.0, 2024-02-09 11:24:50.370
54.0, -15919.046511536422, -11356.29550889677, 15895.57717985835, -2381.444261246236, 46678.33258847387, 17478.99710881676, 34302.75282892619, 9205.364788218116, 29465.254183441903, 7413.827766636345, 38903.77001807332, 28573.866614564256, 39590.19209029581, 34214.686955772275, 28311.79241082578, 24686.60768110844, 0.076, 0.99, 0.18, 192.0, 0.0, 0.0, 0.0, 0.0, 0.0, 0.0, 0.0, 0.0, 0.0, 1.707474290377626E9, 0.0, 2024-02-09 11:24:50.377
56.0, -15987.889884458767, -11412.152518290583, 15839.809577442358, -2376.459822232702, 46589.21618333056, 17431.74552103824, 34244.280665431106, 9172.999462246831, 29681.68612500264, 7439.107589615297, 39270.472737607095, 28623.42043202167, 40120.17430307559, 34399.51353067321, 28478.82699714029, 24887.952195161844, 0.076, 0.99, 0.18, 192.0, 0.0, 0.0, 0.0, 0.0, 0.0, 0.0, 0.0, 0.0, 0.0, 1.707474290385647E9, 0.0, 2024-02-09 11:24:50.385
58.0, -15985.721765246602, -11404.06118679776, 15862.183673642121, -2378.9408658672414, 46460.31367305681, 17418.49093657624, 34192.37991480588, 9114.549650496203, 29352.266115220325, 7375.405117917671, 38806.04819131472, 28524.089279662287, 39532.0328512231, 34153.62198992038, 28274.621459796606, 24665.21706166471, 0.082, 1.002, 0.168, 192.0, 1.0, 72.0, 15.5, 40.0, 2.5, 32.0, 0.0, 0.0, 0.0, 1.707474290393629E9, 0.0, 2024-02-09 11:24:50.393
60.0, -15960.196073078641, -11412.30898050177, 15881.786153529425, -2391.2790288065708, 46772.65695007527, 17474.817332603616, 34344.81881199108, 9241.485207257892, 29654.081720600334, 7430.591574977824, 39178.249439984495, 28613.831533650344, 39950.882190571094, 34361.40380637691, 28451.468461926994, 24818.43826990584, 0.082, 1.002, 0.168, 192.0, 0.0, 0.0, 0.0, 0.0, 0.0, 0.0, 0.0, 0.0, 0.0, 1.707474290400808E9, 0.0, 2024-02-09 11:24:50.400
62.0, -16050.161844511253, -11498.854935032718, 15798.928236833603, -2393.6259619743782, 46395.91829728107, 17376.760229678184, 34152.37029223088, 9075.143525021496, 29475.06659925778, 7365.50329512397, 39013.67354556007, 28527.956131453055, 39865.02914011826, 34266.96768605324, 28371.739789454914, 24776.52874905214, 0.082, 1.002, 0.168, 192.0, 0.0, 0.0, 0.0, 0.0, 0.0, 0.0, 0.0, 0.0, 0.0, 1.707474290409618E9, 0.0, 2024-02-09 11:24:50.409
64.0, -15986.392317580263, -11469.708260262998, 15879.19335117261, -2413.004924417129, 46670.73299535907, 17457.137102739467, 34295.19793930029, 9203.531945172781, 29438.58855230672, 7363.044603233887, 38875.763282270826, 28530.97361695452, 39595.891785131906, 34199.08543814247, 28307.8808555461, 24668.994506477655, 0.082, 1.002, 0.168, 192.0, 0.0, 0.0, 0.0, 0.0, 0.0, 0.0, 0.0, 0.0, 0.0, 1.7074742904177651E9, 0.0, 2024-02-09 11:24:50.417
66.0, -16096.631121233837, -11504.755795568919, 15820.810594655348, -2407.4169883033023, 46584.18704082812, 17415.607561541507, 34239.20681943975, 9162.091810952641, 29647.91263913067, 7329.561690039836, 39244.27649310547, 28569.888004051212, 40135.529951516386, 34370.63507683695, 28465.885337100666, 24854.893965112446, 0.082, 1.002, 0.168, 192.0, 0.0, 0.0, 0.0, 0.0, 0.0, 0.0, 0.0, 0.0, 0.0, 1.707474290425727E9, 0.0, 2024-02-09 11:24:50.425
68.0, -16162.747581332635, -11422.479024228935, 15829.237202314998, -2418.90578495333, 46448.266082795395, 17414.937009207846, 34171.10105408443, 9107.598257970603, 29330.56257135422, 7220.932211987044, 38794.96172606489, 28482.805607653336, 39555.54688639008, 34130.7561553426, 28254.01315140881, 24635.62335200588, 0.09, 1.018, 0.16, 192.0, 1.0, 104.0, 15.5, 104.0, 2.5, 0.0, 0.0, 0.0, 0.0, 1.7074742904337428E9, 0.0, 2024-02-09 11:24:50.433
70.0, -16339.304010785105, -11318.006970644828, 15858.361525340264, -2437.81536076252, 46763.60449357086, 17473.140951769466, 34322.6011780025, 9224.8778611276, 29633.00402557898, 7162.460048491961, 39165.79951832289, 28563.875384792733, 39967.310722745744, 34331.94420718482, 28420.71246155649, 24776.729914752235, 0.09, 1.018, 0.16, 192.0, 0.0, 0.0, 0.0, 0.0, 0.0, 0.0, 0.0, 0.0, 0.0, 1.7074742904417636E9, 0.0, 2024-02-09 11:24:50.441
72.0, -16734.527556243844, -11360.832913021197, 15793.228541997498, -2434.440247349769, 46398.8016723158, 17387.35495655, 34133.57247514397, 9092.577885696637, 29455.598229837207, 6967.396374630496, 39013.49473160443, 28491.098104846253, 39894.399332332534, 34232.657758314344, 28343.733053652413, 24726.974931594723, 0.09, 1.018, 0.16, 192.0, 0.0, 0.0, 0.0, 0.0, 0.0, 0.0, 0.0, 0.0, 0.0, 1.7074742904498117E9, 0.0, 2024-02-09 11:24:50.449
74.0, -16928.384235904723, -11370.44416313698, 15874.208912159076, -2458.4683726392236, 46678.35494021833, 17467.485960422273, 34284.75967463967, 9214.797224378255, 29404.77036294584, 6746.851712089981, 38868.99070370087, 28497.133075849186, 39625.261977346185, 34180.10880709992, 28293.240462927875, 24608.28716853704, 0.09, 1.018, 0.16, 192.0, 0.0, 0.0, 0.0, 0.0, 0.0, 0.0, 0.0, 0.0, 0.0, 1.7074742904567094E9, 0.0, 2024-02-09 11:24:50.456
76.0, -17089.987348316594, -11517.920973053095, 15812.451042229062, -2466.2914831985813, 46592.770110698955, 17412.567724295586, 34221.59364480897, 9172.552427357725, 29611.389888690697, 6393.381225273755, 39214.21339681309, 28540.338997881296, 40166.732986776, 34353.692454539836, 28449.63561888166, 24782.317850866064, 0.09, 1.018, 0.16, 192.0, 0.0, 0.0, 0.0, 0.0, 0.0, 0.0, 0.0, 0.0, 0.0, 1.7074742904657598E9, 0.0, 2024-02-09 11:24:50.465
78.0, -17118.307008541466, -11602.745843260986, 15832.455853516562, -2474.6063321359557, 46446.52264672788, 17397.189724110332, 34161.66861792429, 9125.122025623563, 29276.873681172572, 5842.097800028062, 38754.7956412787, 28448.67449387008, 39597.21053805477, 34119.17795171475, 28237.00347387832, 24548.943287008202, 0.08600000000000001, 1.026, 0.16, 192.0, 1.0, 88.0, 16.0, 8.0, 2.5, 0.0, 0.0, 0.0, 0.0, 1.7074742904740334E9, 0.0, 2024-02-09 11:24:50.474
80.0, -17079.482028422597, -11573.688575469087, 15853.198272371088, -2500.7802248931202, 46748.91939746373, 17445.111864222512, 34286.36900024045, 9256.103248131663, 29574.442455106077, 5279.772613021447, 39121.274843367915, 28537.835602502302, 40010.4942930334, 34321.19301810182, 28419.416060378084, 24696.3306899465, 0.08600000000000001, 1.026, 0.16, 192.0, 0.0, 0.0, 0.0, 0.0, 0.0, 0.0, 0.0, 0.0, 0.0, 1.7074742904818752E9, 0.0, 2024-02-09 11:24:50.481
82.0, -17060.147769468756, -11530.169729014604, 15772.463771398518, -2509.3185912750473, 46383.35661689718, 17349.49110144271, 34083.30340186398, 9126.798406457712, 29362.100882780658, 4716.508652747709, 38958.263571055366, 28447.601610136226, 39928.70926007143, 34211.91533945982, 28340.089719306197, 24649.079102167976, 0.08600000000000001, 1.026, 0.16, 192.0, 0.0, 0.0, 0.0, 0.0, 0.0, 0.0, 0.0, 0.0, 0.0, 1.7074742904888225E9, 0.0, 2024-02-09 11:24:50.488
84.0, -17015.69014974715, -11413.493622957902, 15841.08362687631, -2538.398210811402, 46651.80106780542, 17426.44815760233, 34196.29147008556, 9267.256768614861, 29278.907689918007, 4296.385263965758, 38798.33683947764, 28439.66674085459, 39635.29791060661, 34133.818344332976, 28287.049029713755, 24535.107557190368, 0.08600000000000001, 1.026, 0.16, 192.0, 0.0, 0.0, 0.0, 0.0, 0.0, 0.0, 0.0, 0.0, 0.0, 1.7074742904978325E9, 0.0, 2024-02-09 11:24:50.497
86.0, -17004.581332752863, -11346.281927380793, 15770.988556264469, -2540.8345509570304, 46569.74781390999, 17388.025508883657, 34117.27805343605, 9272.26355937285, 29461.655552584598, 4088.6928544870443, 39154.556590861874, 28464.968915578, 40161.54738206237, 34302.81988415955, 28461.68320914307, 24739.2907427896, 0.08600000000000001, 1.026, 0.16, 192.0, 0.0, 0.0, 0.0, 0.0, 0.0, 0.0, 0.0, 0.0, 0.0, 1.707474290505821E9, 0.0, 2024-02-09 11:24:50.505
88.0, -17002.70378621862, -11270.174237510471, 15791.64156814117, -2546.7577632376865, 46438.52072221288, 17384.225712326253, 34066.71840747815, 9261.825294712222, 29107.626272156987, 3866.8294390236665, 38684.767625900226, 28368.43173127553, 39579.887936101906, 34053.8885061608, 28264.205546880432, 24525.071623929933, 0.078, 1.012, 0.162, 192.0, 1.0, 56.0, 15.5, 80.0, 2.5, 8.0, 0.0, 0.0, 0.0, 1.7074742905128598E9, 0.0, 2024-02-09 11:24:50.512
90.0, -17052.41406588722, -11227.214184667371, 15811.109937561743, -2582.073519477072, 46749.098211419376, 17428.97390472578, 34206.41681032381, 9410.017360450907, 29355.887097822084, 3732.920137991922, 39027.86690328919, 28441.700749600026, 39981.504080474864, 34248.86277304444, 28457.324618974286, 24676.057657725534, 0.078, 1.012, 0.162, 192.0, 0.0, 0.0, 0.0, 0.0, 0.0, 0.0, 0.0, 0.0, 0.0, 1.7074742905218656E9, 0.0, 2024-02-09 11:24:50.521
92.0, -17094.412993718743, -11189.59619874909, 15736.946849459035, -2575.435051373846, 46389.77156755586, 17341.600935649985, 34021.70199414516, 9283.26061764486, 29143.72433945231, 3574.893304692901, 38862.5757530422, 28355.512422980362, 39900.970745202394, 34141.909675825795, 28388.615356518672, 24644.49699455464, 0.078, 1.012, 0.162, 192.0, 0.0, 0.0, 0.0, 0.0, 0.0, 0.0, 0.0, 0.0, 0.0, 1.707474290530024E9, 0.0, 2024-02-09 11:24:50.530
94.0, -17093.94360708518, -11101.038587217163, 15802.638626413183, -2600.8042813306192, 46661.03233826546, 17403.202343368812, 34161.847431879934, 9376.132115856662, 29094.930481306375, 3562.46573477575, 38710.15920760146, 28362.75438818388, 39614.287270818626, 34080.97882044063, 28328.84679184518, 24544.00355148358, 0.078, 1.012, 0.162, 192.0, 0.0, 0.0, 0.0, 0.0, 0.0, 0.0, 0.0, 0.0, 0.0, 1.7074742905379157E9, 0.0, 2024-02-09 11:24:50.537
96.0, -17138.11065412887, -11082.24077013025, 15728.92257319958, -2604.1793947433707, 46572.81000290037, 17351.413351465864, 34091.05945718997, 9360.284729037849, 29289.16714062299, 3549.1664468248428, 39064.21083977352, 28391.94576644251, 40141.78843996387, 34244.21361019774, 28482.045648341853, 24733.88162063141, 0.078, 1.012, 0.162, 192.0, 0.0, 0.0, 0.0, 0.0, 0.0, 0.0, 0.0, 0.0, 0.0, 1.7074742905452142E9, 0.0, 2024-02-09 11:24:50.545
98.0, -17145.285564099024, -10994.286655698617, 15746.40163736363, -2607.643915133943, 46425.31084123979, 17327.72050234324, 34067.612477256356, 9297.386920140616, 28969.134863511907, 3532.156769294354, 38601.440322570845, 28298.001384496856, 39556.172735234824, 34005.22875848159, 28268.586488793673, 24510.45358305616, 0.077, 1.005, 0.162, 192.0, 1.0, 48.0, 15.5, 24.0, 2.5, 8.0, 0.0, 0.0, 0.0, 1.7074742905539184E9, 0.0, 2024-02-09 11:24:50.553
100.0, -17153.667468269763, -10902.53274470958, 15782.276187214398, -2607.2862872226583, 46733.45199030066, 17390.461849029285, 34217.570330807015, 9444.506102145446, 29286.4625795439, 3689.893029915456, 38970.15469910559, 28393.28687110983, 39953.966731305925, 34212.72000226021, 28446.90870605811, 24664.300640142043, 0.077, 1.005, 0.162, 192.0, 0.0, 0.0, 0.0, 0.0, 0.0, 0.0, 0.0, 0.0, 0.0, 1.7074742905618725E9, 0.0, 2024-02-09 11:24:50.561
102.0, -17167.72671553215, -10819.294848358018, 15712.29287532483, -2592.332970182058, 46365.38581435512, 17300.294911896577, 34059.47644227462, 9288.64738805859, 29151.145118611472, 3795.7061881668797, 38841.07337487619, 28326.388099955097, 39886.933849684465, 34124.20709421719, 28375.85251043469, 24648.609715534418, 0.077, 1.005, 0.162, 192.0, 0.0, 0.0, 0.0, 0.0, 0.0, 0.0, 0.0, 0.0, 0.0, 1.707474290569932E9, 0.0, 2024-02-09 11:24:50.569
104.0, -17153.041619425014, -10671.371003552795, 15813.65803642965, -2581.93940901034, 46646.36959390278, 17400.87776194546, 34254.338950435995, 9425.529471102891, 29167.55129904167, 4021.4364554210256, 38711.23209133531, 28345.498841464385, 39598.01520085516, 34048.099404346875, 28327.304521477763, 24556.38641791182, 0.077, 1.005, 0.162, 192.0, 0.0, 0.0, 0.0, 0.0, 0.0, 0.0, 0.0, 0.0, 0.0, 1.707474290576939E9, 0.0, 2024-02-09 11:24:50.576
106.0, -17191.44191639923, -10591.1505927027, 15768.283995185377, -2562.515743078678, 46580.253133803984, 17362.946851604804, 34227.986243723186, 9412.520755829903, 29437.82859299524, 4269.786688063942, 39099.43718903508, 28407.413173605582, 40146.906989444135, 34237.10575546095, 28525.430384329604, 24799.819266774568, 0.077, 1.005, 0.162, 192.0, 0.0, 0.0, 0.0, 0.0, 0.0, 0.0, 0.0, 0.0, 0.0, 1.707474290585961E9, 0.0, 2024-02-09 11:24:50.585
108.0, -17199.84617231443, -10446.378343865676, 15800.001120567456, -2542.287414346625, 46433.67039366608, 17351.1451305324, 34185.115597857905, 9349.511188210392, 29170.25586012076, 4385.233448175603, 38662.59469540056, 28346.929353109525, 39570.67901738632, 33989.13550247377, 28322.968283053433, 24610.25412204911, 0.07250000000000001, 0.9974999999999999, 0.167, 192.0, 1.0, 16.0, 15.0, 120.0, 2.5, 48.0, 0.0, 0.0, 0.0, 1.7074742905929887E9, 0.0, 2024-02-09 11:24:50.592
110.0, -17224.611905170907, -10286.451612287952, 15836.523871007428, -2540.4769230457455, 46755.446106844676, 17415.942837708335, 34368.82458553607, 9486.192105554594, 29523.99456787045, 4494.086443672949, 39053.05731929032, 28456.452900940527, 39962.39333896558, 34189.98827814916, 28503.79389569687, 24782.63077528844, 0.07250000000000001, 0.9974999999999999, 0.167, 192.0, 0.0, 0.0, 0.0, 0.0, 0.0, 0.0, 0.0, 0.0, 0.0, 1.707474290600986E9, 0.0, 2024-02-09 11:24:50.600
112.0, -17292.717670526228, -10166.467448051864, 15771.569701620307, -2513.4089605103686, 46396.99118101492, 17340.23747923821, 34189.98827814916, 9345.867853864176, 29417.957892174472, 4484.02815866806, 38957.3918530216, 28407.39082186113, 39888.811396218705, 34123.737707583634, 28433.788232062845, 24781.513188065674, 0.07250000000000001, 0.9974999999999999, 0.167, 192.0, 0.0, 0.0, 0.0, 0.0, 0.0, 0.0, 0.0, 0.0, 0.0, 1.7074742906100519E9, 0.0, 2024-02-09 11:24:50.610
114.0, -17301.680720052806, -9995.834230880051, 15853.734714238015, -2524.338963549014, 46663.96041678911, 17395.669805487374, 34354.63122780695, 9381.228313592472, 29415.81212470676, 4543.170874496803, 38824.48838049035, 28423.68524356905, 39576.75869187817, 34053.93320964971, 28370.8457196767, 24682.13733221738, 0.07250000000000001, 0.9974999999999999, 0.167, 192.0, 0.0, 0.0, 0.0, 0.0, 0.0, 0.0, 0.0, 0.0, 0.0, 1.7074742906180923E9, 0.0, 2024-02-09 11:24:50.618
116.0, -17329.307476199567, -9912.797500228584, 15801.923370590614, -2496.1981172797823, 46597.55338401239, 17358.05181956909, 34303.468084748754, 9343.364458485183, 29684.368334337276, 4744.269519361201, 39223.89170216223, 28489.108799589732, 40106.74090465795, 34244.325368920014, 28536.181573412607, 24878.564462490616, 0.07250000000000001, 0.9974999999999999, 0.167, 192.0, 0.0, 0.0, 0.0, 0.0, 0.0, 0.0, 0.0, 0.0, 0.0, 1.7074742906250093E9, 0.0, 2024-02-09 11:24:50.625
118.0, -17272.891673194372, -9834.097008001449, 15831.360618038252, -2470.940646045285, 46443.929844371065, 17352.866214855458, 34229.863790257434, 9237.260727555838, 29408.525456014333, 4934.236995486855, 38797.68863888844, 28416.555037087805, 39530.5799878335, 34027.625206425815, 28332.266608746842, 24684.148989218356, 0.06825, 1.00375, 0.1615, 192.0, 1.0, 0.0, 15.5, 72.0, 2.0, 112.0, 0.0, 0.0, 0.0, 1.7074742906330073E9, 0.0, 2024-02-09 11:24:50.633
120.0, -17203.06482351599, -9860.226197269702, 15885.429487875641, -2468.616064621933, 46769.080670962416, 17411.986578939748, 34371.864422782, 9271.145972150085, 29746.237962989566, 5219.668772181127, 39182.6974371311, 28529.006663442455, 39925.311794914225, 34229.26029315714, 28516.824962714312, 24839.53831667165, 0.06825, 1.00375, 0.1615, 192.0, 0.0, 0.0, 0.0, 0.0, 0.0, 0.0, 0.0, 0.0, 0.0, 1.7074742906420147E9, 0.0, 2024-02-09 11:24:50.642
122.0, -17148.213642622668, -9943.575852343542, 15842.178862354622, -2427.913537968819, 46427.925995341066, 17348.842900853506, 34201.78999922157, 9112.158013839486, 29637.094394814303, 5378.500268280539, 39092.84342442077, 28481.8221308973, 39890.39837007503, 34146.603542161414, 28488.34884027825, 24830.016473533688, 0.06825, 1.00375, 0.1615, 192.0, 0.0, 0.0, 0.0, 0.0, 0.0, 0.0, 0.0, 0.0, 0.0, 1.7074742906490412E9, 0.0, 2024-02-09 11:24:50.649
124.0, -17025.480213818577, -9887.361215038445, 15937.978439090068, -2419.174005886794, 46688.39087347876, 17451.41505615891, 34326.66919549336, 9192.087852011664, 29633.808688379373, 5626.850500923455, 38965.95257114799, 28517.40610807015, 39597.32229677705, 34101.60948057288, 28457.034046296365, 24740.251867801177, 0.06825, 1.00375, 0.1615, 192.0, 0.0, 0.0, 0.0, 0.0, 0.0, 0.0, 0.0, 0.0, 0.0, 1.7074742906570656E9, 0.0, 2024-02-09 11:24:50.657
126.0, -16989.091573845337, -9868.585749695987, 15895.62188334726, -2407.5510987700345, 46630.097523939316, 17419.563820310097, 34291.040514831606, 9143.226938632362, 29901.71669742068, 5845.562320418635, 39370.51914578905, 28584.506044924983, 40162.26263788493, 34291.42049448735, 28640.05012989642, 24931.89572476098, 0.06825, 1.00375, 0.1615, 192.0, 0.0, 0.0, 0.0, 0.0, 0.0, 0.0, 0.0, 0.0, 0.0, 1.7074742906660488E9, 0.0, 2024-02-09 11:24:50.666
128.0, -16925.25499168098, -9798.334216872958, 15919.426491192162, -2395.2799910640706, 46482.15132738964, 17425.48703259075, 34259.97159003873, 9099.998664855799, 29620.174124261634, 5979.784545872753, 38938.72814640142, 28506.610215498236, 39616.41068654188, 34053.82145092743, 28444.472365912483, 24728.628960684415, 0.058125, 1.010875, 0.15475, 192.0, 0.5, 64.0, 15.5, 104.0, 2.0, 80.0, 0.0, 0.0, 0.0, 1.7074742906740987E9, 0.0, 2024-02-09 11:24:50.674
130.0, -16862.826569417306, -9728.060332305471, 15941.0629798249, -2414.4577878067244, 46800.37311319985, 17483.288643752177, 34421.284129772685, 9208.561087675225, 29929.63402624536, 6176.703414524009, 39300.468778666116, 28616.178466818154, 40010.2931273333, 34260.843308072486, 28622.883990154744, 24875.390514777962, 0.058125, 1.010875, 0.15475, 192.0, 0.0, 0.0, 0.0, 0.0, 0.0, 0.0, 0.0, 0.0, 0.0, 1.7074742906813276E9, 0.0, 2024-02-09 11:24:50.681
132.0, -16864.77117118492, -9731.949535840695, 15854.42761831613, -2413.921345939797, 46430.33998374224, 17369.2500435412, 34212.451781326745, 9021.253469139752, 29792.282556567498, 6239.042429809861, 39189.11238778978, 28547.826832273822, 39977.6372286841, 34165.557821459515, 28542.194192671086, 24834.687988124846, 0.058125, 1.010875, 0.15475, 192.0, 0.0, 0.0, 0.0, 0.0, 0.0, 0.0, 0.0, 0.0, 0.0, 1.7074742906890736E9, 0.0, 2024-02-09 11:24:50.689
134.0, -16790.13869644865, -9677.210113669647, 15942.605250192315, -2416.7600174856207, 46679.51723093, 17430.62793381547, 34317.01324188867, 9075.03176629922, 29754.93279158268, 6366.4026697162, 39033.85717080321, 28564.65769584867, 39671.44068139085, 34100.69305905021, 28456.072921284787, 24696.3306899465, 0.058125, 1.010875, 0.15475, 192.0, 0.0, 0.0, 0.0, 0.0, 0.0, 0.0, 0.0, 0.0, 0.0, 1.7074742906981308E9, 0.0, 2024-02-09 11:24:50.698
136.0, -16752.274841341357, -9636.28406957198, 15909.412909676184, -2395.414101530803, 46616.686477266136, 17391.87000892997, 34253.288418446595, 9027.802530265157, 30002.634823636392, 6477.177915236702, 39428.320756950474, 28637.703196728613, 40229.31787125085, 34296.94137536781, 28623.733356444045, 24888.131009117486, 0.058125, 1.010875, 0.15475, 192.0, 0.0, 0.0, 0.0, 0.0, 0.0, 0.0, 0.0, 0.0, 0.0, 1.7074742907051427E9, 0.0, 2024-02-09 11:24:50.705
138.0, -16756.588728021234, -9636.217014338616, 15922.287514482441, -2395.9058399088194, 46445.405059505116, 17361.76220914867, 34173.62680120788, 8943.58115715756, 29708.217645671088, 6502.234220771101, 38991.21004238249, 28560.477919635527, 39667.64088483345, 34064.08090163242, 28412.91170274159, 24666.468759354208, 0.0510625, 1.0194375, 0.15437499999999998, 192.0, 0.5, 48.0, 16.0, 16.0, 2.0, 104.0, 0.0, 0.0, 0.0, 1.7074742907131393E9, 0.0, 2024-02-09 11:24:50.713
140.0, -16713.94159960051, -9568.64769085022, 15959.614927722805, -2399.638581232856, 46771.382900641314, 17426.1128814355, 34331.63128276244, 9081.357309980072, 29964.994485973657, 6584.801564789005, 39321.45706670965, 28635.80329844991, 40037.2493311464, 34259.81512782754, 28572.100826752285, 24799.886322007933, 0.0510625, 1.0194375, 0.15437499999999998, 192.0, 0.0, 0.0, 0.0, 0.0, 0.0, 0.0, 0.0, 0.0, 0.0, 1.7074742907211864E9, 0.0, 2024-02-09 11:24:50.721
142.0, -16760.522635045367, -9539.322202124858, 15892.626749590248, -2383.1876973137496, 46428.17186453007, 17352.597993921994, 34165.7142836707, 8962.557788200116, 29827.53125757352, 6589.048396235514, 39226.775077196966, 28590.339850227818, 40007.3426970652, 34189.451836282235, 28521.8317534723, 24788.688098035826, 0.0510625, 1.0194375, 0.15437499999999998, 192.0, 0.0, 0.0, 0.0, 0.0, 0.0, 0.0, 0.0, 0.0, 0.0, 1.707474290729158E9, 0.0, 2024-02-09 11:24:50.729
144.0, -16754.331201831246, -9449.714058603533, 15974.791762207959, -2400.040912633051, 46702.874803885796, 17449.917489280404, 34338.67208226587, 9081.044385557698, 29757.346779983855, 6581.739375798628, 39050.665682633604, 28577.75581809948, 39699.04508579315, 34112.338317911424, 28469.998058080444, 24672.190805934766, 0.0510625, 1.0194375, 0.15437499999999998, 192.0, 0.0, 0.0, 0.0, 0.0, 0.0, 0.0, 0.0, 0.0, 0.0, 1.7074742907371323E9, 0.0, 2024-02-09 11:24:50.737
146.0, -16888.66518600764, -9452.172750493617, 15903.847325306813, -2421.789159988065, 46644.17912294616, 17415.786375497148, 34303.73630568222, 9058.893806802489, 29929.29875007853, 6486.252723485556, 39396.737742035126, 28580.70624836758, 40247.91452263767, 34291.97928809873, 28648.163813133695, 24867.63445945197, 0.0510625, 1.0194375, 0.15437499999999998, 192.0, 0.0, 0.0, 0.0, 0.0, 0.0, 0.0, 0.0, 0.0, 0.0, 1.707474290745237E9, 0.0, 2024-02-09 11:24:50.745
148.0, -16885.893569695185, -9323.113778008674, 15912.609209133294, -2433.2779566380927, 46471.19897260654, 17406.666863759383, 34222.19714190926, 8991.816221692112, 29556.80692873084, 6288.752709478464, 38921.36084095965, 28476.323601761294, 39681.543669884646, 34045.81952641243, 28429.742566316436, 24643.044131165047, 0.04753125, 1.02771875, 0.15718749999999998, 192.0, 0.5, 48.0, 16.0, 48.0, 2.5, 0.0, 0.0, 0.0, 0.0, 1.7074742907545395E9, 0.0, 2024-02-09 11:24:50.754
150.0, -16919.376482889234, -9388.760851473911, 15937.665514667693, -2463.0281285081064, 46789.353703183384, 17477.723059382806, 34363.19194593334, 9123.84797618961, 29821.295120870487, 6047.867959483619, 39244.79058322794, 28550.50904160846, 40062.73031982545, 34243.274836930614, 28580.95211755659, 24757.485062776217, 0.04753125, 1.02771875, 0.15718749999999998, 192.0, 0.0, 0.0, 0.0, 0.0, 0.0, 0.0, 0.0, 0.0, 0.0, 1.7074742907611985E9, 0.0, 2024-02-09 11:24:50.761
152.0, -16959.050829297405, -9626.248136311548, 15862.250728875486, -2463.2739976971147, 46412.704457367, 17376.424953511352, 34136.6570158788, 8981.579122731582, 29641.631798938728, 5600.698959910746, 39112.84823570827, 28469.93100284708, 40030.364993854164, 34155.09720505443, 28497.043668871363, 24704.89140807288, 0.04753125, 1.02771875, 0.15718749999999998, 192.0, 0.0, 0.0, 0.0, 0.0, 0.0, 0.0, 0.0, 0.0, 0.0, 1.707474290769179E9, 0.0, 2024-02-09 11:24:50.769
154.0, -16897.06944192284, -9733.871785863852, 15957.647974210737, -2456.210846449238, 46663.446326666635, 17448.442274146353, 34245.331197420506, 9133.414522816483, 29561.81371948883, 5082.71963390346, 38940.38217549112, 28501.98340439599, 39717.84290288006, 34099.44136136072, 28418.209066177496, 24568.568118639963, 0.04753125, 1.02771875, 0.15718749999999998, 192.0, 0.0, 0.0, 0.0, 0.0, 0.0, 0.0, 0.0, 0.0, 0.0, 1.7074742907772472E9, 0.0, 2024-02-09 11:24:50.777
156.0, -16952.501768172, -9976.276454481656, 15886.882351265234, -2466.5597041320448, 46602.761340470475, 17376.58141572254, 34169.15645231682, 9113.163842339975, 29759.47019570711, 4494.444071584234, 39318.66309865274, 28547.290390406895, 40271.696778738115, 34292.582785199025, 28584.61780364726, 24752.18769934031, 0.04753125, 1.02771875, 0.15718749999999998, 192.0, 0.0, 0.0, 0.0, 0.0, 0.0, 0.0, 0.0, 0.0, 0.0, 1.7074742907852376E9, 0.0, 2024-02-09 11:24:50.785
158.0, -16960.324878731357, -10096.305322206656, 15888.446973377106, -2471.3429774454808, 46437.33607975675, 17338.76226410416, 34103.062343962476, 9080.753812879779, 29356.915278067027, 4035.1380747721287, 38846.527200523284, 28455.402368951127, 39696.34052471406, 34048.591142724894, 28369.839891176212, 24527.552667564472, 0.053765625, 1.023859375, 0.15859374999999998, 192.0, 0.5, 112.0, 15.5, 112.0, 2.5, 0.0, 0.0, 0.0, 0.0, 1.7074742907932692E9, 0.0, 2024-02-09 11:24:50.793
160.0, -16976.79811439492, -10134.795026158694, 15914.285589967441, -2494.2088120232597, 46782.223496702136, 17392.29469207462, 34295.98025035623, 9259.433658055505, 29582.176158687613, 3804.3116097821726, 39159.27280894194, 28525.22921862951, 40060.18222095755, 34219.447877341256, 28538.617913558235, 24654.041189437055, 0.053765625, 1.023859375, 0.15859374999999998, 192.0, 0.0, 0.0, 0.0, 0.0, 0.0, 0.0, 0.0, 0.0, 0.0, 1.7074742908012729E9, 0.0, 2024-02-09 11:24:50.801
162.0, -17031.291667376958, -10185.309968627687, 15831.248859315976, -2486.4751084417235, 46426.71900114048, 17310.532010857107, 34119.13324822584, 9169.065555222698, 29411.58764500471, 3618.6133168474817, 39054.89016233566, 28484.861968143225, 40037.986938713424, 34162.80855689151, 28494.003831625443, 24652.767140003103, 0.053765625, 1.023859375, 0.15859374999999998, 192.0, 0.0, 0.0, 0.0, 0.0, 0.0, 0.0, 0.0, 0.0, 0.0, 1.7074742908102868E9, 0.0, 2024-02-09 11:24:50.810
164.0, -17043.60747857183, -10162.779410216739, 15895.62188334726, -2505.943477862296, 46676.52209717299, 17396.96620666578, 34261.536212150604, 9325.438359432026, 29290.932928434962, 3462.0169951936005, 38854.12679363809, 28475.29542151635, 39700.967335816305, 34083.45986407517, 28421.71829005698, 24540.47197585964, 0.053765625, 1.023859375, 0.15859374999999998, 192.0, 0.0, 0.0, 0.0, 0.0, 0.0, 0.0, 0.0, 0.0, 0.0, 1.7074742908172865E9, 0.0, 2024-02-09 11:24:50.817
166.0, -17083.840618591385, -10153.52578801224, 15828.834870914803, -2508.111597074461, 46628.68936403863, 17358.744723647204, 34232.70246180325, 9341.777484628856, 29496.65838440161, 3438.502960026617, 39223.86935041778, 28521.11649764973, 40250.37321452775, 34276.131901279914, 28594.921957841154, 24757.418007542852, 0.053765625, 1.023859375, 0.15859374999999998, 192.0, 0.0, 0.0, 0.0, 0.0, 0.0, 0.0, 0.0, 0.0, 0.0, 1.707474290825288E9, 0.0, 2024-02-09 11:24:50.825
168.0, -17111.154450315767, -10097.132336751501, 15840.189557098098, -2497.6062771804663, 46443.90749262661, 17350.608688665474, 34149.15164102932, 9301.074957975741, 29154.989618657783, 3447.6224717643827, 38762.52934486024, 28431.68716808405, 39679.42025416139, 34032.520238461526, 28379.585251758726, 24557.883984790325, 0.0628828125, 1.0089296875, 0.162296875, 192.0, 1.0, 32.0, 15.5, 8.0, 2.5, 24.0, 0.0, 0.0, 0.0, 1.707474290833325E9, 0.0, 2024-02-09 11:24:50.833
170.0, -17055.76682755552, -9970.77792534565, 15880.690918051116, -2505.518794717645, 46776.434394888216, 17417.172183653376, 34331.11719263997, 9451.904529560154, 29431.81597373676, 3609.04677022061, 39104.62279374871, 28536.89682923518, 40031.3484706102, 34229.863790257434, 28540.003721714464, 24709.674681386314, 0.0628828125, 1.0089296875, 0.162296875, 192.0, 0.0, 0.0, 0.0, 0.0, 0.0, 0.0, 0.0, 0.0, 0.0, 1.7074742908412905E9, 0.0, 2024-02-09 11:24:50.841
172.0, -17072.217711474623, -9942.748837798696, 15804.136193291688, -2489.0902625429944, 46414.82787309025, 17339.969258304747, 34144.435422949246, 9325.79598734331, 29302.779352996273, 3645.0554305381097, 39004.82225475577, 28472.948488348546, 40005.129874364124, 34143.09431828193, 28481.26333728592, 24707.484210429695, 0.0628828125, 1.0089296875, 0.162296875, 192.0, 0.0, 0.0, 0.0, 0.0, 0.0, 0.0, 0.0, 0.0, 0.0, 1.7074742908493438E9, 0.0, 2024-02-09 11:24:50.849
174.0, -17004.73779496405, -9820.149519461336, 15883.820162274858, -2490.5878294215, 46661.546428387934, 17420.480241832764, 34296.36023001197, 9432.659677584134, 29252.912611116484, 3801.3164760251616, 38830.43394451546, 28497.714221205024, 39673.22882094727, 34090.23244264513, 28403.836894492735, 24605.604959202406, 0.0628828125, 1.0089296875, 0.162296875, 192.0, 0.0, 0.0, 0.0, 0.0, 0.0, 0.0, 0.0, 0.0, 0.0, 1.707474290857376E9, 0.0, 2024-02-09 11:24:50.857
176.0, -17014.192582868647, -9764.516027512078, 15824.811556912848, -2485.0893002854946, 46607.47755855055, 17382.97401463676, 34251.880258545905, 9402.48482256947, 29506.69431766204, 3951.944881909476, 39214.414562513186, 28547.513907851448, 40216.93500482262, 34282.435093216314, 28574.51481515346, 24811.19630470232, 0.0628828125, 1.0089296875, 0.162296875, 192.0, 0.0, 0.0, 0.0, 0.0, 0.0, 0.0, 0.0, 0.0, 0.0, 1.7074742908653765E9, 0.0, 2024-02-09 11:24:50.865
178.0, -16982.386050508743, -9665.698965275165, 15844.861071689258, -2468.1690297328273, 46432.17282678757, 17376.044973855613, 34220.16313316383, 9362.206979061006, 29218.423869421946, 4093.632590011667, 38772.63233335404, 28468.835767368768, 39645.669120033876, 34044.54547697848, 28365.771873685346, 24611.68463369425, 0.07044140625, 1.00146484375, 0.16614843750000002, 192.0, 1.0, 56.0, 15.5, 8.0, 2.5, 40.0, 0.0, 0.0, 0.0, 1.7074742908723292E9, 0.0, 2024-02-09 11:24:50.872
180.0, -16934.776834818942, -9567.41834490518, 15898.371147915263, -2468.1690297328273, 46761.324615636426, 17450.65509684743, 34379.531071130164, 9511.717797722555, 29559.645600276664, 4316.94886886464, 39130.19318940559, 28593.6479084072, 39999.407827783565, 34247.05228174356, 28539.78020426991, 24769.84557746, 0.07044140625, 1.00146484375, 0.16614843750000002, 192.0, 0.0, 0.0, 0.0, 0.0, 0.0, 0.0, 0.0, 0.0, 0.0, 1.7074742908823595E9, 0.0, 2024-02-09 11:24:50.882
182.0, -16945.505672157487, -9519.65266700419, 15832.589963983293, -2445.526712599601, 46408.27881196485, 17361.136360303924, 34215.49161857267, 9370.879455909664, 29471.579727122753, 4336.28312781848, 39049.32457796628, 28549.905544508165, 39992.992877124896, 34180.645248966845, 28494.763790936922, 24771.611365271972, 0.07044140625, 1.00146484375, 0.16614843750000002, 192.0, 0.0, 0.0, 0.0, 0.0, 0.0, 0.0, 0.0, 0.0, 0.0, 1.7074742908895476E9, 0.0, 2024-02-09 11:24:50.889
184.0, -16932.787529562418, -9416.05233145384, 15905.277836951953, -2461.619968607422, 46648.89534102623, 17424.034169201157, 34353.7595097732, 9452.753895849455, 29459.77800605035, 4350.811761714431, 38872.052892691245, 28559.203870201574, 39644.73034676675, 34088.77957925553, 28414.14104868663, 24646.53100330007, 0.07044140625, 1.00146484375, 0.16614843750000002, 192.0, 0.0, 0.0, 0.0, 0.0, 0.0, 0.0, 0.0, 0.0, 0.0, 1.7074742908975842E9, 0.0, 2024-02-09 11:24:50.897
186.0, -16974.96527134958, -9381.47418278148, 15851.790112470402, -2454.4674103817238, 46619.79336974542, 17372.133418575933, 34334.33584384154, 9400.00377893493, 29736.22438147359, 4473.478135285155, 39291.1257494838, 28605.829609135344, 40193.2868591889, 34277.16008152486, 28594.47492295205, 24863.074703583086, 0.07044140625, 1.00146484375, 0.16614843750000002, 192.0, 0.0, 0.0, 0.0, 0.0, 0.0, 0.0, 0.0, 0.0, 0.0, 1.7074742909054115E9, 0.0, 2024-02-09 11:24:50.905
188.0, -16992.533742491454, -9318.263449461872, 15870.498522579495, -2438.2400439071707, 46441.89583562563, 17351.435703210318, 34269.649895387876, 9316.631772116634, 29465.58945960873, 4565.410860229834, 38871.69526477996, 28522.97169243952, 39635.253207117705, 34040.20923855415, 28391.722248997958, 24671.02851522309, 0.07422070312500001, 1.002732421875, 0.17207421875, 192.0, 1.0, 56.0, 15.5, 48.0, 2.5, 72.0, 0.0, 0.0, 0.0, 1.7074742909136195E9, 0.0, 2024-02-09 11:24:50.913
190.0, -16985.157666821204, -9261.177094123017, 15923.494508683028, -2434.7308200276875, 46791.20889797317, 17424.07887269007, 34450.16258360894, 9442.136817233184, 29778.80445466095, 4858.442230038909, 39219.04137361543, 28624.582722733347, 39975.69262691648, 34234.5800083375, 28570.22328021804, 24826.350787443018, 0.07422070312500001, 1.002732421875, 0.17207421875, 192.0, 0.0, 0.0, 0.0, 0.0, 0.0, 0.0, 0.0, 0.0, 0.0, 1.70747429092042E9, 0.0, 2024-02-09 11:24:50.920
192.0, -16981.514332474988, -9315.156556982583, 15865.737601010514, -2405.561793513512, 46448.37784151767, 17365.182026050334, 34275.59545941299, 9288.401518869581, 29688.905738461704, 5107.798291182315, 39146.71112855806, 28578.18050124413, 39969.03180706881, 34182.29927805654, 28545.614009572746, 24851.831776122068, 0.07422070312500001, 1.002732421875, 0.17207421875, 192.0, 0.0, 0.0, 0.0, 0.0, 0.0, 0.0, 0.0, 0.0, 0.0, 1.7074742909284265E9, 0.0, 2024-02-09 11:24:50.928
194.0, -16891.839133720296, -9393.030034664875, 15939.900689113223, -2415.754188985132, 46680.38894896376, 17439.725093808782, 34385.32017294409, 9316.832937816733, 29659.11086310278, 5390.190230630664, 38972.88161192914, 28591.770361872957, 39617.66238423138, 34098.18966367122, 28473.753151148936, 24742.50939399116, 0.07422070312500001, 1.002732421875, 0.17207421875, 192.0, 0.0, 0.0, 0.0, 0.0, 0.0, 0.0, 0.0, 0.0, 0.0, 1.707474290937487E9, 0.0, 2024-02-09 11:24:50.937
196.0, -16860.256118804948, -9521.530213538434, 15896.426546147652, -2396.3528747979253, 46655.15382947372, 17410.77958473916, 34356.93345748585, 9259.970099922431, 29927.577665755474, 5578.906009066822, 39382.34321860591, 28651.784795735457, 40165.99537920897, 34290.5934799425, 28651.941257946644, 24945.485585389804, 0.07422070312500001, 1.002732421875, 0.17207421875, 192.0, 0.0, 0.0, 0.0, 0.0, 0.0, 0.0, 0.0, 0.0, 0.0, 1.707474290945484E9, 0.0, 2024-02-09 11:24:50.945
198.0, -16795.413708140102, -9554.99077498803, 15921.259334237497, -2376.303360021515, 46461.16303934611, 17385.566816993574, 34238.960950250745, 9124.630287245547, 29638.323740759344, 5694.397472667393, 38959.917600145054, 28577.62170763275, 39612.27561381765, 34070.9428871802, 28450.686150871057, 24723.823335626526, 0.07422070312500001, 1.002732421875, 0.17207421875, 192.0, 0.0, 0.0, 0.0, 0.0, 0.0, 0.0, 0.0, 0.0, 0.0, 1.7074742909526558E9, 0.0, 2024-02-09 11:24:50.952
200.0, -16740.674285969053, -9536.595289301311, 15968.39916329374, -2388.3733020273808, 46782.13408972431, 17445.69300957835, 34386.460111911314, 9196.804070091734, 29942.553334540527, 5879.78284117971, 39304.11211301233, 28675.85762451382, 39967.06485355674, 34262.63144762891, 28610.925806871153, 24835.559706158605, 0.08, 1.022, 0.164, 192.0, 1.0, 64.0, 15.5, 120.0, 2.5, 16.0, 0.0, 0.0, 0.0, 1.707474290960498E9, 0.0, 2024-02-09 11:24:50.960
202.0, -16748.162120361583, -9560.958690757596, 15888.67049082166, -2380.6172467013894, 46427.12133254067, 17355.23549976772, 34201.566481777016, 9013.966800447322, 29832.783917520515, 5948.156827468494, 39227.57973999736, 28617.6536819522, 39987.606106711166, 34202.05822015503, 28570.379742429228, 24820.137002484444, 0.08, 1.022, 0.164, 192.0, 0.0, 0.0, 0.0, 0.0, 0.0, 0.0, 0.0, 0.0, 0.0, 1.7074742909695122E9, 0.0, 2024-02-09 11:24:50.969
204.0, -16680.838666062198, -9510.086120377317, 15956.77625617698, -2404.555965013023, 46663.155753988714, 17422.44719534483, 34326.84800944901, 9072.237798242308, 29766.89097486627, 6041.6988780139545, 39030.8620370462, 28614.01034760599, 39642.13754440994, 34114.7523063126, 28483.54321522036, 24673.822483280004, 0.08, 1.022, 0.164, 192.0, 0.0, 0.0, 0.0, 0.0, 0.0, 0.0, 0.0, 0.0, 0.0, 1.7074742909765E9, 0.0, 2024-02-09 11:24:50.976
206.0, -16686.605416131668, -9518.803300714886, 15902.975607273056, -2395.6823224642662, 46636.3560123868, 17388.91957866187, 34291.12992180943, 9049.304908431162, 30017.85636161046, 6132.782236669331, 39429.930082551255, 28666.00050520903, 40212.91169082066, 34310.263015063174, 28660.993714451044, 24868.372067018994, 0.08, 1.022, 0.164, 192.0, 0.0, 0.0, 0.0, 0.0, 0.0, 0.0, 0.0, 0.0, 0.0, 1.7074742909845192E9, 0.0, 2024-02-09 11:24:50.984
208.0, -16659.090418707183, -9482.459364230557, 15914.464403923084, -2385.8252031594757, 46443.72867867097, 17385.745630949215, 34205.36627833441, 9004.579067776092, 29703.322613635377, 6151.624757245155, 38986.40441732459, 28583.7460856135, 39666.70211156632, 34079.905936706775, 28448.048645025334, 24659.94204997326, 0.08, 1.022, 0.164, 192.0, 0.0, 0.0, 0.0, 0.0, 0.0, 0.0, 0.0, 0.0, 0.0, 1.707474290993568E9, 0.0, 2024-02-09 11:24:50.993
210.0, -16639.018552186317, -9462.163980265139, 15947.477930483572, -2399.8173951884983, 46780.25654319007, 17456.064219005613, 34384.38139967697, 9150.267738135784, 29986.116884483923, 6250.978261348994, 39312.71753462762, 28668.883880243768, 40008.05795288777, 34265.42541568582, 28607.57304520286, 24803.641415076425, 0.08, 1.02, 0.162, 192.0, 1.0, 64.0, 15.5, 112.0, 2.5, 8.0, 0.0, 0.0, 0.0, 1.7074742910015948E9, 0.0, 2024-02-09 11:24:51.001
212.0, -16637.610392285635, -9424.568346091311, 15875.214740659565, -2386.987493871152, 46425.04262030633, 17361.136360303924, 34191.485845027666, 8994.945465915855, 29862.019999268057, 6247.290223513869, 39241.68369074866, 28617.698385441112, 40009.71198197746, 34207.04265916856, 28559.852070790777, 24795.348917883508, 0.08, 1.02, 0.162, 192.0, 0.0, 0.0, 0.0, 0.0, 0.0, 0.0, 0.0, 0.0, 0.0, 1.707474291008583E9, 0.0, 2024-02-09 11:24:51.008
214.0, -16591.38698475206, -9333.50733918039, 15958.340878288851, -2398.14101435435, 46654.639739351245, 17443.83781478856, 34308.0501923621, 9094.99187409781, 29783.74419018557, 6290.652607757164, 39046.84353433175, 28620.224132564563, 39655.16861142738, 34111.69011732222, 28469.50631970243, 24660.031456951077, 0.08, 1.02, 0.162, 192.0, 0.0, 0.0, 0.0, 0.0, 0.0, 0.0, 0.0, 0.0, 0.0, 1.7074742910166037E9, 0.0, 2024-02-09 11:24:51.016
216.0, -16653.167206426526, -9336.61423165968, 15909.882296309746, -2397.0010753871293, 46631.97507047356, 17407.717395748783, 34272.4885669337, 9069.354423207573, 30009.072126039522, 6300.196802639581, 39433.99810004212, 28659.317333616895, 40219.974842068536, 34312.09585810851, 28647.225039866575, 24859.29725877014, 0.08, 1.02, 0.162, 192.0, 0.0, 0.0, 0.0, 0.0, 0.0, 0.0, 0.0, 0.0, 0.0, 1.7074742910257924E9, 0.0, 2024-02-09 11:24:51.025
218.0, -16624.10993863463, -9191.841982822656, 15925.573220917371, -2390.7425869396434, 46430.38468723115, 17376.648470955904, 34162.830908635966, 8960.479075965772, 29681.68612500264, 6215.170766731592, 38993.556975550295, 28570.357390684774, 39671.954771513316, 34076.754340738575, 28442.34895018923, 24637.187974117754, 0.08, 1.02, 0.162, 192.0, 0.0, 0.0, 0.0, 0.0, 0.0, 0.0, 0.0, 0.0, 0.0, 1.7074742910325987E9, 0.0, 2024-02-09 11:24:51.032
220.0, -16667.226453688916, -9179.257950694317, 15964.711125458614, -2420.2468896206487, 46772.232266930616, 17440.529756609172, 34344.729405013255, 9102.949095123899, 29906.745839923125, 6167.740364997431, 39284.75550231404, 28644.14049913174, 39990.22126081244, 34259.837479572, 28593.066763051364, 24747.784405682614, 0.078, 1.03, 0.154, 192.0, 1.0, 56.0, 16.0, 24.0, 2.0, 104.0, 0.0, 0.0, 0.0, 1.707474291040619E9, 0.0, 2024-02-09 11:24:51.040
222.0, -16709.538305942813, -9202.593171905657, 15886.457668120584, -2422.794988488554, 46420.99695455992, 17352.1956625218, 34166.451891237724, 8961.574311444081, 29752.541154925962, 5932.197681927405, 39184.619687154256, 28560.522623124438, 40018.16094138157, 34191.687010727765, 28553.593582343292, 24731.64644618588, 0.078, 1.03, 0.154, 192.0, 0.0, 0.0, 0.0, 0.0, 0.0, 0.0, 0.0, 0.0, 0.0, 1.7074742910486467E9, 0.0, 2024-02-09 11:24:51.048
224.0, -16686.270139964836, -9283.595893811691, 15952.127093330277, -2450.846427779964, 46649.00709974851, 17439.211003686312, 34292.18045379883, 9088.196943783396, 29625.42678420863, 5708.993161796709, 38945.00898659337, 28536.963884468543, 39657.60495157301, 34095.93213748123, 28453.033084038867, 24574.82660708745, 0.078, 1.03, 0.154, 192.0, 0.0, 0.0, 0.0, 0.0, 0.0, 0.0, 0.0, 0.0, 0.0, 1.7074742910576484E9, 0.0, 2024-02-09 11:24:51.057
226.0, -16753.392428564122, -9436.593584608268, 15894.884275780236, -2458.9601110172407, 46624.710753525585, 17406.957436437304, 34259.12222374943, 9119.221165087363, 29866.847976070403, 5410.038579706977, 39338.19852330667, 28599.99580383251, 40223.55112118139, 34312.565244742065, 28636.965589161588, 24776.081714163032, 0.078, 1.03, 0.154, 192.0, 0.0, 0.0, 0.0, 0.0, 0.0, 0.0, 0.0, 0.0, 0.0, 1.70747429106469E9, 0.0, 2024-02-09 11:24:51.064
228.0, -16779.253396898916, -9530.73913225402, 15896.605360103293, -2462.759907574643, 46422.047486549316, 17374.122723832457, 34134.779469344554, 9081.200847768885, 29504.66030891661, 4851.736706702317, 38868.83424148968, 28490.092276345764, 39677.72152158279, 34066.0925586334, 28425.361624403195, 24550.32909516443, 0.078, 1.03, 0.154, 192.0, 0.0, 0.0, 0.0, 0.0, 0.0, 0.0, 0.0, 0.0, 0.0, 1.7074742910727403E9, 0.0, 2024-02-09 11:24:51.072
230.0, -16822.928705564584, -9613.75351116103, 15927.96485757409, -2486.944495075285, 46762.375147625826, 17432.013741971703, 34311.33589879703, 9249.397724795072, 29736.805526829427, 4463.576312491455, 39176.438948683615, 28577.733466355025, 40006.336868564715, 34244.124203219915, 28569.195099973098, 24665.418227364808, 0.088, 1.022, 0.148, 192.0, 1.0, 96.0, 15.5, 120.0, 2.0, 80.0, 0.0, 0.0, 0.0, 1.707474291081736E9, 0.0, 2024-02-09 11:24:51.081
232.0, -16878.495142280477, -9707.764948340053, 15845.531624022917, -2476.1262507589163, 46417.59948940271, 17338.225822237233, 34135.4053181893, 9137.147264140518, 29551.28604785038, 4077.2487613259273, 39081.086406837276, 28504.956186408544, 40024.933519951526, 34175.72786518668, 28528.581980297804, 24662.11016918542, 0.088, 1.022, 0.148, 192.0, 0.0, 0.0, 0.0, 0.0, 0.0, 0.0, 0.0, 0.0, 0.0, 1.707474291088748E9, 0.0, 2024-02-09 11:24:51.088
234.0, -16865.598185729767, -9736.375181242845, 15921.751072615514, -2494.521736445634, 46650.83994279384, 17415.093471419033, 34257.557601637556, 9276.420983841537, 29434.67699702704, 3866.7400320458455, 38877.26084914933, 28510.991157411478, 39655.77210852768, 34085.73974200961, 28435.084633241255, 24538.1920979252, 0.088, 1.022, 0.148, 192.0, 0.0, 0.0, 0.0, 0.0, 0.0, 0.0, 0.0, 0.0, 0.0, 1.707474291096976E9, 0.0, 2024-02-09 11:24:51.096
236.0, -16937.101416242294, -9856.404048967845, 15852.639478759704, -2512.581945965522, 46635.059611208395, 17373.96626162127, 34229.528514090605, 9287.686263047011, 29635.35095874679, 3679.8123931661125, 39259.65449329073, 28555.40407364417, 40208.307231462866, 34290.615831686955, 28616.960777874086, 24745.32571379253, 0.088, 1.022, 0.148, 192.0, 0.0, 0.0, 0.0, 0.0, 0.0, 0.0, 0.0, 0.0, 0.0, 1.7074742911048443E9, 0.0, 2024-02-09 11:24:51.104
238.0, -16910.100508940282, -9835.706333602231, 15859.054429418378, -2503.4400824833015, 46434.832684377754, 17352.039200310614, 34145.9106380833, 9234.846739154666, 29246.02827382425, 3500.305533445541, 38787.876223072555, 28442.34895018923, 39648.396032857425, 34029.569808193424, 28399.455952579494, 24528.20086815368, 0.088, 1.022, 0.148, 192.0, 0.0, 0.0, 0.0, 0.0, 0.0, 0.0, 0.0, 0.0, 0.0, 1.7074742911137516E9, 0.0, 2024-02-09 11:24:51.113
240.0, -16908.96056997306, -9803.966856475694, 15901.589799116828, -2511.665524442855, 46779.87656353433, 17434.874765261982, 34330.89367519542, 9414.800633764344, 29483.78377959535, 3484.4357948822735, 39110.791875218376, 28558.153338212174, 39970.61878092513, 34230.7802117801, 28564.098902237285, 24666.580518076484, 0.084, 1.012, 0.156, 192.0, 1.0, 80.0, 15.5, 80.0, 2.0, 112.0, 0.0, 0.0, 0.0, 1.7074742911207871E9, 0.0, 2024-02-09 11:24:51.120
242.0, -16971.657213170198, -9866.372926994913, 15814.328588763308, -2512.2466697986924, 46429.51296919739, 17335.3424472025, 34138.40045194631, 9277.538571064302, 29317.19622816995, 3296.681141457694, 39040.182714484064, 28497.244834571462, 40006.38157205362, 34175.43729250876, 28528.69373902008, 24677.130541459388, 0.084, 1.012, 0.156, 192.0, 0.0, 0.0, 0.0, 0.0, 0.0, 0.0, 0.0, 0.0, 0.0, 1.7074742911287427E9, 0.0, 2024-02-09 11:24:51.128
244.0, -16965.823407867363, -9817.646124082343, 15892.738508312525, -2522.5508239925894, 46655.48910564055, 17417.97684645377, 34265.58187789701, 9391.6665782531, 29170.72524675432, 3226.11668421229, 38807.948089593425, 28486.627755955193, 39630.38052682645, 34075.48029130462, 28432.938865773544, 24539.66731305925, 0.084, 1.012, 0.156, 192.0, 0.0, 0.0, 0.0, 0.0, 0.0, 0.0, 0.0, 0.0, 0.0, 1.7074742911377776E9, 0.0, 2024-02-09 11:24:51.137
246.0, -16988.1080970893, -9827.771464320596, 15826.331475535808, -2531.6926874748096, 46647.10720146981, 17378.503665745695, 34252.662569601845, 9375.886246667653, 29400.56823498824, 3207.9894194590356, 39216.89560614772, 28545.36814038374, 40195.030295256416, 34282.68096240532, 28611.618710949268, 24756.456882531274, 0.084, 1.012, 0.156, 192.0, 0.0, 0.0, 0.0, 0.0, 0.0, 0.0, 0.0, 0.0, 0.0, 1.707474291144789E9, 0.0, 2024-02-09 11:24:51.144
248.0, -17006.481231031565, -9812.639333324354, 15832.522908749928, -2521.813216425564, 46449.65189095162, 17374.34624127701, 34176.28665879806, 9344.727914896956, 29032.904390442898, 3118.4930346599863, 38757.47785061334, 28440.806679821813, 39646.026747945165, 34034.755412907056, 28395.700859511002, 24544.13766195031, 0.084, 1.012, 0.156, 192.0, 0.0, 0.0, 0.0, 0.0, 0.0, 0.0, 0.0, 0.0, 0.0, 1.707474291152799E9, 0.0, 2024-02-09 11:24:51.152
250.0, -17011.532725278466, -9786.241923122636, 15875.840589504312, -2535.648946243399, 46786.58208687092, 17445.804768300626, 34335.72165199777, 9496.92094289314, 29272.671553214976, 3131.3229359773322, 39063.40617697313, 28530.146602409674, 39951.172763249015, 34222.89004598738, 28551.827794531324, 24687.300585186553, 0.08600000000000001, 1.004, 0.162, 192.0, 1.0, 88.0, 15.5, 48.0, 2.5, 8.0, 0.0, 0.0, 0.0, 1.707474291160787E9, 0.0, 2024-02-09 11:24:51.160
252.0, -17048.837786774373, -9826.273897442092, 15803.823268869313, -2522.819044926053, 46449.92011188509, 17346.13833977441, 34172.57626921848, 9347.790103887333, 29137.71172019383, 3071.241446881467, 38997.37912385215, 28462.666685899105, 39992.65760095807, 34165.33430401496, 28517.808439470344, 24695.950710290756, 0.08600000000000001, 1.004, 0.162, 192.0, 0.0, 0.0, 0.0, 0.0, 0.0, 0.0, 0.0, 0.0, 0.0, 1.707474291169836E9, 0.0, 2024-02-09 11:24:51.169
254.0, -17025.234344629567, -9750.523835483054, 15874.298319136897, -2538.621728255955, 46667.223771479585, 17407.650340515418, 34287.061904318565, 9415.761758775921, 29030.289236341625, 3086.03830171088, 38774.57693512165, 28452.340179960753, 39609.682811460836, 34064.12560512133, 28421.38301389015, 24548.85388003038, 0.08600000000000001, 1.004, 0.162, 192.0, 0.0, 0.0, 0.0, 0.0, 0.0, 0.0, 0.0, 0.0, 0.0, 1.707474291177167E9, 0.0, 2024-02-09 11:24:51.177
0.0, -17046.08852220637, -9771.489771782133, 15821.794071411381, -2535.9395189213183, 46658.126611486274, 17388.11491586148, 34273.58380241201, 9443.522625389412, 29283.84742544263, 3115.430845669609, 39188.888870345225, 28514.634491757693, 40176.09836770277, 34265.60422964147, 28598.453533465094, 24769.823225715547, 0.08600000000000001, 1.004, 0.162, 192.0, 0.0, 0.0, 0.0, 0.0, 0.0, 0.0, 0.0, 0.0, 0.0, 1.7074742911848192E9, 0.0, 2024-02-09 11:24:51.184
2.0, -17055.69977232215, -9751.395553516812, 15829.393664526186, -2526.752951950187, 46454.09988809823, 17364.06443882757, 34205.7239062457, 9367.973729130475, 28944.54794461107, 3077.2317143954892, 38734.90258871348, 28410.47536259596, 39629.26293960368, 34016.24816849806, 28394.80678973279, 24569.28337446253, 0.08600000000000001, 1.004, 0.162, 192.0, 0.0, 0.0, 0.0, 0.0, 0.0, 0.0, 0.0, 0.0, 0.0, 1.7074742911928957E9, 0.0, 2024-02-09 11:24:51.192
4.0, -17041.104083192837, -9711.184765241715, 15871.169074913154, -2543.3379463360247, 46791.05243576199, 17431.25378266022, 34360.95677148781, 9511.047245388896, 29217.418040921457, 3164.0458898599018, 39042.06026101831, 28498.45182877205, 39934.92304503001, 34192.02228689459, 28545.904582250667, 24689.51340788763, 0.08, 1.0, 0.168, 192.0, 1.0, 64.0, 15.5, 32.0, 2.5, 32.0, 0.0, 0.0, 0.0, 1.7074742912008908E9, 0.0, 2024-02-09 11:24:51.200
6.0, -17075.52576965401, -9716.437425188711, 15796.69306238807, -2530.463341529768, 46449.27191129588, 17335.163633246855, 34209.523702803104, 9361.022336604874, 29115.53878969417, 3152.467686232053, 38985.68916150203, 28439.331464687762, 39974.99972283837, 34151.43151896376, 28507.459581787538, 24705.204332495254, 0.08, 1.0, 0.168, 192.0, 0.0, 0.0, 0.0, 0.0, 0.0, 0.0, 0.0, 0.0, 0.0, 1.7074742912088892E9, 0.0, 2024-02-09 11:24:51.208
8.0, -17042.2216704156, -9638.42983703969, 15876.622900560249, -2534.2184345982596, 46659.244198709035, 17408.2091341268, 34312.18526508633, 9437.331192175292, 29036.74889048921, 3223.613288833295, 38761.41175763748, 28440.806679821813, 39598.1493113219, 34045.75247117907, 28408.03902245033, 24557.213432456665, 0.08, 1.0, 0.168, 192.0, 0.0, 0.0, 0.0, 0.0, 0.0, 0.0, 0.0, 0.0, 0.0, 1.7074742912169263E9, 0.0, 2024-02-09 11:24:51.216
10.0, -17041.55111808194, -9616.122796073294, 15831.405321527163, -2517.3428675345026, 46667.80491683542, 17401.63772125694, 34337.040404920626, 9481.431183985613, 29320.191361926958, 3340.1776361677216, 39173.354407948784, 28514.410974313138, 40171.67272230062, 34249.86860154493, 28606.410754491182, 24784.441266589318, 0.08, 1.0, 0.168, 192.0, 0.0, 0.0, 0.0, 0.0, 0.0, 0.0, 0.0, 0.0, 0.0, 1.7074742912249215E9, 0.0, 2024-02-09 11:24:51.224
12.0, -17025.32375160739, -9574.883827553253, 15837.46264427455, -2504.9376493618074, 46453.07170785328, 17367.752476662692, 34239.45268862876, 9381.384775803659, 29043.18619289234, 3446.191960119243, 38744.893818485005, 28435.35285417472, 39627.74302098072, 34021.29966274496, 28405.736792771437, 24593.87029336337, 0.08, 1.0, 0.168, 192.0, 0.0, 0.0, 0.0, 0.0, 0.0, 0.0, 0.0, 0.0, 0.0, 1.70747429123193E9, 0.0, 2024-02-09 11:24:51.231
14.0, -16984.42005925418, -9513.058902389874, 15887.776421043447, -2517.9910681237066, 46794.382845685825, 17433.131329194468, 34407.00136506574, 9515.182318113128, 29390.10761858316, 3604.2858486516297, 39075.20789804553, 28545.837527017302, 39925.40120189205, 34191.32938281648, 28556.968695756044, 24719.50944894665, 0.082, 0.994, 0.17400000000000002, 192.0, 1.0, 72.0, 15.5, 8.0, 2.5, 56.0, 0.0, 0.0, 0.0, 1.70747429124102E9, 0.0, 2024-02-09 11:24:51.241
16.0, -16969.489093958033, -9493.054091102373, 15818.418957998629, -2501.4060737378686, 46449.20485606252, 17335.52126115814, 34235.831706027, 9359.323604026271, 29375.15430154256, 3603.57059282906, 39035.86882780419, 28496.998965382456, 39973.882135615604, 34140.34505371393, 28522.390547083683, 24739.491908489694, 0.082, 0.994, 0.17400000000000002, 192.0, 0.0, 0.0, 0.0, 0.0, 0.0, 0.0, 0.0, 0.0, 0.0, 1.7074742912491488E9, 0.0, 2024-02-09 11:24:51.249
18.0, -16948.791378592417, -9434.134892718184, 15897.320615925863, -2499.4838237147123, 46665.79325983444, 17409.751404494215, 34371.88677452645, 9454.184407494595, 29361.94442056947, 3611.9748487442553, 38820.800342655224, 28504.375041052706, 39581.11728204695, 34033.570770450926, 28429.362586660696, 24603.302729523508, 0.082, 0.994, 0.17400000000000002, 192.0, 0.0, 0.0, 0.0, 0.0, 0.0, 0.0, 0.0, 0.0, 0.0, 1.707474291255956E9, 0.0, 2024-02-09 11:24:51.255
20.0, -16968.125637546258, -9421.19323267856, 15858.003897428978, -2480.2389717386927, 46673.638722138254, 17385.790334438127, 34375.59716410603, 9446.406000424147, 29693.376087352764, 3777.087185035609, 39281.805072045936, 28583.679030380135, 40147.46578305552, 34258.250505715674, 28635.982112405552, 24845.93091558587, 0.082, 0.994, 0.17400000000000002, 192.0, 0.0, 0.0, 0.0, 0.0, 0.0, 0.0, 0.0, 0.0, 0.0, 1.7074742912650018E9, 0.0, 2024-02-09 11:24:51.265
22.0, -16962.69416364362, -9388.917313685097, 15859.143836396199, -2463.7657360751314, 46456.96091138851, 17351.882738099426, 34276.08719779101, 9321.07976926324, 29428.642026024107, 4006.058455235774, 38862.28518036428, 28495.03201187039, 39604.05017185809, 34007.08395327139, 28430.904857028112, 24664.345343630954, 0.082, 0.994, 0.17400000000000002, 192.0, 0.0, 0.0, 0.0, 0.0, 0.0, 0.0, 0.0, 0.0, 0.0, 1.7074742912729833E9, 0.0, 2024-02-09 11:24:51.272
24.0, -16937.034361008926, -9424.903622258142, 15914.15147950071, -2463.162238974838, 46805.02227604655, 17418.580343554062, 34438.15969683644, 9401.411938835614, 29735.486773906563, 4368.134363667294, 39183.211527253574, 28605.56138820188, 39892.14180614255, 34179.326496043985, 28585.444818192103, 24796.287691150632, 0.092, 1.008, 0.162, 192.0, 1.0, 112.0, 15.5, 64.0, 2.5, 8.0, 0.0, 0.0, 0.0, 1.7074742912800248E9, 0.0, 2024-02-09 11:24:51.280
26.0, -16930.17237546115, -9588.89837132673, 15836.881498918714, -2441.950433486752, 46459.55371374532, 17327.92166804334, 34241.79962179656, 9197.228753236384, 29682.82606396986, 4600.704264724764, 39158.80342230838, 28560.522623124438, 39949.228161481406, 34148.41403346229, 28566.624649360736, 24816.58307511605, 0.092, 1.008, 0.162, 192.0, 0.0, 0.0, 0.0, 0.0, 0.0, 0.0, 0.0, 0.0, 0.0, 1.707474291288034E9, 0.0, 2024-02-09 11:24:51.288
28.0, -16830.550650423844, -9629.802063679941, 15913.01154053349, -2441.615157319922, 46666.597922634835, 17407.739747493237, 34340.75079450021, 9224.520233216313, 29630.902961600183, 4876.234218625334, 38950.99925410739, 28566.490538894006, 39562.23005798222, 34051.65333171527, 28470.53449994737, 24669.195672177753, 0.092, 1.008, 0.162, 192.0, 0.0, 0.0, 0.0, 0.0, 0.0, 0.0, 0.0, 0.0, 0.0, 1.7074742912970688E9, 0.0, 2024-02-09 11:24:51.297
30.0, -16790.161048193106, -9715.5433554105, 15880.623862817749, -2418.883433208875, 46678.0196640515, 17407.44917481532, 34355.54764932962, 9225.056675083242, 29925.700119221226, 5102.00918936839, 39383.147881406294, 28635.848001938823, 40134.43471603808, 34264.10666276296, 28672.95189773463, 24896.982299921787, 0.092, 1.008, 0.162, 192.0, 0.0, 0.0, 0.0, 0.0, 0.0, 0.0, 0.0, 0.0, 0.0, 1.70747429130503E9, 0.0, 2024-02-09 11:24:51.305
32.0, -16726.413873006568, -9754.45774250719, 15897.454726392596, -2397.358703298414, 46453.80931542031, 17392.048822885612, 34236.59166533848, 9123.244479089319, 29636.423842480643, 5225.860205395246, 38961.52692574584, 28554.42059688814, 39610.04043937212, 34028.02753782601, 28492.30509904684, 24721.386995480898, 0.092, 1.008, 0.162, 192.0, 0.0, 0.0, 0.0, 0.0, 0.0, 0.0, 0.0, 0.0, 0.0, 1.7074742913120494E9, 0.0, 2024-02-09 11:24:51.312
34.0, -16656.67643030601, -9774.373146816868, 15950.785988662958, -2407.3499330699365, 46790.203069472685, 17458.142931239956, 34379.91105078591, 9217.971172090909, 29921.87797091937, 5392.44775682065, 39280.08398772287, 28651.069539912885, 39910.24671915135, 34210.574234792504, 28638.48550778455, 24825.836697320545, 0.096, 1.018, 0.168, 192.0, 1.5, 0.0, 15.5, 104.0, 2.5, 32.0, 0.0, 0.0, 0.0, 1.7074742913213773E9, 0.0, 2024-02-09 11:24:51.321
36.0, -16658.218700673428, -9847.575109907999, 15873.247787147498, -2402.8125289455093, 46450.52360898538, 17360.62227018145, 34222.35360412045, 9044.991021751288, 29841.791670536004, 5458.1171820303425, 39256.838173489356, 28604.868484123766, 39993.28344980281, 34178.94651638824, 28619.28535929744, 24825.63553162045, 0.096, 1.018, 0.168, 192.0, 0.0, 0.0, 0.0, 0.0, 0.0, 0.0, 0.0, 0.0, 0.0, 1.7074742913290584E9, 0.0, 2024-02-09 11:24:51.329
38.0, -16590.515266718303, -9838.634412125875, 15936.525575700472, -2431.266299637115, 46655.01971900699, 17424.50355583472, 34324.99281465922, 9104.491365491314, 29749.65777989123, 5535.163645167786, 39017.49569386193, 28595.592510174814, 39607.73820969322, 34067.50071853408, 28514.522733035414, 24651.090759168954, 0.096, 1.018, 0.168, 192.0, 0.0, 0.0, 0.0, 0.0, 0.0, 0.0, 0.0, 0.0, 0.0, 1.7074742913360927E9, 0.0, 2024-02-09 11:24:51.336
40.0, -16580.76990613579, -9872.519656720122, 15894.571351357861, -2426.8406542349644, 46665.43563192316, 17394.82043919807, 34307.98313712873, 9086.699376904891, 30020.1362395449, 5633.0419341375755, 39434.84746633142, 28659.451444083625, 40183.206222439556, 34276.24366000219, 28697.851741057842, 24851.407092977417, 0.096, 1.018, 0.168, 192.0, 0.0, 0.0, 0.0, 0.0, 0.0, 0.0, 0.0, 0.0, 0.0, 1.7074742913440824E9, 0.0, 2024-02-09 11:24:51.344
42.0, -16534.568850346666, -9866.216464783725, 15905.00961601849, -2407.014656903107, 46436.933748356554, 17373.608633709984, 34193.095170628454, 9000.600457263048, 29720.779326054973, 5662.747402518678, 39006.52098733437, 28572.36904768575, 39660.354216141015, 34044.50077348957, 28489.980517623488, 24650.621372535395, 0.096, 1.018, 0.168, 192.0, 0.0, 0.0, 0.0, 0.0, 0.0, 0.0, 0.0, 0.0, 0.0, 1.7074742913531463E9, 0.0, 2024-02-09 11:24:51.353
44.0, -16484.41153578896, -9850.011450053627, 15955.055171853921, -2413.206090117227, 46778.043720489, 17447.92818402388, 34351.21141090529, 9136.364953084583, 29980.1266169699, 5801.752901286233, 39302.9274705562, 28666.96163022061, 39943.416707923025, 34228.321519890014, 28637.636141495248, 24778.27218511965, 0.098, 1.018, 0.17, 192.0, 1.5, 16.0, 15.5, 104.0, 2.5, 48.0, 0.0, 0.0, 0.0, 1.7074742913612273E9, 0.0, 2024-02-09 11:24:51.361
46.0, -16492.860495193065, -9861.589653681476, 15877.829894760836, -2395.95054339773, 46432.84337912123, 17358.074171313547, 34161.04276907954, 8991.9726839033, 29904.130685821856, 5810.000694990242, 39277.53588885497, 28619.911208142188, 40016.79748496979, 34190.211795593714, 28617.72073718557, 24814.593769859526, 0.098, 1.018, 0.17, 192.0, 0.0, 0.0, 0.0, 0.0, 0.0, 0.0, 0.0, 0.0, 0.0, 1.707474291368131E9, 0.0, 2024-02-09 11:24:51.368
48.0, -16473.526236239224, -9820.03776073906, 15934.893898355234, -2418.0340669195734, 46631.39392511773, 17421.933105222357, 34262.00559878416, 9065.08524001661, 29798.1834171037, 5869.59044570809, 39027.79984805582, 28606.902492869198, 39614.57784349655, 34078.9448116952, 28504.732668963992, 24659.31620112851, 0.098, 1.018, 0.17, 192.0, 0.0, 0.0, 0.0, 0.0, 0.0, 0.0, 0.0, 0.0, 0.0, 1.707474291376112E9, 0.0, 2024-02-09 11:24:51.376
50.0, -16441.943221323876, -9774.88723693934, 15891.106830967288, -2419.106950653428, 46651.778716060966, 17409.371424838475, 34270.94629656628, 9077.646920400492, 30042.443280511296, 5924.396923112503, 39440.61421640089, 28668.86152849931, 40178.64646657067, 34301.948166125796, 28689.022801998, 24865.06400883961, 0.098, 1.018, 0.17, 192.0, 0.0, 0.0, 0.0, 0.0, 0.0, 0.0, 0.0, 0.0, 0.0, 1.7074742913854284E9, 0.0, 2024-02-09 11:24:51.385
52.0, -16452.381485984504, -9690.755270809565, 15892.023252489955, -2418.436398319769, 46425.64611740662, 17374.48035174374, 34161.46745222419, 8968.34689001404, 29739.97947454208, 5881.481573758313, 39015.0593537163, 28579.767475100456, 39649.46891659128, 34059.81171844146, 28485.35370652124, 24646.955686444722, 0.098, 1.018, 0.17, 192.0, 0.0, 0.0, 0.0, 0.0, 0.0, 0.0, 0.0, 0.0, 0.0, 1.7074742913921988E9, 0.0, 2024-02-09 11:24:51.392
54.0, -16472.386297272005, -9589.837144593852, 15941.39825599173, -2433.3450118714586, 46784.21280195866, 17462.613280131016, 34349.80325100461, 9138.890700208032, 29982.98764026018, 5932.018867971763, 39299.99939203255, 28665.039380197453, 39937.00175726435, 34240.86084852944, 28627.33198730135, 24753.059417374065, 0.101, 1.022, 0.169, 192.0, 1.5, 32.0, 16.0, 8.0, 2.5, 32.0, 0.0, 0.0, 0.0, 1.7074742914001954E9, 0.0, 2024-02-09 11:24:51.400
56.0, -16569.638737397043, -9535.008315444984, 15856.193406128099, -2434.19437816076, 46441.47115248098, 17371.261700542178, 34180.91346990031, 9002.835631708578, 29858.935458533226, 5793.3486453710375, 39251.83138273137, 28581.645021634704, 40017.82566521474, 34190.658830482826, 28606.276644024452, 24770.225557115744, 0.101, 1.022, 0.169, 192.0, 0.0, 0.0, 0.0, 0.0, 0.0, 0.0, 0.0, 0.0, 0.0, 1.707474291409202E9, 0.0, 2024-02-09 11:24:51.409
58.0, -16502.248227864293, -9351.90282486711, 15951.478892741072, -2433.143846171361, 46661.1664487322, 17461.205120230334, 34331.40776531789, 9120.629324988047, 29719.326462665376, 5766.839476447043, 38996.88738547413, 28577.37583844374, 39607.22411957075, 34077.380189583324, 28507.861913187735, 24621.340587298942, 0.101, 1.022, 0.169, 192.0, 0.0, 0.0, 0.0, 0.0, 0.0, 0.0, 0.0, 0.0, 0.0, 1.7074742914182053E9, 0.0, 2024-02-09 11:24:51.418
60.0, -16588.503609717325, -9353.04276383433, 15908.72000559807, -2442.2857096535813, 46682.93704783166, 17439.45687287532, 34306.08323885003, 9128.497139036315, 30001.89721606937, 5715.363408966471, 39428.14194299483, 28652.6118102803, 40192.32573417732, 34308.34076504001, 28713.766183110023, 24835.53735441415, 0.101, 1.022, 0.169, 192.0, 0.0, 0.0, 0.0, 0.0, 0.0, 0.0, 0.0, 0.0, 0.0, 1.707474291425217E9, 0.0, 2024-02-09 11:24:51.425
62.0, -16676.033041004306, -9371.751173943421, 15893.0514327349, -2455.048555737562, 46443.21458854849, 17401.995349168224, 34180.377028033385, 9062.246568470784, 29664.877613172248, 5474.389251993805, 38973.842736940715, 28538.327340880318, 39675.28518143716, 34060.92930566422, 28497.669517716113, 24610.34352902693, 0.101, 1.022, 0.169, 192.0, 0.0, 0.0, 0.0, 0.0, 0.0, 0.0, 0.0, 0.0, 0.0, 1.7074742914322183E9, 0.0, 2024-02-09 11:24:51.432
64.0, -16724.893954383606, -9468.288358245893, 15933.798662876925, -2485.7598526191537, 46790.51599389505, 17465.45195167684, 34332.97238742976, 9218.351151746649, 29885.086999545932, 5303.688979588625, 39232.18419935515, 28617.76544067448, 39954.033786539294, 34229.26029315714, 28619.732394186547, 24696.822428324514, 0.0965, 1.022, 0.1655, 192.0, 1.0, 112.0, 15.5, 120.0, 2.5, 8.0, 0.0, 0.0, 0.0, 1.707474291441264E9, 0.0, 2024-02-09 11:24:51.441
66.0, -16853.014153601427, -9594.016920806995, 15849.219661858042, -2488.173841020327, 46452.244693308436, 17365.11497081697, 34136.92523681226, 9117.500080764305, 29767.51682371102, 4949.302071249732, 39184.28441098743, 28546.284561906406, 40040.646796303605, 34198.63840325337, 28598.453533465094, 24715.240265755685, 0.0965, 1.022, 0.1655, 192.0, 0.0, 0.0, 0.0, 0.0, 0.0, 0.0, 0.0, 0.0, 0.0, 1.707474291448508E9, 0.0, 2024-02-09 11:24:51.448
68.0, -16840.117197050717, -9554.588443587834, 15921.169927259676, -2495.9075446018633, 46647.53188461446, 17434.58419258406, 34235.13880194888, 9252.035230640797, 29633.04872906789, 4664.1608672333805, 38915.79525659028, 28531.35359661026, 39626.89365469142, 34072.93219243672, 28484.92902337659, 24544.38353113932, 0.0965, 1.022, 0.1655, 192.0, 0.0, 0.0, 0.0, 0.0, 0.0, 0.0, 0.0, 0.0, 0.0, 1.7074742914562972E9, 0.0, 2024-02-09 11:24:51.456
70.0, -16928.138366715713, -9627.589240978867, 15861.937804453113, -2510.078550586528, 46668.05078602443, 17392.83113394155, 34235.65289207135, 9298.146879452095, 29877.263888986578, 4428.886405096818, 39328.36375574634, 28597.224187520053, 40199.90297554767, 34292.4933782212, 28682.9207757617, 24760.524900022137, 0.0965, 1.022, 0.1655, 192.0, 0.0, 0.0, 0.0, 0.0, 0.0, 0.0, 0.0, 0.0, 0.0, 1.7074742914652889E9, 0.0, 2024-02-09 11:24:51.465
72.0, -16973.378297493255, -9646.38705806578, 15863.100095164787, -2503.7306551612205, 46435.92791985606, 17361.561043448575, 34140.07683278046, 9219.848718625155, 29513.84687588774, 4156.284529719893, 38874.712750281426, 28491.96982288001, 39676.782748315665, 34045.32778803442, 28470.91447960311, 24549.85970853087, 0.0965, 1.022, 0.1655, 192.0, 0.0, 0.0, 0.0, 0.0, 0.0, 0.0, 0.0, 0.0, 0.0, 1.7074742914733002E9, 0.0, 2024-02-09 11:24:51.473
74.0, -16991.63967271324, -9680.138192193293, 15912.117470755276, -2525.590661238511, 46791.43241541772, 17440.417997886896, 34322.1988466023, 9370.320662298282, 29729.965893026103, 4033.5734526602573, 39143.090145956296, 28566.445835405095, 39943.99785327886, 34215.78219125059, 28608.71298417008, 24662.043113952055, 0.09325, 1.02, 0.16775, 192.0, 1.0, 104.0, 15.5, 104.0, 2.5, 40.0, 0.0, 0.0, 0.0, 1.7074742914803157E9, 0.0, 2024-02-09 11:24:51.480
76.0, -17011.443318300644, -9723.388817714313, 15834.84749017328, -2512.336076776514, 46450.43420200756, 17352.53093868863, 34143.51900142658, 9226.330724517195, 29604.70671709856, 3903.10632027463, 39118.25735786645, 28504.129171863697, 40033.449534589, 34184.75796994662, 28590.22809150554, 24698.16353299183, 0.09325, 1.02, 0.16775, 192.0, 0.0, 0.0, 0.0, 0.0, 0.0, 0.0, 0.0, 0.0, 0.0, 1.7074742914883082E9, 0.0, 2024-02-09 11:24:51.488
78.0, -16958.223814752557, -9680.764041038043, 15915.872563823768, -2516.426446011835, 46639.23938742154, 17421.284904633154, 34250.002712011665, 9312.161423225572, 29468.919869532572, 3860.2803778982616, 38868.208392644934, 28498.563587494325, 39621.551587766604, 34066.204317355674, 28475.384828494174, 24550.843185286903, 0.09325, 1.02, 0.16775, 192.0, 0.0, 0.0, 0.0, 0.0, 0.0, 0.0, 0.0, 0.0, 0.0, 1.7074742914973087E9, 0.0, 2024-02-09 11:24:51.497
80.0, -16998.389899538746, -9705.596829127888, 15875.393554615208, -2512.0902075875056, 46662.57460863288, 17401.548314279116, 34245.733528820696, 9356.41787724708, 29698.941671722136, 3787.570153185148, 39297.25012746455, 28560.74614056899, 40198.159539480155, 34286.95014559629, 28661.887784229253, 24773.645374017404, 0.09325, 1.02, 0.16775, 192.0, 0.0, 0.0, 0.0, 0.0, 0.0, 0.0, 0.0, 0.0, 0.0, 1.7074742915043676E9, 0.0, 2024-02-09 11:24:51.504
82.0, -17010.75041422253, -9691.269360932036, 15879.394516872708, -2492.7335968892094, 46436.21849253398, 17379.196569823813, 34186.83668218097, 9308.383978412627, 29308.724917021387, 3689.468346770805, 38847.15304936803, 28462.53257543237, 39676.156899470916, 34059.94582890819, 28462.890203343657, 24578.224072244655, 0.09325, 1.02, 0.16775, 192.0, 0.0, 0.0, 0.0, 0.0, 0.0, 0.0, 0.0, 0.0, 0.0, 1.7074742915123537E9, 0.0, 2024-02-09 11:24:51.512
84.0, -16980.486152230045, -9628.103331101338, 15927.651933151716, -2504.0882830725054, 46800.84249983341, 17462.054486519635, 34398.820626595094, 9470.30001524687, 29547.97798967099, 3719.5761465521036, 39138.0386517094, 28572.36904768575, 39947.84235332517, 34233.5294763481, 28617.6536819522, 24701.113963259933, 0.08962500000000001, 1.016, 0.173875, 192.0, 1.0, 88.0, 15.5, 80.0, 2.5, 80.0, 0.0, 0.0, 0.0, 1.7074742915203493E9, 0.0, 2024-02-09 11:24:51.520
86.0, -17054.26926067701, -9666.682442031199, 15830.89123140469, -2500.3778934929246, 46455.97743463248, 17363.349183004997, 34213.88229297189, 9321.549155896802, 29428.262046368367, 3610.7455027992137, 39116.670384010125, 28517.54021853688, 40040.42327885905, 34193.69866772874, 28594.02788806294, 24734.306303776062, 0.08962500000000001, 1.016, 0.173875, 192.0, 0.0, 0.0, 0.0, 0.0, 0.0, 0.0, 0.0, 0.0, 0.0, 1.7074742915283544E9, 0.0, 2024-02-09 11:24:51.528
88.0, -17056.169158955712, -9608.14322330275, 15888.357566399285, -2521.5449954921005, 46630.47750359506, 17421.575477311075, 34301.45642774778, 9385.89982818363, 29261.383922265046, 3583.0963949079987, 38836.37950854057, 28489.578186223294, 39604.58661372502, 34062.091596375896, 28456.318790473797, 24562.48844414812, 0.08962500000000001, 1.016, 0.173875, 192.0, 0.0, 0.0, 0.0, 0.0, 0.0, 0.0, 0.0, 0.0, 0.0, 1.7074742915363452E9, 0.0, 2024-02-09 11:24:51.536
90.0, -17082.4324586907, -9576.13552524275, 15845.531624022917, -2513.4313122548238, 46658.484239397556, 17401.43655555684, 34311.22414007475, 9392.024206164386, 29520.84297190225, 3646.0612590385986, 39261.39792935824, 28555.940515511098, 40182.647428828175, 34291.21932878725, 28648.364978833793, 24790.923272481356, 0.08962500000000001, 1.016, 0.173875, 192.0, 0.0, 0.0, 0.0, 0.0, 0.0, 0.0, 0.0, 0.0, 0.0, 1.7074742915443637E9, 0.0, 2024-02-09 11:24:51.544
92.0, -17103.756022901063, -9549.916928996674, 15834.42280702863, -2513.967754121751, 46411.765684099875, 17357.96241259127, 34203.04169691106, 9291.910742749065, 29195.379220888524, 3652.990299819744, 38819.32512752117, 28458.688075386057, 39663.6622743204, 34041.103308332364, 28437.76684257589, 24592.886816607337, 0.08962500000000001, 1.016, 0.173875, 192.0, 0.0, 0.0, 0.0, 0.0, 0.0, 0.0, 0.0, 0.0, 0.0, 1.707474291553383E9, 0.0, 2024-02-09 11:24:51.553
94.0, -17075.838694076385, -9439.365200920725, 15894.079612979844, -2505.474091228735, 46769.12537445133, 17440.619163586995, 34397.70303937233, 9444.997840523463, 29460.359151406188, 3792.6439991765023, 39092.08346510929, 28549.100881707775, 39914.828826764686, 34211.37889759289, 28576.03473377642, 24710.345233719974, 0.0888125, 1.008, 0.1799375, 192.0, 1.0, 96.0, 15.5, 32.0, 2.5, 104.0, 0.0, 0.0, 0.0, 1.7074742915603948E9, 0.0, 2024-02-09 11:24:51.560
96.0, -17077.269205721524, -9426.468244370013, 15818.37425450972, -2486.7880328640977, 46425.37789647316, 17347.457092697274, 34228.79090652358, 9301.03025448683, 29419.991900919904, 3891.170488735496, 39104.06400013733, 28524.55866629585, 40026.20756938548, 34194.503330529136, 28563.137777225707, 24753.752321452183, 0.0888125, 1.008, 0.1799375, 192.0, 0.0, 0.0, 0.0, 0.0, 0.0, 0.0, 0.0, 0.0, 0.0, 1.7074742915684593E9, 0.0, 2024-02-09 11:24:51.568
98.0, -17065.154560226747, -9368.018432619385, 15896.918284525667, -2488.687931142799, 46604.50477653799, 17420.34613136603, 34343.0083206902, 9397.34392134475, 29333.513001622323, 4000.492870866403, 38846.460145289915, 28512.22050335652, 39600.60800321198, 34067.16544236725, 28443.332426945264, 24597.983014343146, 0.0888125, 1.008, 0.1799375, 192.0, 0.0, 0.0, 0.0, 0.0, 0.0, 0.0, 0.0, 0.0, 0.0, 1.707474291576404E9, 0.0, 2024-02-09 11:24:51.576
100.0, -17086.031089548003, -9366.386755274149, 15855.075818905332, -2488.1291375314163, 46634.67963155266, 17394.73103222025, 34353.64775105092, 9406.061101682319, 29636.267380269455, 4109.904659975131, 39286.00720000353, 28591.010402561475, 40181.0828067163, 34298.237776546215, 28644.721644487578, 24828.25068572172, 0.0888125, 1.008, 0.1799375, 192.0, 0.0, 0.0, 0.0, 0.0, 0.0, 0.0, 0.0, 0.0, 0.0, 1.7074742915844631E9, 0.0, 2024-02-09 11:24:51.584
102.0, -17084.1311912693, -9330.84748159021, 15843.519967021939, -2485.5139834301453, 46387.312875665775, 17351.748627632693, 34240.59262759598, 9281.07014668824, 29337.13398422408, 4084.0883951292512, 38855.199677371944, 28494.96495663702, 39650.765317769685, 34055.00609338356, 28432.1118512287, 24625.229790834164, 0.0888125, 1.008, 0.1799375, 192.0, 0.0, 0.0, 0.0, 0.0, 0.0, 0.0, 0.0, 0.0, 0.0, 1.70747429159246E9, 0.0, 2024-02-09 11:24:51.592
104.0, -17064.908691037737, -9273.761126251356, 15902.036834005934, -2492.554782933567, 46749.858170730855, 17438.115768208, 34448.21798184133, 9455.704326117555, 29619.324757972332, 4171.908399094153, 39132.7859917624, 28586.830626348335, 39887.067960151195, 34201.141798632365, 28560.254402190974, 24731.378225252418, 0.09140625, 1.002, 0.18296875, 192.0, 1.0, 120.0, 15.5, 16.0, 2.5, 104.0, 0.0, 0.0, 0.0, 1.7074742916004703E9, 0.0, 2024-02-09 11:24:51.600
106.0, -17091.820191361927, -9272.55413205077, 15825.884440646701, -2466.2914831985813, 46415.409018446095, 17360.510511459175, 34266.565354653045, 9318.5987256287, 29588.255833179457, 4139.543073122868, 39137.23398890901, 28549.614971830248, 39993.79753992528, 34182.411036778816, 28558.30980042336, 24796.511208595184, 0.09140625, 1.002, 0.18296875, 192.0, 0.0, 0.0, 0.0, 0.0, 0.0, 0.0, 0.0, 0.0, 0.0, 1.7074742916094484E9, 0.0, 2024-02-09 11:24:51.609
108.0, -17065.80276081595, -9217.099454057152, 15895.890104280723, -2475.232180980704, 46595.60878224478, 17414.422919085377, 34378.927574029876, 9344.929080597054, 29498.357116980213, 4245.579748818845, 38883.76520678583, 28536.89682923518, 39551.098889243476, 34046.713596190646, 28440.71727284399, 24638.618485762894, 0.09140625, 1.002, 0.18296875, 192.0, 0.0, 0.0, 0.0, 0.0, 0.0, 0.0, 0.0, 0.0, 0.0, 1.7074742916154816E9, 0.0, 2024-02-09 11:24:51.615
110.0, -17055.99034500007, -9211.891497599066, 15862.206025386577, -2458.267206939126, 46649.02945149296, 17414.19940164082, 34403.2686237417, 9396.963941689008, 29810.43217306521, 4443.772666904052, 39323.513427199534, 28611.730469671547, 40126.499846756444, 34287.061904318565, 28645.168679376686, 24888.287471328673, 0.09140625, 1.002, 0.18296875, 192.0, 0.0, 0.0, 0.0, 0.0, 0.0, 0.0, 0.0, 0.0, 0.0, 1.7074742916245205E9, 0.0, 2024-02-09 11:24:51.624
112.0, -17014.63961775775, -9213.523174944303, 15855.56755728335, -2445.213788177227, 46411.05042827731, 17377.162561078378, 34303.40102951539, 9273.112925662152, 29531.348291796243, 4610.1590526293585, 38899.16555871553, 28520.490648804982, 39610.88980566142, 34053.24030557159, 28443.600647878728, 24705.13727726189, 0.09140625, 1.002, 0.18296875, 192.0, 0.0, 0.0, 0.0, 0.0, 0.0, 0.0, 0.0, 0.0, 0.0, 1.7074742916325536E9, 0.0, 2024-02-09 11:24:51.632
114.0, -16930.462948139066, -9293.073033460741, 15918.308903969397, -2451.807552791542, 46775.31680766545, 17444.88834677796, 34481.23150840181, 9366.744383185433, 29796.84231243638, 4918.993105768336, 39186.497233688504, 28617.027833107455, 39852.19923880092, 34209.30018535855, 28579.722771611545, 24809.184647701342, 0.091703125, 1.006, 0.183484375, 192.0, 1.0, 112.0, 15.5, 72.0, 2.5, 96.0, 0.0, 0.0, 0.0, 1.707474291640538E9, 0.0, 2024-02-09 11:24:51.640
116.0, -16900.936293713607, -9446.830683568798, 15848.079722890821, -2417.296459352548, 46442.47698098147, 17359.169406791854, 34284.87143336194, 9199.665093382013, 29755.55864042743, 5116.895451175625, 39211.15120782271, 28581.533262912428, 39983.58279270921, 34195.464455540714, 28586.51770192596, 24853.642267422947, 0.091703125, 1.006, 0.183484375, 192.0, 0.0, 0.0, 0.0, 0.0, 0.0, 0.0, 0.0, 0.0, 0.0, 1.7074742916477723E9, 0.0, 2024-02-09 11:24:51.647
118.0, -16790.116344704194, -9489.008425355963, 15930.781177375458, -2418.3693430864028, 46609.35510508479, 17435.657076317915, 34364.7118645563, 9257.26553884334, 29660.541374747918, 5306.952334279101, 38952.69798668599, 28578.493425666504, 39553.06584275554, 34087.32671586594, 28472.479101714984, 24702.164495249333, 0.091703125, 1.006, 0.183484375, 192.0, 0.0, 0.0, 0.0, 0.0, 0.0, 0.0, 0.0, 0.0, 0.0, 1.7074742916565156E9, 0.0, 2024-02-09 11:24:51.656
120.0, -16742.842405181218, -9550.609833074788, 15892.38088040124, -2417.497625052646, 46639.3064426549, 17402.822363713072, 34347.23280039225, 9212.226773765895, 29965.530927840584, 5500.697255217702, 39405.253756672595, 28651.762443991, 40148.33750108928, 34297.83544514602, 28668.8168250104, 24922.440936856383, 0.091703125, 1.006, 0.183484375, 192.0, 0.0, 0.0, 0.0, 0.0, 0.0, 0.0, 0.0, 0.0, 0.0, 1.7074742916645348E9, 0.0, 2024-02-09 11:24:51.664
122.0, -16716.065015323762, -9558.187074445137, 15887.061165220877, -2407.9310784257746, 46380.78616628482, 17350.161653776366, 34212.809409238034, 9057.262129457251, 29679.249784857013, 5599.693131410258, 38984.66098125708, 28558.51096612346, 39647.70312877931, 34056.36954979534, 28459.738607375457, 24700.80103883756, 0.091703125, 1.006, 0.183484375, 192.0, 0.0, 0.0, 0.0, 0.0, 0.0, 0.0, 0.0, 0.0, 0.0, 1.7074742916718628E9, 0.0, 2024-02-09 11:24:51.671
124.0, -16612.37527279559, -9496.876239404231, 15955.815131165402, -2418.4140465753135, 46746.52776080701, 17427.006951213712, 34388.203547978825, 9177.022776248787, 29914.05486036001, 5777.702424252323, 39256.413490344705, 28649.19199337864, 39895.740436999855, 34218.03971744057, 28592.999707818, 24783.23427238873, 0.0928515625, 1.014, 0.1837421875, 192.0, 1.0, 120.0, 15.5, 120.0, 2.5, 96.0, 0.0, 0.0, 0.0, 1.7074742916808283E9, 0.0, 2024-02-09 11:24:51.680
126.0, -16630.05550265974, -9481.721756663532, 15882.590816329815, -2404.3771510573806, 46416.34779171322, 17337.398807692385, 34213.05527842704, 9021.544041817671, 29880.57194716596, 5830.229023722294, 39289.85170004985, 28614.770306917468, 40039.037470702824, 34197.94549917525, 28602.588606189325, 24824.316778697586, 0.0928515625, 1.014, 0.1837421875, 192.0, 0.0, 0.0, 0.0, 0.0, 0.0, 0.0, 0.0, 0.0, 0.0, 1.7074742916886094E9, 0.0, 2024-02-09 11:24:51.688
128.0, -16581.306348002716, -9386.928008428575, 15954.384619520262, -2409.0263139040844, 46594.55825025538, 17416.68044527536, 34328.32322458306, 9092.13085080753, 29742.08053852088, 5916.17148115295, 39013.1594554376, 28598.006498575985, 39596.20470955428, 34065.6902272332, 28483.11853207571, 24655.02466619309, 0.0928515625, 1.014, 0.1837421875, 192.0, 0.0, 0.0, 0.0, 0.0, 0.0, 0.0, 0.0, 0.0, 0.0, 1.707474291696588E9, 0.0, 2024-02-09 11:24:51.696
130.0, -16601.489973245858, -9367.370232030182, 15922.846308093824, -2400.823223688987, 46651.354032916315, 17417.55216330912, 34345.623474791464, 9137.393133329528, 30040.990417121702, 5999.6105432046115, 39454.85227761892, 28674.538871590958, 40185.59785909628, 34294.72855266673, 28692.576729366392, 24881.87252067, 0.0928515625, 1.014, 0.1837421875, 192.0, 0.0, 0.0, 0.0, 0.0, 0.0, 0.0, 0.0, 0.0, 0.0, 1.7074742917035925E9, 0.0, 2024-02-09 11:24:51.703
132.0, -16614.118708863105, -9334.535519425335, 15904.67433985166, -2397.2916480650483, 46395.38185541414, 17365.09261907251, 34207.981432435685, 8992.084442625575, 29712.330366650865, 5969.614502145589, 39023.95534800951, 28573.71015235307, 39680.22491696178, 34072.015770914055, 28486.806569910834, 24685.35598341894, 0.0928515625, 1.014, 0.1837421875, 192.0, 0.0, 0.0, 0.0, 0.0, 0.0, 0.0, 0.0, 0.0, 0.0, 1.7074742917128308E9, 0.0, 2024-02-09 11:24:51.712
134.0, -16600.19357206745, -9292.693053805, 15951.613003207804, -2419.397523331347, 46753.210932399146, 17447.88348053497, 34370.2103936923, 9151.18415965845, 29945.906096208826, 6055.62401480961, 39270.606848073825, 28654.154080647717, 39905.441094093454, 34209.031964425085, 28592.5973764178, 24761.79894945609, 0.09242578125, 1.016, 0.18187109375, 192.0, 1.0, 112.0, 15.5, 104.0, 2.5, 80.0, 0.0, 0.0, 0.0, 1.7074742917205913E9, 0.0, 2024-02-09 11:24:51.720
136.0, -16609.938932649962, -9274.901065218577, 15890.078650722344, -2388.6638747053, 46451.64119620815, 17382.57168323656, 34238.3798048949, 9041.750018805269, 29901.49317997613, 6033.115808143117, 39301.34049669987, 28618.48069649705, 40053.588456343234, 34208.83079872499, 28603.393268989716, 24821.187534473844, 0.09242578125, 1.016, 0.18187109375, 192.0, 0.0, 0.0, 0.0, 0.0, 0.0, 0.0, 0.0, 0.0, 0.0, 1.7074742917276337E9, 0.0, 2024-02-09 11:24:51.727
138.0, -16592.28105453027, -9204.783642862278, 15958.765561433502, -2406.366456313903, 46616.530015054945, 17448.464625890807, 34325.775125715154, 9102.65852244598, 29775.13876857028, 6103.479099688423, 39030.70557483502, 28617.27370229646, 39610.21925332776, 34105.34222189691, 28485.823093154802, 24652.87889872538, 0.09242578125, 1.016, 0.18187109375, 192.0, 0.0, 0.0, 0.0, 0.0, 0.0, 0.0, 0.0, 0.0, 0.0, 1.7074742917357192E9, 0.0, 2024-02-09 11:24:51.735
140.0, -16632.424787572003, -9208.851660353144, 15924.299171483419, -2408.6016307594336, 46671.537658159454, 17434.58419258406, 34349.691492282334, 9124.317362823173, 30053.574449250038, 6130.055323845783, 39458.1156323094, 28672.34840063434, 40187.92244051963, 34320.2989483236, 28684.843025784856, 24864.21464255031, 0.09242578125, 1.016, 0.18187109375, 192.0, 0.0, 0.0, 0.0, 0.0, 0.0, 0.0, 0.0, 0.0, 0.0, 1.7074742917448397E9, 0.0, 2024-02-09 11:24:51.744
142.0, -16647.758084268342, -9178.788564060756, 15912.005712033, -2400.7785202000764, 46408.904660809596, 17389.880703673447, 34229.304996646046, 9018.146576660463, 29718.41004114271, 6079.763898821342, 39025.69878407702, 28567.004629016476, 39681.43191116237, 34086.58910829891, 28483.610270453726, 24670.425018122794, 0.09242578125, 1.016, 0.18187109375, 192.0, 0.0, 0.0, 0.0, 0.0, 0.0, 0.0, 0.0, 0.0, 0.0, 1.7074742917516956E9, 0.0, 2024-02-09 11:24:51.751
144.0, -16643.91358422203, -9095.975350853843, 15972.802456951435, -2408.2216511036936, 46766.08553720541, 17463.73086735378, 34407.53780693267, 9160.48248535186, 29947.18014564278, 6129.161254067571, 39279.79341504496, 28659.29498187244, 39895.42751257748, 34230.06495595753, 28603.817952134366, 24754.869908674948, 0.09242578125, 1.016, 0.18187109375, 192.0, 0.0, 0.0, 0.0, 0.0, 0.0, 0.0, 0.0, 0.0, 0.0, 1.7074742917597296E9, 0.0, 2024-02-09 11:24:51.759
146.0, -16745.36815230467, -9182.856581551621, 15878.835723261325, -2414.3907325733585, 46432.79867563232, 17358.074171313547, 34221.124258175405, 9017.543079560171, 29886.29399374652, 6077.416965653535, 39295.46198790813, 28611.14932431571, 40048.17933418505, 34229.304996646046, 28599.57112068786, 24800.24394991922, 0.082, 1.022, 0.17200000000000001, 192.0, 1.0, 72.0, 15.5, 120.0, 2.5, 48.0, 0.0, 0.0, 0.0, 1.7074742917687783E9, 0.0, 2024-02-09 11:24:51.768
148.0, -16782.5614550783, -9213.858451111133, 15933.262221009998, -2446.2196166777157, 46582.53301173842, 17412.25479987321, 34298.08131433503, 9071.835466842113, 29705.848360758828, 5959.690327607433, 38970.221754338956, 28553.437120132105, 39586.7946251386, 34066.919573178246, 28449.814432837302, 24603.302729523508, 0.082, 1.022, 0.17200000000000001, 192.0, 0.0, 0.0, 0.0, 0.0, 0.0, 0.0, 0.0, 0.0, 0.0, 1.7074742917757485E9, 0.0, 2024-02-09 11:24:51.775
150.0, -16835.445682459555, -9282.724175777934, 15896.158325214188, -2451.9193115138187, 46645.52022761348, 17411.87482021747, 34316.342689555015, 9121.299877321706, 29961.082930693978, 5855.754715890255, 39377.73875924811, 28610.411716748684, 40177.70769330355, 34291.35343925398, 28637.591438006337, 24816.359557671494, 0.082, 1.022, 0.17200000000000001, 192.0, 0.0, 0.0, 0.0, 0.0, 0.0, 0.0, 0.0, 0.0, 0.0, 1.7074742917837489E9, 0.0, 2024-02-09 11:24:51.783
152.0, -16886.787639473398, -9451.457494671047, 15868.95625221208, -2466.9396837877853, 46372.73953828091, 17357.180101535334, 34159.411091734306, 9014.324428358606, 29613.490952669497, 5555.235511688651, 38919.14801825858, 28489.086447845275, 39678.615591361, 34048.367625280334, 28428.043833737833, 24608.130706325854, 0.082, 1.022, 0.17200000000000001, 192.0, 0.0, 0.0, 0.0, 0.0, 0.0, 0.0, 0.0, 0.0, 0.0, 1.7074742917929516E9, 0.0, 2024-02-09 11:24:51.792
154.0, -16876.77405795742, -9510.756672710977, 15936.257354767009, -2482.5635531620446, 46741.38685958229, 17442.20613744332, 34353.71480628429, 9216.920640101509, 29798.80926594845, 5314.708389605092, 39133.03186095141, 28546.93276249561, 39890.353666586125, 34189.116560115406, 28545.032864216908, 24676.661154825826, 0.082, 1.022, 0.17200000000000001, 192.0, 0.0, 0.0, 0.0, 0.0, 0.0, 0.0, 0.0, 0.0, 0.0, 1.7074742918007572E9, 0.0, 2024-02-09 11:24:51.800
156.0, -16958.55909091939, -9566.591330360334, 15855.94753693909, -2472.214695479238, 46422.673335394065, 17349.11112178697, 34173.157414574314, 9121.56809825517, 29735.375015184287, 5017.229022649411, 39160.68096884262, 28512.44402080107, 40045.43006961705, 34179.28179255507, 28566.17761447163, 24727.421966483827, 0.082, 1.022, 0.166, 192.0, 1.0, 72.0, 15.5, 120.0, 2.5, 24.0, 0.0, 0.0, 0.0, 1.70747429180778E9, 0.0, 2024-02-09 11:24:51.807
158.0, -16931.267610939456, -9532.862547977275, 15928.68011339666, -2478.3837769489023, 46594.78176769993, 17421.039035444144, 34286.592517685, 9256.483227787403, 29565.367646857223, 4687.384329722444, 38856.87605820609, 28481.77742740839, 39574.25529649917, 34049.842840414385, 28444.271200212384, 24557.124025478846, 0.082, 1.022, 0.166, 192.0, 0.0, 0.0, 0.0, 0.0, 0.0, 0.0, 0.0, 0.0, 0.0, 1.7074742918158016E9, 0.0, 2024-02-09 11:24:51.815
160.0, -16943.628125623243, -9493.367015524747, 15891.24094143402, -2475.947436803274, 46668.251951724524, 17410.019625427678, 34335.140506641925, 9300.22559168644, 29859.42719691124, 4514.627696827376, 39303.73213335659, 28565.484710393517, 40169.214030410534, 34286.570165940546, 28654.779929492466, 24790.498589336705, 0.082, 1.022, 0.166, 192.0, 0.0, 0.0, 0.0, 0.0, 0.0, 0.0, 0.0, 0.0, 0.0, 1.707474291824852E9, 0.0, 2024-02-09 11:24:51.824
162.0, -16995.819448926384, -9523.541870539411, 15870.118542923754, -2477.3108932150476, 46402.04267526182, 17366.634889439927, 34203.60049052245, 9206.616485907613, 29526.520314993897, 4326.247194558048, 38870.13064266809, 28463.426645210584, 39670.12192846798, 34050.491041003595, 28450.619095637692, 24584.3037467365, 0.082, 1.022, 0.166, 192.0, 0.0, 0.0, 0.0, 0.0, 0.0, 0.0, 0.0, 0.0, 0.0, 1.7074742918318448E9, 0.0, 2024-02-09 11:24:51.831
164.0, -16957.665021141176, -9474.770364137932, 15929.261258752496, -2488.4420619537905, 46769.415947129244, 17456.265384705708, 34382.481501398266, 9370.410069276104, 29741.78996584296, 4312.5679269514, 39102.11939836972, 28538.34969262477, 39881.32356182618, 34203.220510866704, 28569.37391392874, 24668.659230310826, 0.082, 1.022, 0.166, 192.0, 0.0, 0.0, 0.0, 0.0, 0.0, 0.0, 0.0, 0.0, 0.0, 1.7074742918398094E9, 0.0, 2024-02-09 11:24:51.839
166.0, -16983.83891389834, -9466.231997756006, 15845.062237389355, -2477.623817637422, 46444.823914149274, 17368.221863296254, 34201.7229439882, 9246.514349760337, 29699.29929963342, 4272.044214253929, 39146.4876111135, 28518.59075052628, 40043.507819593884, 34206.930900446285, 28573.55369014188, 24734.0380828426, 0.082, 1.016, 0.17, 192.0, 1.0, 72.0, 15.5, 96.0, 2.5, 40.0, 0.0, 0.0, 0.0, 1.7074742918478665E9, 0.0, 2024-02-09 11:24:51.847
168.0, -16980.396745252223, -9421.237936167472, 15911.782194588448, -2491.0348643106063, 46600.50381428049, 17422.000160455726, 34294.48268347773, 9316.162385483072, 29527.190867327557, 4198.68578895161, 38843.2191423439, 28490.785180423878, 39585.051189071084, 34063.52210802104, 28425.71925231448, 24550.440853886706, 0.082, 1.016, 0.17, 192.0, 0.0, 0.0, 0.0, 0.0, 0.0, 0.0, 0.0, 0.0, 0.0, 1.7074742918570113E9, 0.0, 2024-02-09 11:24:51.857
170.0, -17010.862172944806, -9424.545994346858, 15875.147685426198, -2492.5100794446566, 46672.02939653747, 17404.431689313853, 34323.4505442918, 9351.656955678101, 29810.342766087386, 4220.232870606526, 39285.2695924365, 28557.594544600794, 40180.92634450512, 34280.53519493761, 28637.636141495248, 24780.686173520826, 0.082, 1.016, 0.17, 192.0, 0.0, 0.0, 0.0, 0.0, 0.0, 0.0, 0.0, 0.0, 0.0, 1.7074742918639293E9, 0.0, 2024-02-09 11:24:51.863
172.0, -16995.4618210151, -9389.118479385195, 15854.56172878286, -2488.754986376165, 46403.875518307155, 17352.374476477442, 34200.20302536524, 9241.820483424723, 29486.220119740978, 4228.279498610437, 38851.53399128127, 28460.610325409216, 39682.929478040875, 34042.48911648859, 28438.415043165096, 24588.505874694096, 0.082, 1.016, 0.17, 192.0, 0.0, 0.0, 0.0, 0.0, 0.0, 0.0, 0.0, 0.0, 0.0, 1.7074742918718543E9, 0.0, 2024-02-09 11:24:51.871
174.0, -16990.03034711246, -9324.901917565097, 15898.304092681898, -2509.8997366308854, 46761.14580168078, 17421.284904633154, 34384.06847525459, 9385.877476439176, 29728.736547081062, 4385.322855153425, 39083.187470816076, 28543.535297338403, 39871.77936694377, 34166.943629615744, 28545.055215961365, 24670.15679718933, 0.082, 1.016, 0.17, 192.0, 0.0, 0.0, 0.0, 0.0, 0.0, 0.0, 0.0, 0.0, 0.0, 1.7074742918811412E9, 0.0, 2024-02-09 11:24:51.881
176.0, -17026.910725463717, -9338.603536916202, 15821.414091755641, -2488.911448587352, 46438.900701868624, 17337.398807692385, 34237.709252561246, 9281.7406990219, 29703.032040957456, 4446.946614616706, 39127.60038704877, 28507.75015446546, 40027.168694397056, 34162.830908635966, 28549.07852996332, 24733.300475275573, 0.074, 1.006, 0.18, 192.0, 1.0, 40.0, 15.5, 56.0, 2.5, 80.0, 0.0, 0.0, 0.0, 1.7074742918879263E9, 0.0, 2024-02-09 11:24:51.887
178.0, -16955.921585073662, -9238.7806461788, 15896.873581036758, -2482.8317740955085, 46580.61076171527, 17401.63772125694, 34311.671174963856, 9356.619042947179, 29557.43277757559, 4551.195150756258, 38840.4698777759, 28493.445038014062, 39563.817031838546, 34025.56884593592, 28420.555999345306, 24573.39609544231, 0.074, 1.006, 0.18, 192.0, 0.0, 0.0, 0.0, 0.0, 0.0, 0.0, 0.0, 0.0, 0.0, 1.7074742918959367E9, 0.0, 2024-02-09 11:24:51.895
180.0, -16972.68539341514, -9241.574614235713, 15878.388688372219, -2471.67825361231, 46656.62904460777, 17394.574570009063, 34375.775978061676, 9405.077624926285, 29881.75658962209, 4675.247332483213, 39286.63304884828, 28579.27573672244, 40146.3258440883, 34257.334084193004, 28626.840248923334, 24813.185609958844, 0.074, 1.006, 0.18, 192.0, 0.0, 0.0, 0.0, 0.0, 0.0, 0.0, 0.0, 0.0, 0.0, 1.7074742919039679E9, 0.0, 2024-02-09 11:24:51.903
182.0, -16967.052753812404, -9207.868183597111, 15879.305109894885, -2454.9591487597404, 46385.27886692034, 17355.05668581208, 34241.889028774385, 9283.26061764486, 29569.659181792642, 4678.242466240224, 38885.620401575616, 28495.25552931494, 39664.131660953964, 34043.3831862668, 28441.34312168874, 24631.98001765967, 0.074, 1.006, 0.18, 192.0, 0.0, 0.0, 0.0, 0.0, 0.0, 0.0, 0.0, 0.0, 0.0, 1.7074742919130096E9, 0.0, 2024-02-09 11:24:51.913
184.0, -16939.805977321386, -9153.911072481998, 15932.546965187428, -2470.0912797559836, 46749.58994979739, 17443.39077989945, 34435.99157762427, 9449.267023714427, 29809.51575154254, 4788.302455938156, 39118.10089565526, 28584.059010035875, 39852.62392194557, 34183.595679234946, 28553.146547454187, 24723.264542015142, 0.074, 1.006, 0.18, 192.0, 0.0, 0.0, 0.0, 0.0, 0.0, 0.0, 0.0, 0.0, 0.0, 1.707474291919972E9, 0.0, 2024-02-09 11:24:51.919
186.0, -16960.235471753535, -9182.990692018353, 15853.310031093364, -2452.8580847809417, 46433.782152388354, 17355.81664512356, 34269.40402619887, 9289.921437492543, 29794.56243450194, 4793.689226351885, 39171.72273060355, 28560.164995213152, 40016.23869135841, 34183.4168652793, 28569.686838351114, 24787.726973024248, 0.078, 1.0, 0.178, 192.0, 1.0, 56.0, 15.5, 32.0, 2.5, 72.0, 0.0, 0.0, 0.0, 1.7074742919282503E9, 0.0, 2024-02-09 11:24:51.928
188.0, -16913.229753164025, -9137.23667111834, 15913.81620333388, -2454.556817359545, 46587.4950990075, 17411.181916139354, 34350.42909984936, 9330.691019379023, 29645.900982129693, 4797.153746742457, 38889.1296254551, 28552.610105587257, 39544.19220020678, 34045.81952641243, 28436.358682675207, 24613.45042150622, 0.078, 1.0, 0.178, 192.0, 0.0, 0.0, 0.0, 0.0, 0.0, 0.0, 0.0, 0.0, 0.0, 1.7074742919369543E9, 0.0, 2024-02-09 11:24:51.936
190.0, -16922.282209668425, -9147.272604378773, 15882.993147730012, -2439.424686363302, 46669.593056391845, 17408.812631227094, 34383.77790257667, 9345.13024629715, 29953.952724212733, 4857.011718393769, 39345.30637804346, 28631.221190836575, 40131.64074798116, 34277.69652339179, 28647.068577655387, 24856.413883735408, 0.078, 1.0, 0.178, 192.0, 0.0, 0.0, 0.0, 0.0, 0.0, 0.0, 0.0, 0.0, 0.0, 1.70747429194397E9, 0.0, 2024-02-09 11:24:51.943
192.0, -16879.85859869225, -9137.013153673786, 15871.146723168698, -2418.1905291307603, 46401.1039019947, 17375.44147675532, 34262.89966856237, 9229.504672229848, 29647.331493774833, 4976.280626807288, 38944.56195170426, 28540.60721881476, 39648.21721890178, 34057.21891608464, 28457.838709096755, 24688.50757938714, 0.078, 1.0, 0.178, 192.0, 0.0, 0.0, 0.0, 0.0, 0.0, 0.0, 0.0, 0.0, 0.0, 1.707474291951969E9, 0.0, 2024-02-09 11:24:51.951
194.0, -16810.054100758327, -9180.330834428172, 15937.77727338997, -2425.7677705011097, 46774.802717542974, 17464.870806321003, 34442.33947304958, 9376.221522834483, 29890.83139787095, 5241.707592214059, 39190.40878896818, 28631.444708281128, 39840.66573866198, 34211.557711548536, 28581.46620767906, 24787.90578697989, 0.078, 1.0, 0.178, 192.0, 0.0, 0.0, 0.0, 0.0, 0.0, 0.0, 0.0, 0.0, 0.0, 1.7074742919600532E9, 0.0, 2024-02-09 11:24:51.960
196.0, -16814.166821738105, -9369.80657217581, 15853.891176449202, -2419.755151242632, 46457.92203640009, 17363.505645216184, 34253.69074984679, 9214.663113911523, 29871.51949066156, 5362.764640184002, 39245.84111521734, 28599.392306732218, 40021.26783386086, 34207.355583590936, 28596.575986930846, 24856.235069779763, 0.084, 1.008, 0.17200000000000001, 192.0, 1.0, 80.0, 15.5, 64.0, 2.5, 48.0, 0.0, 0.0, 0.0, 1.7074742919690366E9, 0.0, 2024-02-09 11:24:51.969
198.0, -16719.55188745879, -9469.025965812918, 15925.729683128558, -2425.946584456752, 46613.33371559784, 17414.937009207846, 34340.884904966944, 9237.01485836683, 29714.163209696202, 5516.209365869685, 38941.1421348026, 28574.55951864237, 39543.476944384216, 34049.909895647754, 28464.946563833546, 24670.112093700423, 0.084, 1.008, 0.17200000000000001, 192.0, 0.0, 0.0, 0.0, 0.0, 0.0, 0.0, 0.0, 0.0, 0.0, 1.7074742919760656E9, 0.0, 2024-02-09 11:24:51.976
200.0, -16686.78423008731, -9531.566146798867, 15896.694767081115, -2419.9563169427297, 46691.5201177025, 17404.96813118078, 34362.208469177305, 9222.218003537417, 30029.859248382956, 5685.03209174062, 39403.912652005274, 28653.796452736435, 40142.302530086345, 34276.131901279914, 28685.33476416287, 24894.59066326507, 0.084, 1.008, 0.17200000000000001, 192.0, 0.0, 0.0, 0.0, 0.0, 0.0, 0.0, 0.0, 0.0, 0.0, 1.7074742919840395E9, 0.0, 2024-02-09 11:24:51.984
202.0, -16665.147741454573, -9565.920778026673, 15883.082554707833, -2400.398540544336, 46402.84733806221, 17366.210206295276, 34208.473170813704, 9072.438963942404, 29729.787079070462, 5754.0766303630635, 39004.330516377755, 28563.741274326003, 39674.21229770331, 34051.47451775963, 28489.086447845275, 24705.405498195352, 0.084, 1.008, 0.17200000000000001, 192.0, 0.0, 0.0, 0.0, 0.0, 0.0, 0.0, 0.0, 0.0, 0.0, 1.707474291992276E9, 0.0, 2024-02-09 11:24:51.992
204.0, -16597.980749366376, -9554.901368010207, 15951.657706696715, -2411.529709283079, 46762.82218251493, 17451.817387559102, 34375.88773678395, 9199.8215555932, 29960.613544060416, 5894.758509964766, 39229.636100487245, 28648.29792360043, 39856.13314582505, 34203.26521435562, 28598.587643931824, 24772.013696672166, 0.084, 1.008, 0.17200000000000001, 192.0, 0.0, 0.0, 0.0, 0.0, 0.0, 0.0, 0.0, 0.0, 0.0, 1.7074742920001163E9, 0.0, 2024-02-09 11:24:52.000
206.0, -16626.76979622481, -9613.105310571827, 15878.634557561227, -2403.6171917459, 46449.29426304034, 17355.213148023267, 34214.843417983466, 9039.403085637461, 29944.274418863588, 5928.755513281288, 39291.81865356191, 28620.157077331198, 40044.156020183094, 34211.64711852636, 28622.973397132566, 24830.15058400042, 0.084, 1.018, 0.166, 192.0, 1.0, 80.0, 15.5, 104.0, 2.5, 24.0, 0.0, 0.0, 0.0, 1.707474292008095E9, 0.0, 2024-02-09 11:24:52.008
208.0, -16562.62028963808, -9564.065583236883, 15950.115436329299, -2417.139997141361, 46590.78080544243, 17414.758195252205, 34296.65080268989, 9099.283409033229, 29782.604251218352, 5995.743691413843, 38985.08566440173, 28599.906396854687, 39578.010389567666, 34066.58429701141, 28494.316756047818, 24642.39593057584, 0.084, 1.018, 0.166, 192.0, 0.0, 0.0, 0.0, 0.0, 0.0, 0.0, 0.0, 0.0, 0.0, 1.7074742920161128E9, 0.0, 2024-02-09 11:24:52.016
210.0, -16576.724240389376, -9595.201563263126, 15908.988226531534, -2431.0651339370174, 46670.174201747686, 17397.72616597726, 34319.96367215677, 9118.371798798062, 30085.04570544311, 6066.10698295915, 39433.75223085311, 28679.232737926573, 40169.97398972201, 34289.63235493092, 28700.44454341466, 24855.028075579175, 0.084, 1.018, 0.166, 192.0, 0.0, 0.0, 0.0, 0.0, 0.0, 0.0, 0.0, 0.0, 0.0, 1.70747429202514E9, 0.0, 2024-02-09 11:24:52.025
212.0, -16570.66691764199, -9592.541705672946, 15886.61413033177, -2414.726008740188, 46382.30608490778, 17350.67574389884, 34146.02239680557, 8974.9183028839, 29774.13294006979, 6061.815448023731, 39023.57536835377, 28581.46620767906, 39695.446454935845, 34066.04785514448, 28501.53636950688, 24669.79916927805, 0.084, 1.018, 0.166, 192.0, 0.0, 0.0, 0.0, 0.0, 0.0, 0.0, 0.0, 0.0, 0.0, 1.7074742920311427E9, 0.0, 2024-02-09 11:24:52.031
214.0, -16524.488213597324, -9544.284289393938, 15953.82582590888, -2419.0398954200623, 46760.11762143584, 17453.583175371074, 34381.38626591996, 9157.800276017222, 29985.513387383628, 6163.180609128548, 39248.322158851886, 28674.851796013332, 39871.22057333238, 34201.38766782137, 28601.22514977755, 24735.200373554275, 0.084, 1.018, 0.166, 192.0, 0.0, 0.0, 0.0, 0.0, 0.0, 0.0, 0.0, 0.0, 0.0, 1.7074742920401263E9, 0.0, 2024-02-09 11:24:52.040
216.0, -16589.33062426217, -9577.409574676702, 15876.533493582428, -2396.174060842283, 46457.09502185524, 17377.29667154511, 34245.57706660951, 9046.935623518899, 29954.39975910184, 6146.193283342515, 39306.16847350222, 28633.121089115273, 40072.72154959697, 34214.977528450196, 28650.063711412397, 24826.663711865393, 0.08600000000000001, 1.02, 0.17400000000000002, 192.0, 1.0, 88.0, 15.5, 112.0, 2.5, 56.0, 0.0, 0.0, 0.0, 1.7074742920482E9, 0.0, 2024-02-09 11:24:52.048
218.0, -16531.21608867837, -9532.415513088168, 15946.337991516351, -2402.499604523135, 46590.244363575504, 17438.07106471909, 34313.03463137563, 9095.193039797907, 29781.553719228952, 6193.13194669866, 38986.58323128024, 28611.104620826798, 39591.980229852226, 34078.67659076174, 28504.30798581934, 24638.149099129332, 0.08600000000000001, 1.02, 0.17400000000000002, 192.0, 0.0, 0.0, 0.0, 0.0, 0.0, 0.0, 0.0, 0.0, 0.0, 1.7074742920551848E9, 0.0, 2024-02-09 11:24:52.055
220.0, -16533.048931723708, -9456.956023807052, 15915.67139812367, -2402.4101975453136, 46679.69604488564, 17439.658038575417, 34333.35236708551, 9138.175444385462, 30092.734705535735, 6252.14055206067, 39443.74346062463, 28690.833293298878, 40181.99922823897, 34323.808172203084, 28714.48143893259, 24862.40415124943, 0.08600000000000001, 1.02, 0.17400000000000002, 192.0, 0.0, 0.0, 0.0, 0.0, 0.0, 0.0, 0.0, 0.0, 0.0, 1.7074742920644364E9, 0.0, 2024-02-09 11:24:52.064
222.0, -16564.207263494405, -9422.646096068156, 15898.818182804369, -2400.33148531097, 46397.46056764848, 17391.557084507596, 34189.98827814916, 9004.221439864808, 29767.2262510331, 6212.935592286061, 39032.851342302725, 28593.826722362846, 39709.30453649814, 34097.58616657092, 28517.629625514703, 24678.35988740443, 0.08600000000000001, 1.02, 0.17400000000000002, 192.0, 0.0, 0.0, 0.0, 0.0, 0.0, 0.0, 0.0, 0.0, 0.0, 1.7074742920722132E9, 0.0, 2024-02-09 11:24:52.072
224.0, -16562.575586149167, -9306.46172838947, 15959.167892833699, -2421.5879942879674, 46767.538400595, 17476.49371343776, 34383.241460709745, 9150.491255580337, 29970.56007034303, 6253.5487119613545, 39239.89555119223, 28665.37465636428, 39881.122396126084, 34222.174790164805, 28625.186219833642, 24737.636713699903, 0.08600000000000001, 1.02, 0.17400000000000002, 192.0, 0.0, 0.0, 0.0, 0.0, 0.0, 0.0, 0.0, 0.0, 0.0, 1.707474292079222E9, 0.0, 2024-02-09 11:24:52.079
226.0, -16578.534731690255, -9235.383181021594, 15885.183618686631, -2409.987438915663, 46459.48665851196, 17388.2043228393, 34217.5256273181, 9020.02412319471, 29941.45809906222, 6193.266057165391, 39303.48626416758, 28626.32615880086, 40083.293924724334, 34247.611075354944, 28648.38733057825, 24797.80760977359, 0.082, 1.02, 0.17400000000000002, 192.0, 1.0, 72.0, 15.5, 112.0, 2.5, 56.0, 0.0, 0.0, 0.0, 1.7074742920872447E9, 0.0, 2024-02-09 11:24:52.087
228.0, -16576.500722944824, -9236.724285688912, 15949.333125273362, -2432.786218260076, 46580.63311345972, 17435.098282706535, 34274.45552044577, 9063.990004538298, 29769.573184200908, 6108.888221846607, 38985.75621673539, 28598.721754398557, 39600.36213402297, 34086.79027399901, 28493.512093247427, 24587.924729338258, 0.082, 1.02, 0.17400000000000002, 192.0, 0.0, 0.0, 0.0, 0.0, 0.0, 0.0, 0.0, 0.0, 0.0, 1.7074742920962272E9, 0.0, 2024-02-09 11:24:52.096
230.0, -16595.745574920842, -9437.286488686383, 15919.448842936617, -2450.91348301333, 46678.556105918426, 17425.621143057484, 34304.675078949345, 9105.005455613787, 30032.384995506407, 5951.666051347977, 39399.53171009204, 28647.42620556667, 40192.66101034415, 34313.83929417602, 28693.381392166782, 24795.661842305883, 0.082, 1.02, 0.17400000000000002, 192.0, 0.0, 0.0, 0.0, 0.0, 0.0, 0.0, 0.0, 0.0, 0.0, 1.7074742921042273E9, 0.0, 2024-02-09 11:24:52.104
232.0, -16480.678794464922, -9655.57362503691, 15901.142764227721, -2453.461581881235, 46391.60441060119, 17374.256834299187, 34143.384890959846, 9021.007599950743, 29711.056317216913, 5632.170216103818, 38986.60558302469, 28555.493480621994, 39739.30057755716, 34087.57258505495, 28495.88137815969, 24592.417429973775, 0.082, 1.02, 0.17400000000000002, 192.0, 0.0, 0.0, 0.0, 0.0, 0.0, 0.0, 0.0, 0.0, 0.0, 1.7074742921117156E9, 0.0, 2024-02-09 11:24:52.111
234.0, -16456.5836139421, -9738.83387313293, 15959.234948067064, -2478.786108349098, 46758.105964434864, 17468.581195900584, 34306.12794233894, 9229.839948396677, 29895.34645025092, 5213.589097689283, 39165.01720726695, 28624.135687844242, 39899.651992279534, 34213.88229297189, 28586.160074014675, 24635.01985490559, 0.082, 1.02, 0.17400000000000002, 192.0, 0.0, 0.0, 0.0, 0.0, 0.0, 0.0, 0.0, 0.0, 0.0, 1.7074742921192884E9, 0.0, 2024-02-09 11:24:52.119
236.0, -16548.404580164504, -9912.998665928682, 15862.384839342218, -2497.6062771804663, 46454.74808868743, 17361.80691263758, 34115.221692946165, 9125.412598301482, 29837.790708278502, 4557.945377581761, 39207.86550138778, 28565.104730737774, 40118.47557049699, 34220.856037241945, 28606.075478324354, 24684.998355507658, 0.08, 1.034, 0.17200000000000001, 192.0, 1.0, 64.0, 16.0, 40.0, 2.5, 48.0, 0.0, 0.0, 0.0, 1.7074742921282375E9, 0.0, 2024-02-09 11:24:52.128
238.0, -16660.208005929948, -10021.449330025833, 15909.278799209453, -2524.718943204754, 46580.56605822636, 17419.78733775465, 34182.81336817901, 9253.577501008212, 29616.351975959777, 4150.450724417058, 38856.65254076154, 28524.715128507036, 39636.7060705073, 34066.897221433785, 28451.49081367145, 24478.334126273887, 0.08, 1.034, 0.17200000000000001, 192.0, 0.0, 0.0, 0.0, 0.0, 0.0, 0.0, 0.0, 0.0, 0.0, 1.7074742921353116E9, 0.0, 2024-02-09 11:24:52.135
240.0, -16805.42728965608, -10084.57065636762, 15858.696801507092, -2547.070687660061, 46685.14987053274, 17419.20619239881, 34214.57519705, 9363.592787217234, 29867.607935381882, 4010.3723419156486, 39267.41054861672, 28589.423428705148, 40218.298461234386, 34283.127997294425, 28655.51753705949, 24689.424000909807, 0.08, 1.034, 0.17200000000000001, 192.0, 0.0, 0.0, 0.0, 0.0, 0.0, 0.0, 0.0, 0.0, 0.0, 1.7074742921433065E9, 0.0, 2024-02-09 11:24:52.143
242.0, -16868.973299142515, -10036.98379242227, 15827.650228458671, -2546.511894048678, 46411.966849799974, 17363.30447951609, 34106.951547497694, 9278.656158287067, 29529.873076662196, 3863.677843055468, 38853.947979682445, 28508.93479692159, 39756.198496365374, 34054.31318930545, 28467.82993886828, 24515.639187769793, 0.08, 1.034, 0.17200000000000001, 192.0, 0.0, 0.0, 0.0, 0.0, 0.0, 0.0, 0.0, 0.0, 0.0, 1.707474292152282E9, 0.0, 2024-02-09 11:24:52.152
244.0, -16929.52417487194, -10097.37820594051, 15869.872673734746, -2568.1483826814156, 46783.92222928074, 17456.55595738363, 34310.30771855208, 9484.82864914282, 29723.08155573387, 3788.173650285441, 39061.66274090562, 28611.66341443818, 39918.181588432984, 34196.60439450794, 28576.32530645434, 24599.525284710562, 0.08, 1.034, 0.17200000000000001, 192.0, 0.0, 0.0, 0.0, 0.0, 0.0, 0.0, 0.0, 0.0, 0.0, 1.707474292161292E9, 0.0, 2024-02-09 11:24:52.161
246.0, -17005.542457764444, -10155.91742466896, 15768.261643440921, -2561.4428593448233, 46482.68776925657, 17378.905997145892, 34160.461623723706, 9397.969770189497, 29658.239145069023, 3565.6843859773144, 39114.16698863113, 28576.03473377642, 40128.28798631287, 34220.65487154185, 28594.832550863335, 24699.75050684816, 0.082, 1.02, 0.175, 192.0, 1.0, 80.0, 15.5, 56.0, 2.5, 72.0, 0.0, 0.0, 0.0, 1.707474292167334E9, 0.0, 2024-02-09 11:24:52.167
248.0, -17094.658862907752, -10132.559851713164, 15826.577344724816, -2571.970530983273, 46615.03244817644, 17430.471471604287, 34244.191258453284, 9489.075480589328, 29431.525401058843, 3461.502905071128, 38767.8490600406, 28551.336056153305, 39625.105515134994, 34059.923477163735, 28443.310075200807, 24512.88992320179, 0.082, 1.02, 0.175, 192.0, 0.0, 0.0, 0.0, 0.0, 0.0, 0.0, 0.0, 0.0, 0.0, 1.707474292175592E9, 0.0, 2024-02-09 11:24:52.175
250.0, -17117.748214930085, -10072.925397506404, 15793.496762930961, -2566.941388480829, 46717.828120926395, 17427.297523891633, 34295.53321546713, 9591.155897516715, 29713.425602129177, 3483.6311320818822, 39193.73919889202, 28627.9578361461, 40205.58031863932, 34296.82961664553, 28661.172528406685, 24752.478272018227, 0.082, 1.02, 0.175, 192.0, 0.0, 0.0, 0.0, 0.0, 0.0, 0.0, 0.0, 0.0, 0.0, 1.707474292184332E9, 0.0, 2024-02-09 11:24:52.184
252.0, -17108.941627614695, -10032.312277831112, 15758.493931113951, -2562.0016529562063, 46422.22630050496, 17364.86910162796, 34150.55980093, 9521.798434471899, 29390.018211605337, 3447.6895269977485, 38786.19984223841, 28542.84239326029, 39752.912789930444, 34064.79615745499, 28468.05345631283, 24578.358182711385, 0.082, 1.02, 0.175, 192.0, 0.0, 0.0, 0.0, 0.0, 0.0, 0.0, 0.0, 0.0, 0.0, 1.7074742921913564E9, 0.0, 2024-02-09 11:24:52.191
254.0, -17080.219635989622, -9956.092829238514, 15828.544298236884, -2566.2708361471696, 46799.38963644381, 17447.056465990125, 34374.68074258337, 9707.340265195402, 29580.298612153365, 3512.3978271958626, 38973.5968677517, 28618.503048241502, 39902.69182952545, 34185.22735658018, 28567.026980760933, 24654.0188376926, 0.082, 1.02, 0.175, 192.0, 0.0, 0.0, 0.0, 0.0, 0.0, 0.0, 0.0, 0.0, 0.0, 1.707474292199429E9, 0.0, 2024-02-09 11:24:52.199
0.0, -17107.421708991733, -9946.861558778472, 15733.236459879454, -2558.291263376625, 46486.66637976961, 17345.15486301838, 34200.62770850989, 9555.527216854956, 29572.967239972026, 3510.9002603173567, 39050.91155182261, 28585.80244610339, 40109.22194829249, 34213.211740638224, 28592.41856246216, 24739.737777678703, 0.081, 1.009, 0.1775, 192.0, 1.0, 64.0, 15.5, 24.0, 2.5, 80.0, 0.0, 0.0, 0.0, 1.7074742922074373E9, 0.0, 2024-02-09 11:24:52.207
2.0, -17131.181613347722, -9894.223200586224, 15800.850486856758, -2566.136725680438, 46606.49408179451, 17405.750442236716, 34303.53513998212, 9631.523148003, 29388.25242379337, 3563.1362871094093, 38713.020230891736, 28552.252477675975, 39598.26107004417, 34042.019729855034, 28438.05741525381, 24552.072531231945, 0.081, 1.009, 0.1775, 192.0, 0.0, 0.0, 0.0, 0.0, 0.0, 0.0, 0.0, 0.0, 0.0, 1.7074742922164392E9, 0.0, 2024-02-09 11:24:52.216
4.0, -17159.456570083687, -9855.71114488973, 15779.392812179663, -2558.872408732463, 46708.10511208834, 17413.461794073795, 34358.498079597724, 9687.044881229984, 29719.59468359884, 3688.3731112924947, 39173.26500097096, 28642.866449697787, 40182.17804219461, 34276.981267569216, 28661.06076968441, 24800.89215050842, 0.081, 1.009, 0.1775, 192.0, 0.0, 0.0, 0.0, 0.0, 0.0, 0.0, 0.0, 0.0, 0.0, 1.7074742922234077E9, 0.0, 2024-02-09 11:24:52.223
6.0, -17173.87344525736, -9822.5188043736, 15757.0187159799, -2547.6741847603544, 46401.1039019947, 17357.694191657807, 34209.926034203294, 9562.70212682511, 29435.660473783075, 3757.17178072593, 38780.09781600211, 28554.755873054968, 39717.328812757594, 34062.18100335372, 28466.265316756406, 24631.30946532601, 0.081, 1.009, 0.1775, 192.0, 0.0, 0.0, 0.0, 0.0, 0.0, 0.0, 0.0, 0.0, 0.0, 1.7074742922314508E9, 0.0, 2024-02-09 11:24:52.231
8.0, -17196.672224601774, -9767.399402546813, 15816.362597508742, -2555.7878679976307, 46768.90185700677, 17442.295544421144, 34412.254025012735, 9724.104073536882, 29661.72601720405, 3901.161718507018, 38974.33447531873, 28630.729452458556, 39847.48302072084, 34180.935821644765, 28560.343809168793, 24699.057602770044, 0.081, 1.009, 0.1775, 192.0, 0.0, 0.0, 0.0, 0.0, 0.0, 0.0, 0.0, 0.0, 0.0, 1.7074742922404437E9, 0.0, 2024-02-09 11:24:52.240
10.0, -17254.339725296464, -9766.482981024144, 15736.678628525571, -2538.2417486002146, 46473.657664496626, 17369.093581330013, 34268.42054944284, 9596.833240608365, 29681.194386624622, 3951.073163875719, 39069.061168320324, 28605.31551901287, 40056.13655521114, 34201.61118526592, 28595.90543459719, 24797.405278373397, 0.0825, 1.0005, 0.18575, 192.0, 1.0, 80.0, 15.5, 0.0, 3.0, 8.0, 0.0, 0.0, 0.0, 1.7074742922475617E9, 0.0, 2024-02-09 11:24:52.247
12.0, -17274.635109261886, -9705.708587850164, 15803.89032410268, -2541.326289335047, 46586.623380973746, 17420.480241832764, 34347.67983528136, 9608.5679064474, 29531.638864474164, 3978.8116787447548, 38751.532286588226, 28570.715018596056, 39551.05418575456, 34031.469706472126, 28445.120566501686, 24614.523305240073, 0.0825, 1.0005, 0.18575, 192.0, 0.0, 0.0, 0.0, 0.0, 0.0, 0.0, 0.0, 0.0, 0.0, 1.707474292255514E9, 0.0, 2024-02-09 11:24:52.255
