%OpenBCI Raw EXG Data
%Number of channels = 16
%Sample Rate = 125 Hz
%Board = OpenBCI_GUI$BoardCytonSerialDaisy
Sample Index, EXG Channel 0, EXG Channel 1, EXG Channel 2, EXG Channel 3, EXG Channel 4, EXG Channel 5, EXG Channel 6, EXG Channel 7, EXG Channel 8, EXG Channel 9, EXG Channel 10, EXG Channel 11, EXG Channel 12, EXG Channel 13, EXG Channel 14, EXG Channel 15, Accel Channel 0, Accel Channel 1, Accel Channel 2, Other, Other, Other, Other, Other, Other, Other, Analog Channel 0, Analog Channel 1, Analog Channel 2, Timestamp, Other, Timestamp (Formatted)
0.0, 61762.094409715464, 65380.77478179632, -31358.26812485077, -1658.4547350948735, 16572.544464176233, 7345.8114082588445, 27029.316369213626, 4513.554813093521, 0.0, 0.0, 0.0, 0.0, 0.0, 0.0, 0.0, 0.0, -0.044, 0.497, 0.14200000000000002, 192.0, 126.5, 32.0, 15.5, 8.0, 4.0, 112.0, 0.0, 0.0, 0.0, 1.706882952906459E9, 0.0, 2024-02-02 15:09:12.906
48.0, 61768.37524990741, 65387.122677221625, -31348.276895079245, -1647.9270634564239, 16581.19458928044, 7352.204007173063, 27046.840136866587, 4525.960031266217, 38045.84301064527, 46692.168318291704, 36972.53459364588, 46177.38529174153, 23469.26462283905, 26140.722768392894, -6231.5322436728775, -640.3104234111814, -0.044, 0.497, 0.14200000000000002, 192.0, 0.0, 0.0, 0.0, 0.0, 0.0, 0.0, 0.0, 0.0, 0.0, 1.706882952906489E9, 0.0, 2024-02-02 15:09:12.906
0.0, 30833.605627251345, 32670.09200693274, -15793.541466419872, -996.1278433952145, 8306.556440181308, 3625.3858954174398, 13484.963892097938, 2379.3431972674366, 19022.921505322636, 23351.04624641493, 18485.47380989478, 23088.77087697636, 11735.202280903135, 13070.339032451991, -3115.788473580894, -320.4793120001927, -0.108, 0.986, 0.28800000000000003, 192.0, 126.0, 80.0, 15.0, 104.0, 4.5, 0.0, 0.0, 0.0, 0.0, 1.7068829529986267E9, 0.0, 2024-02-02 15:09:12.998
2.0, 61661.1539317553, 65335.78072020778, -31593.520235242875, -1999.9893903719653, 16604.686272702966, 7242.009907008399, 26964.317496337593, 4749.790400241662, 38058.85172591826, 46767.42664187273, 37047.85997246027, 46345.11278213415, 23438.195698046173, 26217.3892518746, -6476.194438480668, -636.2647576647709, -0.108, 0.986, 0.28800000000000003, 192.0, 0.0, 0.0, 0.0, 0.0, 0.0, 0.0, 0.0, 0.0, 0.0, 1.706882953005719E9, 0.0, 2024-02-02 15:09:13.005
4.0, 61671.27927199355, 65350.84579597066, -31594.459008509995, -1996.1001868367418, 16605.960322136918, 7249.743610589935, 26973.660525519914, 4758.485228834776, 38058.784670684894, 46776.16617395475, 37048.21760037156, 46348.82317171373, 23434.239439277582, 26218.551542586272, -6474.607464624341, -631.7944087737094, -0.108, 0.986, 0.28800000000000003, 192.0, 0.0, 0.0, 0.0, 0.0, 0.0, 0.0, 0.0, 0.0, 0.0, 1.706882953012695E9, 0.0, 2024-02-02 15:09:13.012
6.0, 61688.847743135426, 65369.37539212411, -31591.039191608335, -1994.0438263468536, 16608.10608960463, 7249.743610589935, 26983.405886102428, 4763.2461504037565, 38061.735100952996, 46774.802717542974, 37052.039748673415, 46354.7910874833, 23432.384244487792, 26214.66233905105, -6475.121554746814, -631.1462081845056, -0.108, 0.986, 0.28800000000000003, 192.0, 0.0, 0.0, 0.0, 0.0, 0.0, 0.0, 0.0, 0.0, 0.0, 1.7068829530210276E9, 0.0, 2024-02-02 15:09:13.021
8.0, 61706.393862532845, 65386.22860744341, -31590.10041834121, -1992.4792042349823, 16605.75915643682, 7250.391811179139, 26971.604165030025, 4760.474534091298, 38070.1840603571, 46793.60053462989, 37060.30989412188, 46365.16229691057, 23435.647599178268, 26218.52919084182, -6471.522923889509, -620.8197022461536, -0.12, 0.984, 0.292, 192.0, 126.0, 32.0, 15.0, 96.0, 4.5, 16.0, 0.0, 0.0, 0.0, 1.7068829530287158E9, 0.0, 2024-02-02 15:09:13.028
10.0, 61731.60663027843, 65409.18384899901, -31583.573708960263, -1986.421881487594, 16611.52590650629, 7255.3538984482175, 26975.046333676142, 4764.3637376265215, 38079.01299941695, 46797.82501433194, 37070.971676227055, 46370.77258476884, 23439.40269224676, 26221.43491762101, -6472.685214601185, -620.0150394457626, -0.12, 0.984, 0.292, 192.0, 0.0, 0.0, 0.0, 0.0, 0.0, 0.0, 0.0, 0.0, 0.0, 1.706882953037924E9, 0.0, 2024-02-02 15:09:13.037
12.0, 61734.64646752435, 65417.029311302824, -31584.445426994018, -1989.037035588865, 16611.61531348411, 7247.933119289055, 26983.24942389124, 4763.000281214748, 38087.81958673234, 46806.85511909189, 37078.168937941664, 46381.61318082967, 23440.006189347052, 26226.12878395662, -6466.024394753504, -616.1705393994498, -0.12, 0.984, 0.292, 192.0, 0.0, 0.0, 0.0, 0.0, 0.0, 0.0, 0.0, 0.0, 0.0, 1.7068829530447197E9, 0.0, 2024-02-02 15:09:13.044
14.0, 61746.448188596754, 65430.61917193165, -31585.518310727875, -1990.4004920006387, 16612.710548962423, 7247.687250100047, 26976.99093544375, 4759.669871290907, 38082.5892785298, 46810.118473782364, 37071.23989716052, 46377.880439505636, 23436.385206745294, 26220.339682142698, -6471.634682611786, -625.8041412596872, -0.12, 0.984, 0.292, 192.0, 0.0, 0.0, 0.0, 0.0, 0.0, 0.0, 0.0, 0.0, 0.0, 1.7068829530529356E9, 0.0, 2024-02-02 15:09:13.052
16.0, 61765.380116150394, 65450.91455589707, -31576.510557712387, -1978.1517360391304, 16617.560877509222, 7255.6444711261365, 26980.85778723452, 4765.146048682457, 38097.49789208149, 46814.857043606884, 37088.13781596873, 46393.593715857714, 23448.902183640264, 26231.850830537183, -6460.369403406311, -616.6399260330112, -0.12, 0.984, 0.292, 192.0, 0.0, 0.0, 0.0, 0.0, 0.0, 0.0, 0.0, 0.0, 0.0, 1.706882953061766E9, 0.0, 2024-02-02 15:09:13.061
18.0, 61756.05943871253, 65445.907765139076, -31590.905081141602, -1990.48989897846, 16602.607560468623, 7241.071133741276, 26973.682877264368, 4748.963385696815, 38096.04502869189, 46826.36819200137, 37083.13102521074, 46391.06796873426, 23439.06741607993, 26229.638007836107, -6469.3771564218, -621.065571435162, -0.124, 0.976, 0.3, 192.0, 126.0, 16.0, 15.0, 64.0, 4.5, 48.0, 0.0, 0.0, 0.0, 1.7068829530688162E9, 0.0, 2024-02-02 15:09:13.068
20.0, 61775.661918599835, 65466.53842527133, -31574.834176878237, -1976.7659278829012, 16621.092453133162, 7260.785372350857, 26993.128894940484, 4768.945845239859, 38087.99840068798, 46822.16606404377, 37083.980391500045, 46392.52083212386, 23435.334674755894, 26231.068519481247, -6462.8057435519395, -618.7856935007208, -0.124, 0.976, 0.3, 192.0, 0.0, 0.0, 0.0, 0.0, 0.0, 0.0, 0.0, 0.0, 0.0, 1.7068829530769773E9, 0.0, 2024-02-02 15:09:13.076
22.0, 61779.171142479325, 65470.82996020675, -31581.852624637202, -1985.8630878762112, 16610.453022772435, 7252.3587646912065, 26974.979278442777, 4757.166475911913, 38098.12374092624, 46832.29140428203, 37095.62565036126, 46404.72488459646, 23446.97993361711, 26238.15402247358, -6457.016641738015, -610.3143823521593, -0.124, 0.976, 0.3, 192.0, 0.0, 0.0, 0.0, 0.0, 0.0, 0.0, 0.0, 0.0, 0.0, 1.706882953084787E9, 0.0, 2024-02-02 15:09:13.084
24.0, 61781.89805530287, 65475.38971607563, -31588.893424140624, -1990.936933867566, 16606.295598303746, 7249.788314078845, 26972.34177259705, 4753.813714243617, 38092.17817690113, 46831.66555543728, 37086.707304323594, 46396.9017740371, 23439.290933524484, 26226.039376978802, -6473.333415190389, -622.5407865692123, -0.124, 0.976, 0.3, 192.0, 0.0, 0.0, 0.0, 0.0, 0.0, 0.0, 0.0, 0.0, 0.0, 1.7068829530938082E9, 0.0, 2024-02-02 15:09:13.093
26.0, 61795.04088104259, 65490.87947498316, -31581.87497638166, -1982.644436674647, 16614.23046758538, 7258.930177561067, 26988.569139071602, 4767.113002194525, 38097.609650803766, 46831.12911357035, 37095.46918815008, 46403.80846307379, 23445.661180694246, 26230.509725869862, -6463.632758096785, -614.7623794987654, -0.124, 0.976, 0.3, 192.0, 0.0, 0.0, 0.0, 0.0, 0.0, 0.0, 0.0, 0.0, 0.0, 1.7068829531007934E9, 0.0, 2024-02-02 15:09:13.100
28.0, 61790.637587384896, 65489.96305346049, -31591.28506079734, -1988.3664832552056, 16603.52398199129, 7248.380154178161, 26974.353429598028, 4757.054717189636, 38095.26271763596, 46838.66165145179, 37090.73061832555, 46403.4061316736, 23440.766148658535, 26227.291074668297, -6469.175990721702, -619.0539144341844, -0.124, 0.978, 0.302, 192.0, 126.0, 16.0, 15.0, 72.0, 4.5, 56.0, 0.0, 0.0, 0.0, 1.7068829531089103E9, 0.0, 2024-02-02 15:09:13.108
30.0, 61811.82704112853, 65511.890114771144, -31574.409493733587, -1973.9943115704432, 16620.80188045524, 7260.785372350857, 26990.8713687505, 4770.488115607276, 38094.793331002395, 46837.18643631774, 37095.35742942779, 46408.92701255406, 23443.984799860096, 26223.96066474446, -6469.623025610808, -620.3056121236816, -0.124, 0.978, 0.302, 192.0, 0.0, 0.0, 0.0, 0.0, 0.0, 0.0, 0.0, 0.0, 0.0, 1.7068829531168041E9, 0.0, 2024-02-02 15:09:13.116
32.0, 61821.90767787787, 65522.10486198722, -31568.821557619758, -1974.553105181826, 16621.092453133162, 7260.539503161848, 26979.270813378196, 4767.269464405712, 38110.55131084339, 46852.27386382507, 37113.95408081461, 46423.455646450006, 23460.614497734845, 26237.95285677348, -6453.395659136255, -604.9276119384303, -0.124, 0.978, 0.302, 192.0, 0.0, 0.0, 0.0, 0.0, 0.0, 0.0, 0.0, 0.0, 0.0, 1.7068829531248107E9, 0.0, 2024-02-02 15:09:13.124
34.0, 61825.21573605725, 65522.75306257643, -31570.78851113183, -1977.1459075386415, 16620.66776998851, 7258.729011860969, 26991.34075538406, 4767.403574872444, 38105.20924391857, 46853.32439581447, 37111.11540926879, 46417.26421323588, 23456.300611054972, 26231.67201658154, -6459.1624092057245, -609.6214782740449, -0.124, 0.978, 0.302, 192.0, 0.0, 0.0, 0.0, 0.0, 0.0, 0.0, 0.0, 0.0, 0.0, 1.7068829531328235E9, 0.0, 2024-02-02 15:09:13.132
36.0, 61827.02622735813, 65530.79969058034, -31569.53681344233, -1969.6580731461136, 16624.33345607918, 7261.567683406793, 26992.01130771772, 4771.762165041228, 38102.95171772858, 46849.122267856874, 37115.786923859945, 46422.38276271615, 23456.45707326616, 26233.080176482224, -6452.903920758238, -606.8498619615867, -0.124, 0.978, 0.302, 192.0, 0.0, 0.0, 0.0, 0.0, 0.0, 0.0, 0.0, 0.0, 0.0, 1.706882953141056E9, 0.0, 2024-02-02 15:09:13.141
38.0, 61824.09814883449, 65529.61504812421, -31577.96342110198, -1977.1682592830969, 16614.968075152407, 7252.247005968929, 26979.33786861156, 4762.150914925446, 38101.07417119434, 46862.86859069688, 37110.93659531315, 46427.009573818395, 23455.65241046577, 26235.114185227656, -6458.983595250082, -605.4417020609025, -0.132, 0.972, 0.308, 192.0, 125.5, 112.0, 15.0, 48.0, 4.5, 80.0, 0.0, 0.0, 0.0, 1.7068829531498227E9, 0.0, 2024-02-02 15:09:13.149
40.0, 61829.842547159504, 65533.79482433735, -31576.979944345945, -1979.6269511731807, 16617.51617402031, 7254.638642625648, 26988.30091813814, 4768.767031284217, 38088.33367685481, 46851.69271846923, 37103.828740576355, 46421.08636153774, 23448.321038284426, 26222.172525188034, -6463.856275541339, -614.9411934544079, -0.132, 0.972, 0.308, 192.0, 0.0, 0.0, 0.0, 0.0, 0.0, 0.0, 0.0, 0.0, 0.0, 1.7068829531560934E9, 0.0, 2024-02-02 15:09:13.156
42.0, 61837.531547252125, 65545.99887680994, -31572.95663034399, -1976.743576138446, 16622.25474384484, 7258.416087438594, 26991.452514106335, 4773.438545875376, 38096.603822303274, 46855.201942348715, 37112.38945870274, 46430.719963397976, 23457.529957000013, 26229.03451073581, -6458.760077805528, -613.197757386894, -0.132, 0.972, 0.308, 192.0, 0.0, 0.0, 0.0, 0.0, 0.0, 0.0, 0.0, 0.0, 0.0, 1.7068829531648815E9, 0.0, 2024-02-02 15:09:13.164
44.0, 61835.162262339865, 65544.7695308649, -31578.499862968907, -1983.5385064528593, 16617.806746698232, 7254.8845118146555, 26983.495293080246, 4765.391917871466, 38093.45222633508, 46858.26413133909, 37106.086266766346, 46424.081495294755, 23452.679628453214, 26224.832382778215, -6463.99038600807, -613.6894957649107, -0.132, 0.972, 0.308, 192.0, 0.0, 0.0, 0.0, 0.0, 0.0, 0.0, 0.0, 0.0, 0.0, 1.7068829531729407E9, 0.0, 2024-02-02 15:09:13.172
46.0, 61838.447968774795, 65548.79284486685, -31580.288002525333, -1984.097300064242, 16613.00112164034, 7254.504532158916, 26969.39134232895, 4759.379298612988, 38089.09363616629, 46848.96580564568, 37108.187330745146, 46424.55088192831, 23453.841919164886, 26224.27358916683, -6464.2139034526235, -615.4105800879694, -0.132, 0.972, 0.308, 192.0, 0.0, 0.0, 0.0, 0.0, 0.0, 0.0, 0.0, 0.0, 0.0, 1.7068829531809096E9, 0.0, 2024-02-02 15:09:13.180
48.0, 61842.38187579893, 65553.33024899129, -31577.35992400169, -1981.9515325965326, 16610.184801838972, 7255.8232850817785, 26965.748007982733, 4760.4298306023875, 38088.19956638808, 46859.71699472869, 37106.19802548862, 46426.04844880682, 23453.752512187068, 26225.167658945044, -6471.992310523071, -620.8867574795196, -0.14, 0.972, 0.306, 192.0, 125.5, 80.0, 15.0, 48.0, 4.5, 72.0, 0.0, 0.0, 0.0, 1.7068829531889403E9, 0.0, 2024-02-02 15:09:13.188
50.0, 61845.1981956003, 65556.88417635967, -31574.47654896695, -1977.0788523052756, 16615.90684841953, 7260.114820017197, 26985.931633225875, 4768.185885928379, 38091.10529316727, 46859.38171856186, 37113.08236278086, 46429.04358256383, 23458.826358178423, 26226.218190934444, -6463.655109841241, -613.1530538979833, -0.14, 0.972, 0.306, 192.0, 0.0, 0.0, 0.0, 0.0, 0.0, 0.0, 0.0, 0.0, 0.0, 1.7068829531972291E9, 0.0, 2024-02-02 15:09:13.197
52.0, 61835.85516641798, 65549.84337685625, -31582.97021185997, -1982.9126576081107, 16607.18966808196, 7251.129418746164, 26969.19017662885, 4757.680566034385, 38082.991609929995, 46856.85597143841, 37107.5614819004, 46425.98139357346, 23454.624230220823, 26223.11129845516, -6465.845580797861, -612.2589841197711, -0.14, 0.972, 0.306, 192.0, 0.0, 0.0, 0.0, 0.0, 0.0, 0.0, 0.0, 0.0, 0.0, 1.706882953205176E9, 0.0, 2024-02-02 15:09:13.205
54.0, 61843.968849655255, 65555.00662982544, -31581.383238003644, -1978.8893436061555, 16609.58130473868, 7254.728049603468, 26972.27471736368, 4759.826333502095, 38078.63301976121, 46857.90650342781, 37103.04642952042, 46426.584890673745, 23448.432797006702, 26222.396042632587, -6473.668691357218, -615.7905597437095, -0.14, 0.972, 0.306, 192.0, 0.0, 0.0, 0.0, 0.0, 0.0, 0.0, 0.0, 0.0, 0.0, 1.7068829532119381E9, 0.0, 2024-02-02 15:09:13.211
56.0, 61848.75212296869, 65562.2262432845, -31576.935240857038, -1975.0224918153874, 16610.94476115045, 7255.845636826234, 26971.067723163098, 4761.6591765474295, 38085.69617100908, 46859.337015072946, 37113.127066269764, 46434.27389076637, 23456.41236977725, 26229.190972947, -6469.220694210612, -612.8848329645197, -0.14, 0.972, 0.306, 192.0, 0.0, 0.0, 0.0, 0.0, 0.0, 0.0, 0.0, 0.0, 0.0, 1.706882953221234E9, 0.0, 2024-02-02 15:09:13.221
58.0, 61849.1991578578, 65560.54986245035, -31575.90706061209, -1977.8164598723008, 16615.459813530422, 7253.454000169516, 26986.736296026265, 4767.984720228282, 38090.747665255985, 46870.35642508941, 37112.03183079146, 46435.14560880013, 23459.005172134064, 26234.33187417172, -6465.8008773089505, -606.8275102171315, -0.14, 0.966, 0.314, 192.0, 125.5, 80.0, 15.0, 24.0, 4.5, 104.0, 0.0, 0.0, 0.0, 1.7068829532289853E9, 0.0, 2024-02-02 15:09:13.228
60.0, 61845.91345142287, 65554.93957459206, -31577.71755191297, -1981.0574628183203, 16613.8728396741, 7249.318927445284, 26977.326211610583, 4758.932263723882, 38097.743761270496, 46859.71699472869, 37112.232996491555, 46433.178655288066, 23463.676686725223, 26227.20166769048, -6465.666766842219, -613.1754056424387, -0.14, 0.966, 0.314, 192.0, 0.0, 0.0, 0.0, 0.0, 0.0, 0.0, 0.0, 0.0, 0.0, 1.7068829532360296E9, 0.0, 2024-02-02 15:09:13.236
62.0, 61841.48780602072, 65552.86086235772, -31576.53290945684, -1980.8562971182225, 16609.156621594026, 7246.8602355552, 26969.324287095584, 4753.612548543519, 38083.77392098593, 46861.72865172967, 37115.11637152629, 46433.49157971043, 23460.569794245934, 26230.599132847685, -6468.7960110659615, -615.7235045103437, -0.14, 0.966, 0.314, 192.0, 0.0, 0.0, 0.0, 0.0, 0.0, 0.0, 0.0, 0.0, 0.0, 1.7068829532449949E9, 0.0, 2024-02-02 15:09:13.244
64.0, 61842.62774498794, 65556.34773449275, -31575.974115845456, -1977.4364802165605, 16614.00695014083, 7252.068192013287, 26971.179481885374, 4757.635862545474, 38078.3871505722, 46868.16595413279, 37113.14941801422, 46433.33511749925, 23458.98282038961, 26229.392138647097, -6473.109897745836, -622.7643040137654, -0.14, 0.966, 0.314, 192.0, 0.0, 0.0, 0.0, 0.0, 0.0, 0.0, 0.0, 0.0, 0.0, 1.7068829532530465E9, 0.0, 2024-02-02 15:09:13.253
66.0, 61848.55095726859, 65560.5275107059, -31571.72728439895, -1970.619198157692, 16616.376235053092, 7255.219787981486, 26978.712019766812, 4760.966272469315, 38086.25496462047, 46868.769451233085, 37123.8112001194, 46439.459495480005, 23468.906994927765, 26235.449461394484, -6463.811572052428, -614.807082987676, -0.14, 0.966, 0.314, 192.0, 0.0, 0.0, 0.0, 0.0, 0.0, 0.0, 0.0, 0.0, 0.0, 1.706882953261047E9, 0.0, 2024-02-02 15:09:13.261
68.0, 61839.58790774202, 65549.55280417834, -31575.661191423085, -1974.2848842483622, 16611.838830928664, 7249.8330175677565, 26972.34177259705, 4756.182999155879, 38087.55136579888, 46874.5138495581, 37121.57602567387, 46437.47019022348, 23468.30349782747, 26232.72254857094, -6469.265397699523, -618.9421557119078, -0.132, 0.968, 0.312, 192.0, 125.5, 112.0, 15.0, 32.0, 4.5, 96.0, 0.0, 0.0, 0.0, 1.7068829532680514E9, 0.0, 2024-02-02 15:09:13.268
70.0, 61830.17782332633, 65534.08539701527, -31577.874014124158, -1977.9952738279433, 16614.141060607562, 7250.4812181569605, 26966.99970567223, 4754.506618321731, 38079.12475813922, 46861.68394824075, 37118.84911285032, 46431.457570965, 23463.20730009166, 26226.642874079094, -6470.584150622386, -622.5407865692123, -0.132, 0.968, 0.312, 192.0, 0.0, 0.0, 0.0, 0.0, 0.0, 0.0, 0.0, 0.0, 0.0, 1.7068829532770677E9, 0.0, 2024-02-02 15:09:13.277
72.0, 61809.32364574953, 65511.51013511541, -31581.338534514733, -1983.0914715637532, 16611.7717756953, 7247.866064055689, 26964.697475993333, 4751.757353753728, 38075.34731332628, 46855.17959060426, 37113.23882499204, 46425.064972050786, 23467.610593749356, 26227.738109557406, -6470.4947436445655, -623.8148360031648, -0.132, 0.968, 0.312, 192.0, 0.0, 0.0, 0.0, 0.0, 0.0, 0.0, 0.0, 0.0, 0.0, 1.7068829532853615E9, 0.0, 2024-02-02 15:09:13.285
74.0, 61784.066174515036, 65477.513131798885, -31583.886633382637, -1986.555991954326, 16612.107051862127, 7247.284918699851, 26974.19696738684, 4753.992528199259, 38063.29972306487, 46845.32247129947, 37102.53233939795, 46414.783169601345, 23466.403599548772, 26225.592342089694, -6474.495705902065, -629.8051035171871, -0.132, 0.968, 0.312, 192.0, 0.0, 0.0, 0.0, 0.0, 0.0, 0.0, 0.0, 0.0, 0.0, 1.706882953292083E9, 0.0, 2024-02-02 15:09:13.292
76.0, 61753.06430495552, 65439.71633192496, -31590.54745323032, -1994.2002885580407, 16609.134269849572, 7241.942851775033, 26972.073551663587, 4752.182036898379, 38050.06749034733, 46822.12136055486, 37094.820987560866, 46402.400303173104, 23465.151901859273, 26221.189048432, -6474.451002413154, -631.7050017958882, -0.132, 0.968, 0.312, 192.0, 0.0, 0.0, 0.0, 0.0, 0.0, 0.0, 0.0, 0.0, 0.0, 1.706882953301119E9, 0.0, 2024-02-02 15:09:13.301
78.0, 61711.4677085242, 65397.873866304624, -31606.864226682694, -2009.0418468763646, 16595.32089177619, 7232.152787703609, 26958.595449757035, 4740.290908848156, 38026.41934471361, 46813.69475289521, 37069.07177794835, 46381.32260815175, 23449.6844946962, 26211.466039593943, -6488.040863041981, -639.3940018885138, -0.128, 0.967, 0.31, 192.0, 126.0, 16.0, 15.0, 24.0, 4.5, 80.0, 0.0, 0.0, 0.0, 1.706882953309217E9, 0.0, 2024-02-02 15:09:13.309
80.0, 61702.43760376425, 65387.0332702438, -31599.085819612246, -1999.609410716225, 16608.016682626807, 7247.307270444307, 26967.80436847262, 4754.841894488561, 38015.37758295269, 46798.87554632134, 37059.75110051049, 46368.64916904559, 23444.767110916033, 26209.052051192768, -6490.007816554048, -642.389135645525, -0.128, 0.967, 0.31, 192.0, 0.0, 0.0, 0.0, 0.0, 0.0, 0.0, 0.0, 0.0, 0.0, 1.7068829533170726E9, 0.0, 2024-02-02 15:09:13.317
82.0, 61688.3113012685, 65374.404534626556, -31604.338479559243, -2002.9398206400658, 16605.80385992573, 7241.540520374838, 26962.216432358797, 4749.3210136081, 38013.075353273794, 46797.78031084303, 37059.438176088115, 46369.7444045239, 23457.909936655753, 26219.66912980904, -6483.771679851017, -632.9790512298407, -0.128, 0.967, 0.31, 192.0, 0.0, 0.0, 0.0, 0.0, 0.0, 0.0, 0.0, 0.0, 0.0, 1.7068829533241873E9, 0.0, 2024-02-02 15:09:13.324
84.0, 61662.38327770034, 65347.60479302464, -31617.03427040986, -2015.5238527684037, 16597.533714477267, 7229.403523135606, 26961.545880025136, 4737.98867916926, 37996.2668414434, 46789.130185738824, 37041.93676017961, 46357.450945073484, 23445.30355278296, 26208.1356296701, -6496.534525934998, -645.5407316137233, -0.128, 0.967, 0.31, 192.0, 0.0, 0.0, 0.0, 0.0, 0.0, 0.0, 0.0, 0.0, 0.0, 1.7068829533331237E9, 0.0, 2024-02-02 15:09:13.333
86.0, 61669.96051907069, 65356.143159406565, -31604.360831303697, -2004.6832567075799, 16605.714452947912, 7240.691154085536, 26966.686781249857, 4748.6281095299855, 37988.75665530642, 46773.059281475464, 37044.1942863696, 46353.69585200499, 23444.901221382766, 26205.252254635365, -6489.873706087316, -639.3269466551479, -0.128, 0.967, 0.31, 192.0, 0.0, 0.0, 0.0, 0.0, 0.0, 0.0, 0.0, 0.0, 0.0, 1.7068829533411548E9, 0.0, 2024-02-02 15:09:13.341
88.0, 61650.738018839125, 65337.30063883074, -31620.29762510033, -2023.6598877501356, 16590.60467369612, 7224.262621910885, 26954.326266566073, 4734.814731456606, 37984.17454769308, 46782.62582810233, 37039.56747526735, 46353.047651415785, 23440.49792772507, 26203.218245889933, -6495.6181044123305, -638.8799117660418, -0.131, 0.9695, 0.309, 192.0, 125.5, 104.0, 15.0, 48.0, 4.5, 80.0, 0.0, 0.0, 0.0, 1.706882953348514E9, 0.0, 2024-02-02 15:09:13.348
90.0, 61668.59706265892, 65353.058618671734, -31608.227683094465, -2012.0816841222866, 16600.931179634474, 7235.840825538734, 26964.228089359774, 4745.074182161592, 37976.932582489564, 46770.98056924112, 37035.611216498764, 46343.4364013, 23437.145166056773, 26194.545769041273, -6497.316836990934, -643.2608536792819, -0.131, 0.9695, 0.309, 192.0, 0.0, 0.0, 0.0, 0.0, 0.0, 0.0, 0.0, 0.0, 0.0, 1.7068829533571763E9, 0.0, 2024-02-02 15:09:13.357
92.0, 61685.18205704475, 65367.475493845406, -31599.599909734716, -2002.1575095841301, 16604.775679680788, 7242.8592732977, 26971.023019674187, 4752.852589232039, 37990.09775997374, 46783.20697345817, 37053.42555682964, 46358.74734625189, 23446.21997430563, 26205.498123824374, -6485.448060685166, -631.2132634178714, -0.131, 0.9695, 0.309, 192.0, 0.0, 0.0, 0.0, 0.0, 0.0, 0.0, 0.0, 0.0, 0.0, 1.7068829533652267E9, 0.0, 2024-02-02 15:09:13.365
94.0, 61697.14024032834, 65380.17128469602, -31600.046944623824, -2002.1128060952194, 16601.51232499031, 7241.898148286123, 26963.781054470666, 4750.997394442248, 37993.5175768754, 46795.88041256433, 37060.10872842178, 46367.03984344481, 23445.951753372166, 26208.560312814752, -6487.213848497135, -631.9732227293518, -0.131, 0.9695, 0.309, 192.0, 0.0, 0.0, 0.0, 0.0, 0.0, 0.0, 0.0, 0.0, 0.0, 1.7068829533722186E9, 0.0, 2024-02-02 15:09:13.372
96.0, 61725.30343834203, 65409.00503504337, -31583.953688616002, -1986.8242128877896, 16610.654188472534, 7254.839808325745, 26974.62165053149, 4761.346252125055, 38001.698315346046, 46796.43920617571, 37076.76077804098, 46379.31095115077, 23449.997419118576, 26212.069536694235, -6479.346034448867, -622.9654697138632, -0.131, 0.9695, 0.309, 192.0, 0.0, 0.0, 0.0, 0.0, 0.0, 0.0, 0.0, 0.0, 0.0, 1.7068829533805344E9, 0.0, 2024-02-02 15:09:13.380
98.0, 61737.06045592552, 65427.48992770791, -31581.964383359482, -1984.6337419311694, 16612.44232802896, 7252.269357713385, 26975.091037165053, 4759.088725935069, 38015.243472485956, 46822.5013402106, 37087.131987468245, 46395.493614136416, 23460.636849479302, 26222.552504843774, -6475.523886147009, -617.7575132557766, -0.1315, 0.97075, 0.3055, 192.0, 125.5, 112.0, 15.0, 48.0, 4.5, 56.0, 0.0, 0.0, 0.0, 1.706882953389436E9, 0.0, 2024-02-02 15:09:13.389
100.0, 61754.83009276749, 65450.48987275242, -31572.107264054688, -1971.5132679359042, 16619.080796132184, 7262.372346207184, 26980.34369711205, 4766.4200981164095, 38018.730344620984, 46834.14659907181, 37098.039638762435, 46407.96588754248, 23466.69417222669, 26229.705063069472, -6466.225560453601, -611.8119492306649, -0.1315, 0.97075, 0.3055, 192.0, 0.0, 0.0, 0.0, 0.0, 0.0, 0.0, 0.0, 0.0, 0.0, 1.7068829533972633E9, 0.0, 2024-02-02 15:09:13.397
102.0, 61750.359743876434, 65449.886375652124, -31585.227738049954, -1985.6842739205688, 16604.418051769502, 7244.401543665117, 26969.972487684787, 4749.790400241662, 38018.81975159881, 46837.67817469576, 37099.69366785212, 46412.190367244526, 23464.570756503435, 26230.263856680856, -6469.421859910711, -612.9295364534303, -0.1315, 0.97075, 0.3055, 192.0, 0.0, 0.0, 0.0, 0.0, 0.0, 0.0, 0.0, 0.0, 0.0, 1.7068829534042337E9, 0.0, 2024-02-02 15:09:13.404
104.0, 61746.62700255239, 65447.13711108412, -31597.141217844634, -2000.9952188724542, 16598.67365344449, 7231.012848736388, 26957.701379978822, 4736.826388457584, 38002.7711990799, 46828.156331557795, 37082.19225194362, 46396.34298042572, 23450.44445400768, 26210.236693648898, -6486.90092407476, -633.4707896078575, -0.1315, 0.97075, 0.3055, 192.0, 0.0, 0.0, 0.0, 0.0, 0.0, 0.0, 0.0, 0.0, 0.0, 1.7068829534124558E9, 0.0, 2024-02-02 15:09:13.412
106.0, 61761.15563644835, 65461.30811706879, -31590.078066596758, -1997.2177740595073, 16609.983636138873, 7237.71837207298, 26968.7654934842, 4747.041135673659, 38009.70023986104, 46820.75790414309, 37089.54597586942, 46399.87455604965, 23455.83122442141, 26209.253216892866, -6482.1176507613245, -633.4707896078575, -0.1315, 0.97075, 0.3055, 192.0, 0.0, 0.0, 0.0, 0.0, 0.0, 0.0, 0.0, 0.0, 0.0, 1.70688295342146E9, 0.0, 2024-02-02 15:09:13.421
108.0, 61761.84854052646, 65464.70558222599, -31596.604775977707, -1999.4976519939487, 16606.295598303746, 7233.069209226276, 26962.41759805889, 4740.872054203994, 38013.41062944062, 46830.682078681246, 37087.53431886844, 46399.047541504806, 23460.79331169049, 26208.47090583693, -6482.251761228056, -635.7283157978435, -0.13175, 0.968375, 0.30374999999999996, 192.0, 125.5, 112.0, 15.0, 24.0, 4.5, 56.0, 0.0, 0.0, 0.0, 1.7068829534282992E9, 0.0, 2024-02-02 15:09:13.428
110.0, 61773.426744154305, 65479.27891961085, -31591.15095033061, -1992.6356664461694, 16612.487031517867, 7242.345183175228, 26971.402999329926, 4749.633938030474, 38009.655536372135, 46828.35749725789, 37089.32245842487, 46399.87455604965, 23458.200509333674, 26206.213379646946, -6487.079738030403, -637.0694204651619, -0.13175, 0.968375, 0.30374999999999996, 192.0, 0.0, 0.0, 0.0, 0.0, 0.0, 0.0, 0.0, 0.0, 0.0, 1.7068829534363005E9, 0.0, 2024-02-02 15:09:13.436
112.0, 61789.56470365104, 65497.719108786485, -31579.617450191672, -1980.0069308289208, 16620.80188045524, 7257.097334515731, 26981.036601190164, 4765.1236969380025, 38021.83723710028, 46842.99788987612, 37103.71698185408, 46418.42650394756, 23474.249061852584, 26225.81585953425, -6473.512229146031, -618.8303969896314, -0.13175, 0.968375, 0.30374999999999996, 192.0, 0.0, 0.0, 0.0, 0.0, 0.0, 0.0, 0.0, 0.0, 0.0, 1.7068829534446115E9, 0.0, 2024-02-02 15:09:13.444
114.0, 61778.746459334674, 65487.839637737234, -31594.190787576532, -1995.4519862475381, 16606.876743659584, 7239.461808140494, 26961.344714325038, 4747.2199496293015, 38019.75852486593, 46851.06686962448, 37098.75489458501, 46416.884233580146, 23469.286974583505, 26225.011196733856, -6478.384909437288, -624.3512778700922, -0.13175, 0.968375, 0.30374999999999996, 192.0, 0.0, 0.0, 0.0, 0.0, 0.0, 0.0, 0.0, 0.0, 0.0, 1.70688295345232E9, 0.0, 2024-02-02 15:09:13.452
116.0, 61792.09045077449, 65497.54029483084, -31589.988659618935, -1991.2722100343956, 16614.23046758538, 7243.418066909083, 26975.426313331882, 4754.774839255195, 38013.18711199607, 46835.912386883785, 37096.87734805076, 46410.40222768811, 23465.531881515013, 26215.84698150718, -6481.04476702747, -633.1131616965725, -0.13175, 0.968375, 0.30374999999999996, 192.0, 0.0, 0.0, 0.0, 0.0, 0.0, 0.0, 0.0, 0.0, 0.0, 1.7068829534603307E9, 0.0, 2024-02-02 15:09:13.460
118.0, 61795.04088104259, 65503.75407978941, -31593.72140094297, -1993.8650123912112, 16608.396662282546, 7238.970069762478, 26972.408827830415, 4750.5056560642315, 38015.39993469715, 46847.80351493401, 37096.27385095046, 46412.123312011165, 23465.64364023729, 26218.417432119542, -6486.0515577854585, -634.3648593860697, -0.13187500000000002, 0.9701875, 0.305875, 192.0, 125.5, 112.0, 15.0, 48.0, 4.5, 80.0, 0.0, 0.0, 0.0, 1.7068829534685953E9, 0.0, 2024-02-02 15:09:13.468
120.0, 61810.86591611695, 65523.222449209985, -31581.271479281364, -1981.5044977074265, 16619.706644976934, 7255.8232850817785, 26985.037563447662, 4767.045946961159, 38020.6749463886, 46851.5586080025, 37104.67810686566, 46418.94059407003, 23469.130512372318, 26222.932484499514, -6481.04476702747, -632.3755541295474, -0.13187500000000002, 0.9701875, 0.305875, 192.0, 0.0, 0.0, 0.0, 0.0, 0.0, 0.0, 0.0, 0.0, 0.0, 1.706882953477527E9, 0.0, 2024-02-02 15:09:13.477
122.0, 61805.90382884787, 65523.647132354636, -31585.451255494507, -1991.6968931790464, 16614.319874563203, 7247.57549137777, 26974.15226389793, 4758.8428567460605, 38023.53596967888, 46856.16306736029, 37111.3612784578, 46424.88615809514, 23477.199492120682, 26227.738109557406, -6476.820287325417, -627.7710947717542, -0.13187500000000002, 0.9701875, 0.305875, 192.0, 0.0, 0.0, 0.0, 0.0, 0.0, 0.0, 0.0, 0.0, 0.0, 1.7068829534843569E9, 0.0, 2024-02-02 15:09:13.484
124.0, 61813.92810510733, 65531.0679115138, -31581.07031358127, -1988.4111867441163, 16617.426767042492, 7250.749439090424, 26974.867519720498, 4760.049850946647, 38023.983004567985, 46863.42738430827, 37109.93076681266, 46425.78022787336, 23475.79133222, 26225.61469383415, -6479.7707175935175, -629.4251238614469, -0.13187500000000002, 0.9701875, 0.305875, 192.0, 0.0, 0.0, 0.0, 0.0, 0.0, 0.0, 0.0, 0.0, 0.0, 1.706882953492358E9, 0.0, 2024-02-02 15:09:13.492
126.0, 61815.47037547474, 65530.59852488024, -31581.07031358127, -1990.1769745560855, 16617.76204320932, 7248.916596045089, 26984.121141924996, 4762.128563180991, 38023.33480397878, 46856.45364003821, 37113.75291511451, 46427.03192556286, 23478.31707934345, 26222.32898739922, -6472.439345412176, -629.2686616502598, -0.13187500000000002, 0.9701875, 0.305875, 192.0, 0.0, 0.0, 0.0, 0.0, 0.0, 0.0, 0.0, 0.0, 0.0, 1.7068829535005472E9, 0.0, 2024-02-02 15:09:13.500
128.0, 61819.58309645452, 65533.012513281414, -31584.3560200162, -1989.193497800052, 16617.069139131207, 7246.569662877281, 26978.42144708889, 4757.769973012206, 38020.362021966226, 46863.7626604751, 37108.88023482326, 46425.91433834009, 23477.624175265333, 26220.38438563161, -6475.680348358196, -632.4649611073686, -0.1319375, 0.97109375, 0.3069375, 192.0, 125.5, 112.0, 15.0, 48.0, 4.5, 80.0, 0.0, 0.0, 0.0, 1.7068829535083988E9, 0.0, 2024-02-02 15:09:13.508
130.0, 61825.68512269082, 65537.88519357267, -31585.38420026114, -1984.9913698424543, 16614.521040263302, 7249.028354767365, 26972.38647608596, 4760.094554435558, 38019.4232486991, 46865.975483176175, 37113.08236278086, 46429.870597108675, 23479.524073544035, 26223.781850788815, -6476.395604180766, -628.1734261719497, -0.1319375, 0.97109375, 0.3069375, 192.0, 0.0, 0.0, 0.0, 0.0, 0.0, 0.0, 0.0, 0.0, 0.0, 1.7068829535163822E9, 0.0, 2024-02-02 15:09:13.516
132.0, 61832.077721605034, 65540.58975465177, -31582.88080488215, -1986.7348059099684, 16618.499650776346, 7245.742648332435, 26980.14253141195, 4759.6028160575415, 38022.306623733835, 46864.05323315302, 37114.57992965936, 46431.88225410965, 23481.17810263373, 26224.3406444002, -6478.340205948378, -626.2064726598827, -0.1319375, 0.97109375, 0.3069375, 192.0, 0.0, 0.0, 0.0, 0.0, 0.0, 0.0, 0.0, 0.0, 0.0, 1.7068829535244033E9, 0.0, 2024-02-02 15:09:13.524
134.0, 61824.09814883449, 65531.80551908082, -31590.659211952596, -1997.2624775484178, 16614.945723407953, 7236.712543572491, 26984.746990769745, 4754.394859599454, 38018.41742019861, 46864.83554420895, 37109.01434528999, 46426.026097062364, 23479.434666566216, 26218.57389433073, -6479.301330959956, -631.257966906782, -0.1319375, 0.97109375, 0.3069375, 192.0, 0.0, 0.0, 0.0, 0.0, 0.0, 0.0, 0.0, 0.0, 0.0, 1.7068829535336044E9, 0.0, 2024-02-02 15:09:13.533
136.0, 61825.439253501805, 65533.079568514775, -31590.92743288606, -1996.1448903256526, 16612.889362918064, 7237.606613350704, 26982.109484924018, 4752.919644465404, 38008.85087357174, 46847.80351493401, 37103.560519642895, 46418.18063475855, 23474.182006619216, 26209.32027212623, -6483.5258106620095, -636.9800134873407, -0.1319375, 0.97109375, 0.3069375, 192.0, 0.0, 0.0, 0.0, 0.0, 0.0, 0.0, 0.0, 0.0, 0.0, 1.706882953540437E9, 0.0, 2024-02-02 15:09:13.540
138.0, 61818.82313714304, 65527.93866729006, -31596.425962022066, -2000.7269979389905, 16606.362653537115, 7231.19166269203, 26964.831586460066, 4744.4036298279325, 38006.52629214839, 46850.373965546365, 37097.77141782897, 46415.29725972382, 23474.450227552683, 26207.956815714457, -6489.583133409397, -640.9809757448406, -0.13196875000000002, 0.973546875, 0.30646874999999996, 192.0, 125.5, 112.0, 15.0, 64.0, 4.5, 72.0, 0.0, 0.0, 0.0, 1.706882953548446E9, 0.0, 2024-02-02 15:09:13.548
140.0, 61834.42465477284, 65539.67333312909, -31583.573708960263, -1982.9797128414766, 16618.633761243076, 7251.129418746164, 26980.634269789967, 4763.55907482613, 38010.95193755054, 46856.811267949495, 37105.236900477044, 46423.14272202763, 23480.664012511257, 26216.405775118565, -6483.95049380666, -631.2356151623268, -0.13196875000000002, 0.973546875, 0.30646874999999996, 192.0, 0.0, 0.0, 0.0, 0.0, 0.0, 0.0, 0.0, 0.0, 0.0, 1.7068829535564587E9, 0.0, 2024-02-02 15:09:13.556
142.0, 61835.13991059541, 65542.42259769709, -31587.909947384593, -1987.1371373101638, 16611.548258250747, 7243.082790742254, 26970.62068827399, 4756.652385789441, 38018.14919926515, 46861.68394824075, 37109.975470301564, 46428.618899419176, 23480.574605533435, 26224.675920567028, -6479.278979215501, -622.6301935470335, -0.13196875000000002, 0.973546875, 0.30646874999999996, 192.0, 0.0, 0.0, 0.0, 0.0, 0.0, 0.0, 0.0, 0.0, 0.0, 1.706882953564731E9, 0.0, 2024-02-02 15:09:13.564
144.0, 61833.77645418364, 65543.54018491987, -31590.189825319034, -1988.6347041886693, 16610.5200780058, 7241.361706419195, 26971.29124060765, 4756.473571833798, 38014.70703061903, 46861.303968585016, 37100.81125507489, 46422.8074458608, 23474.31611708595, 26214.818801262238, -6491.438328199188, -632.0849814516284, -0.13196875000000002, 0.973546875, 0.30646874999999996, 192.0, 0.0, 0.0, 0.0, 0.0, 0.0, 0.0, 0.0, 0.0, 0.0, 1.7068829535724905E9, 0.0, 2024-02-02 15:09:13.572
146.0, 61841.28664032062, 65549.73161813398, -31581.360886259186, -1978.6211226726919, 16618.119671120607, 7252.3587646912065, 26979.650793033936, 4767.962368483826, 38027.983966825486, 46859.42642205077, 37110.98129880206, 46428.79771337482, 23480.68636425571, 26222.261932165853, -6480.642435627275, -622.0713999356509, -0.13196875000000002, 0.973546875, 0.30646874999999996, 192.0, 0.0, 0.0, 0.0, 0.0, 0.0, 0.0, 0.0, 0.0, 0.0, 1.7068829535805323E9, 0.0, 2024-02-02 15:09:13.580
148.0, 61836.86099491847, 65548.63638265568, -31577.449330979507, -1980.9233523515884, 16621.964171166917, 7250.190645479041, 26988.7703047717, 4769.795211529161, 38045.95476936755, 46871.69752975673, 37116.92686282717, 46435.14560880013, 23486.27430036954, 26230.599132847685, -6470.4947436445655, -612.2366323753157, -0.13198437500000001, 0.9757734375, 0.30823437499999995, 192.0, 125.5, 112.0, 15.0, 72.0, 4.5, 88.0, 0.0, 0.0, 0.0, 1.7068829535896475E9, 0.0, 2024-02-02 15:09:13.589
150.0, 61838.96205889727, 65552.92791759109, -31570.72145589846, -1980.5433726958481, 16629.00497067034, 7252.8281513247675, 26986.71394428181, 4771.4045371299435, 38052.10149909276, 46866.735442487654, 37115.92103432668, 46431.479922709455, 23478.45118981018, 26225.882914767615, -6469.7347843330845, -615.4999870657906, -0.13198437500000001, 0.9757734375, 0.30823437499999995, 192.0, 0.0, 0.0, 0.0, 0.0, 0.0, 0.0, 0.0, 0.0, 0.0, 1.7068829535955927E9, 0.0, 2024-02-02 15:09:13.595
152.0, 61828.21086981426, 65541.70734187453, -31581.606755448196, -1991.003989100932, 16616.04095888626, 7239.551215118315, 26987.518607082202, 4763.939054481871, 38065.82547018832, 46861.10280288492, 37118.35737447231, 46432.44104772104, 23482.250986367584, 26224.51945835584, -6466.963168020627, -612.9295364534303, -0.13198437500000001, 0.9757734375, 0.30823437499999995, 192.0, 0.0, 0.0, 0.0, 0.0, 0.0, 0.0, 0.0, 0.0, 0.0, 1.706882953604535E9, 0.0, 2024-02-02 15:09:13.604
154.0, 61826.199212813284, 65536.54408890534, -31581.204424048, -1986.4442332320493, 16617.069139131207, 7244.423895409572, 26982.556519813126, 4765.458973104832, 38070.608743501754, 46858.39824180582, 37112.657679636206, 46429.91530059759, 23469.465788539146, 26222.261932165853, -6476.194438480668, -619.5233010677458, -0.13198437500000001, 0.9757734375, 0.30823437499999995, 192.0, 0.0, 0.0, 0.0, 0.0, 0.0, 0.0, 0.0, 0.0, 0.0, 1.7068829536125307E9, 0.0, 2024-02-02 15:09:13.612
156.0, 61819.359579009964, 65522.55189687633, -31574.409493733587, -1985.1478320536414, 16626.09924389115, 7250.369459434683, 26996.48165660878, 4773.4608976198315, 38085.00326693097, 46844.47310501017, 37118.670298894685, 46434.11742855518, 23473.287936841007, 26226.12878395662, -6469.578322121897, -611.7672457417543, -0.13198437500000001, 0.9757734375, 0.30823437499999995, 192.0, 0.0, 0.0, 0.0, 0.0, 0.0, 0.0, 0.0, 0.0, 0.0, 1.706882953620891E9, 0.0, 2024-02-02 15:09:13.620
158.0, 61806.4402707148, 65501.563608832796, -31574.185976289034, -1989.7522914114347, 16622.25474384484, 7246.748476832924, 26984.076438436085, 4766.621263816508, 38096.44736009209, 46845.59069223293, 37117.77622911647, 46430.787018631345, 23474.673744997235, 26232.655493337574, -6465.398545908755, -607.5874695286119, -0.13199218750000002, 0.97088671875, 0.30811718749999994, 192.0, 125.5, 112.0, 15.0, 24.0, 4.5, 80.0, 0.0, 0.0, 0.0, 1.7068829536286595E9, 0.0, 2024-02-02 15:09:13.628
160.0, 61787.01660478314, 65474.60740501969, -31571.97315358796, -1987.1818407990745, 16624.445214801457, 7250.794142579334, 26983.651755291434, 4768.5882173285745, 38097.09556068129, 46830.59267170342, 37110.28839472394, 46417.577137658256, 23470.06928563944, 26226.37465314563, -6471.120592489314, -612.7954259866984, -0.13199218750000002, 0.97088671875, 0.30811718749999994, 192.0, 0.0, 0.0, 0.0, 0.0, 0.0, 0.0, 0.0, 0.0, 0.0, 1.7068829536366248E9, 0.0, 2024-02-02 15:09:13.636
162.0, 61762.586148093484, 65441.23625054792, -31571.749636143406, -1984.1420035531526, 16624.422863057003, 7255.130381003664, 26992.078362951084, 4773.013862730725, 38102.571738072846, 46828.26809028007, 37113.75291511451, 46418.202986503005, 23477.288899098505, 26238.131670729123, -6459.587092350375, -598.5797165131231, -0.13199218750000002, 0.97088671875, 0.30811718749999994, 192.0, 0.0, 0.0, 0.0, 0.0, 0.0, 0.0, 0.0, 0.0, 0.0, 1.7068829536448584E9, 0.0, 2024-02-02 15:09:13.644
164.0, 61730.64550526685, 65408.89327632109, -31581.025610092358, -1989.327608266784, 16613.38110129608, 7250.034183267854, 26968.161996383908, 4761.100382936047, 38089.3395053553, 46820.26616576507, 37096.564423628384, 46402.8026345733, 23464.861329181353, 26233.303693926777, -6471.433516911688, -606.067550905651, -0.13199218750000002, 0.97088671875, 0.30811718749999994, 192.0, 0.0, 0.0, 0.0, 0.0, 0.0, 0.0, 0.0, 0.0, 0.0, 1.706882953651631E9, 0.0, 2024-02-02 15:09:13.651
166.0, 61712.07120562449, 65390.09545923418, -31580.936203114536, -1990.7357681674682, 16615.370406552604, 7247.843712311234, 26986.512778581713, 4763.5367230816755, 38078.83418546131, 46800.35076145539, 37090.484749136536, 46390.33036116724, 23463.766093703045, 26232.677845082027, -6471.835848311884, -607.4757108063353, -0.13199218750000002, 0.97088671875, 0.30811718749999994, 192.0, 0.0, 0.0, 0.0, 0.0, 0.0, 0.0, 0.0, 0.0, 0.0, 1.706882953660637E9, 0.0, 2024-02-02 15:09:13.660
168.0, 61701.49883049713, 65381.55709285225, -31586.658249695094, -1996.7930909148565, 16612.79995594024, 7241.741686074935, 26975.82864473208, 4755.244225888757, 38076.93428718261, 46799.05436027698, 37082.639286832724, 46386.32939890974, 23455.853576165864, 26228.341606657697, -6473.244008212568, -611.5437282972013, -0.13299609375000002, 0.969443359375, 0.30805859375, 192.0, 125.5, 104.0, 15.0, 32.0, 4.5, 80.0, 0.0, 0.0, 0.0, 1.7068829536686432E9, 0.0, 2024-02-02 15:09:13.668
170.0, 61697.90019963982, 65378.6290143286, -31590.43569450804, -2001.2857915503732, 16613.917543163006, 7244.021564009377, 26973.749932497733, 4755.445391588854, 38074.743816225986, 46790.58304912842, 37078.77243504196, 46383.401320386096, 23450.44445400768, 26224.005368233367, -6476.619121625319, -616.7963882441984, -0.13299609375000002, 0.969443359375, 0.30805859375, 192.0, 0.0, 0.0, 0.0, 0.0, 0.0, 0.0, 0.0, 0.0, 0.0, 1.7068829536759713E9, 0.0, 2024-02-02 15:09:13.675
172.0, 61689.183019302254, 65367.29667988976, -31596.716534699983, -2002.358675284228, 16605.736804692366, 7238.612441851193, 26960.160071868908, 4750.952690953337, 38075.16849937064, 46788.63844736081, 37078.01247573048, 46380.78616628482, 23451.427930763715, 26224.541810100298, -6480.508325160543, -619.3444871121034, -0.13299609375000002, 0.969443359375, 0.30805859375, 192.0, 0.0, 0.0, 0.0, 0.0, 0.0, 0.0, 0.0, 0.0, 0.0, 1.706882953683663E9, 0.0, 2024-02-02 15:09:13.683
174.0, 61679.81763837548, 65360.188825152974, -31600.605738235205, -2006.6502102196469, 16606.407357026026, 7235.304383671807, 26975.314554609606, 4754.931301466382, 38067.27833357792, 46780.65887459026, 37069.63057155974, 46370.61612255766, 23443.44835799317, 26216.003443718368, -6482.922313561716, -621.5796615576342, -0.13299609375000002, 0.969443359375, 0.30805859375, 192.0, 0.0, 0.0, 0.0, 0.0, 0.0, 0.0, 0.0, 0.0, 0.0, 1.7068829536926537E9, 0.0, 2024-02-02 15:09:13.692
176.0, 61697.788440917546, 65378.718421306425, -31592.40264802011, -1997.9553816265325, 16611.481203017378, 7244.803875065312, 26977.795598244145, 4761.301548636145, 38068.507679522954, 46769.95238899617, 37069.18353667063, 46369.409128357074, 23442.554288214957, 26214.394118117587, -6480.2401042270785, -622.1608069134721, -0.13299609375000002, 0.969443359375, 0.30805859375, 192.0, 0.0, 0.0, 0.0, 0.0, 0.0, 0.0, 0.0, 0.0, 0.0, 1.7068829536998825E9, 0.0, 2024-02-02 15:09:13.699
178.0, 61713.12173761389, 65400.55607563926, -31586.21121480599, -1993.5297362243816, 16613.090528618162, 7250.10123850122, 26978.10852266652, 4764.922531237904, 38085.3385430978, 46797.69090386521, 37081.745217054515, 46387.51404136587, 23448.8351284069, 26231.0908712257, -6471.120592489314, -607.6098212730672, -0.13299609375000002, 0.969443359375, 0.30805859375, 192.0, 0.0, 0.0, 0.0, 0.0, 0.0, 0.0, 0.0, 0.0, 0.0, 1.7068829537076793E9, 0.0, 2024-02-02 15:09:13.707
180.0, 61719.670798739295, 65408.26742747634, -31589.720438685472, -1995.675503692091, 16610.028339627785, 7247.284918699851, 26979.315516867104, 4761.569769569608, 38091.88760422321, 46803.39059870131, 37088.182519457645, 46395.068930991765, 23451.651448208268, 26234.086004982713, -6470.6735576002075, -607.5427660397013, -0.13, 0.966, 0.306, 192.0, 125.5, 120.0, 15.0, 24.0, 4.5, 72.0, 0.0, 0.0, 0.0, 1.7068829537166996E9, 0.0, 2024-02-02 15:09:13.716
182.0, 61729.72908374418, 65419.66681714855, -31590.033363107847, -1995.8319659032782, 16608.46371751591, 7242.568700619781, 26964.071627148587, 4752.494961320754, 38090.479444322526, 46795.18750848622, 37080.73938855402, 46386.32939890974, 23443.582468459903, 26223.267760666342, -6480.351862949356, -617.9810307003297, -0.13, 0.966, 0.306, 192.0, 0.0, 0.0, 0.0, 0.0, 0.0, 0.0, 0.0, 0.0, 0.0, 1.7068829537249494E9, 0.0, 2024-02-02 15:09:13.724
184.0, 61745.75528451864, 65436.63179119013, -31583.640764193628, -1990.6240094451916, 16618.00791239833, 7249.00600302291, 26983.20472040233, 4760.809810258128, 38105.92449974114, 46816.26520350757, 37091.84820554831, 46400.23218396094, 23454.31130579845, 26231.649664837085, -6472.148772734257, -610.001457929785, -0.13, 0.966, 0.306, 192.0, 0.0, 0.0, 0.0, 0.0, 0.0, 0.0, 0.0, 0.0, 0.0, 1.7068829537317057E9, 0.0, 2024-02-02 15:09:13.731
186.0, 61755.70181080125, 65448.38880877362, -31584.378371760653, -1992.747425168446, 16613.00112164034, 7247.016697766388, 26971.514758052203, 4755.601853800042, 38110.327793398836, 46807.235098747624, 37094.99980151651, 46402.24384096192, 23450.757378430055, 26230.86735378115, -6471.209999467135, -610.0461614186956, -0.13, 0.966, 0.306, 192.0, 0.0, 0.0, 0.0, 0.0, 0.0, 0.0, 0.0, 0.0, 0.0, 1.706882953739745E9, 0.0, 2024-02-02 15:09:13.739
188.0, 61769.13520921889, 65462.58216650274, -31577.471682723964, -1986.5112884654152, 16622.165336867016, 7251.442343168538, 26991.407810617427, 4765.838952760572, 38118.016793491464, 46817.4498459637, 37096.60912711729, 46406.06598926378, 23450.556212729956, 26231.202629947977, -6471.545275633965, -608.7944637291985, -0.13, 0.966, 0.306, 192.0, 0.0, 0.0, 0.0, 0.0, 0.0, 0.0, 0.0, 0.0, 0.0, 1.7068829537487967E9, 0.0, 2024-02-02 15:09:13.748
190.0, 61781.76394483614, 65477.96016668799, -31573.62718267765, -1980.1410412956527, 16627.7756247253, 7258.393735694139, 26997.19691243135, 4772.589179586074, 38122.30832842688, 46822.344877999414, 37105.39336268823, 46413.37500970066, 23457.351143044372, 26235.33770267221, -6460.168237706213, -598.2220886018382, -0.128, 0.972, 0.304, 192.0, 126.0, 0.0, 15.0, 48.0, 4.5, 64.0, 0.0, 0.0, 0.0, 1.7068829537560065E9, 0.0, 2024-02-02 15:09:13.756
192.0, 61796.650206643375, 65495.752155274415, -31566.787548874327, -1974.4636982040047, 16629.183784625984, 7260.67361362858, 26997.219264175805, 4775.964292998826, 38139.765040846476, 46831.53144497055, 37116.971566316075, 46426.607242418206, 23461.79914019098, 26245.261877210367, -6453.462714369621, -593.8858501775087, -0.128, 0.972, 0.304, 192.0, 0.0, 0.0, 0.0, 0.0, 0.0, 0.0, 0.0, 0.0, 0.0, 1.7068829537637763E9, 0.0, 2024-02-02 15:09:13.763
194.0, 61796.40433745436, 65494.76867851838, -31573.694237911015, -1982.2197535299963, 16623.14881362305, 7253.364593191695, 26983.696458780345, 4767.828258017094, 38141.73199435854, 46842.617910220375, 37114.37876395926, 46429.177693030564, 23459.74277970109, 26243.339627187208, -6459.005946994537, -595.7633967117545, -0.128, 0.972, 0.304, 192.0, 0.0, 0.0, 0.0, 0.0, 0.0, 0.0, 0.0, 0.0, 0.0, 1.7068829537727993E9, 0.0, 2024-02-02 15:09:13.772
196.0, 61801.32172123453, 65498.76964077588, -31578.119883313168, -1990.1769745560855, 16617.53852576477, 7247.597843122226, 26981.39422910145, 4760.474534091298, 38143.36367170378, 46829.56449145848, 37111.89772032473, 46421.354582471206, 23456.21120407715, 26236.72351082844, -6461.8669702848165, -602.2454026037935, -0.128, 0.972, 0.304, 192.0, 0.0, 0.0, 0.0, 0.0, 0.0, 0.0, 0.0, 0.0, 0.0, 1.706882953781036E9, 0.0, 2024-02-02 15:09:13.781
198.0, 61807.22258177073, 65503.7093763005, -31585.78653166134, -1998.6706374491023, 16611.481203017378, 7243.2616046978965, 26970.03954291815, 4754.081935177081, 38146.71643337207, 46833.76661941608, 37109.215510990085, 46419.99112605943, 23456.16650058824, 26233.929542771526, -6472.864028556827, -611.6554870194777, -0.128, 0.972, 0.304, 192.0, 0.0, 0.0, 0.0, 0.0, 0.0, 0.0, 0.0, 0.0, 0.0, 1.7068829537879844E9, 0.0, 2024-02-02 15:09:13.787
200.0, 61822.935858122815, 65520.16026021961, -31580.288002525333, -1993.8426606467558, 16619.974865910397, 7251.397639679628, 26979.762551756212, 4760.966272469315, 38145.26356998248, 46831.1067618259, 37110.98129880206, 46422.38276271615, 23453.30547729796, 26231.873182281637, -6473.847505312861, -611.230803874827, -0.13, 0.96, 0.306, 192.0, 125.5, 120.0, 15.0, 0.0, 4.5, 72.0, 0.0, 0.0, 0.0, 1.706882953795818E9, 0.0, 2024-02-02 15:09:13.795
202.0, 61823.5393552231, 65524.72001608849, -31583.461950237986, -1997.5083467374263, 16617.315008320216, 7246.2567384549075, 26976.521548810193, 4756.3171096226115, 38150.516229929475, 46836.672346195264, 37115.45164769312, 46428.30597499681, 23460.12275935683, 26236.745862572894, -6467.723127332107, -607.2074898728716, -0.13, 0.96, 0.306, 192.0, 0.0, 0.0, 0.0, 0.0, 0.0, 0.0, 0.0, 0.0, 0.0, 1.7068829538048441E9, 0.0, 2024-02-02 15:09:13.804
204.0, 61825.61806745745, 65533.504251659426, -31586.032400850345, -2001.5987159727474, 16617.829098442686, 7244.692116343036, 26981.438932590358, 4756.2724061337, 38147.00700604999, 46844.0037183766, 37108.12027551178, 46426.18255927355, 23455.183023832207, 26231.940237515002, -6473.445173912665, -612.840129475609, -0.13, 0.96, 0.306, 192.0, 0.0, 0.0, 0.0, 0.0, 0.0, 0.0, 0.0, 0.0, 0.0, 1.7068829538118448E9, 0.0, 2024-02-02 15:09:13.811
206.0, 61836.72688445174, 65543.40607445313, -31577.67284842406, -1991.518079223404, 16626.300409591247, 7253.275186213874, 26980.611918045513, 4761.972100969804, 38143.520133914964, 46838.61694796288, 37108.522606911974, 46423.20977726099, 23453.79721567598, 26233.214286948954, -6472.66286285673, -613.0859986646175, -0.13, 0.96, 0.306, 192.0, 0.0, 0.0, 0.0, 0.0, 0.0, 0.0, 0.0, 0.0, 0.0, 1.7068829538199291E9, 0.0, 2024-02-02 15:09:13.819
208.0, 61837.263326318665, 65546.13298727668, -31579.550394958307, -1990.1099193227196, 16621.740653722365, 7250.972956534977, 26984.277604136183, 4760.519237580209, 38152.66199739719, 46859.00173890612, 37116.144551771235, 46433.49157971043, 23464.906032670264, 26245.172470232545, -6464.839752297373, -601.552498525679, -0.13, 0.96, 0.306, 192.0, 0.0, 0.0, 0.0, 0.0, 0.0, 0.0, 0.0, 0.0, 0.0, 1.7068829538278704E9, 0.0, 2024-02-02 15:09:13.827
210.0, 61844.5499950111, 65554.17961528059, -31578.857490880193, -1986.712454165513, 16622.09828163365, 7255.689174615047, 26985.171673914396, 4764.028461459692, 38147.63285489474, 46853.61496849239, 37115.58575815985, 46430.74231514244, 23458.64754422278, 26242.467909153453, -6467.097278487358, -605.0170189162516, -0.132, 0.962, 0.304, 192.0, 125.5, 112.0, 15.0, 8.0, 4.5, 64.0, 0.0, 0.0, 0.0, 1.7068829538369024E9, 0.0, 2024-02-02 15:09:13.836
212.0, 61848.95328866879, 65559.34286824976, -31578.72338041346, -1985.125480309186, 16621.04774964425, 7253.968090291988, 26978.846130233545, 4761.122734680502, 38148.571628161866, 46856.118363871385, 37116.79275236044, 46436.68787916755, 23457.172329088728, 26245.395987677097, -6471.388813422777, -605.4640538053577, -0.132, 0.962, 0.304, 192.0, 0.0, 0.0, 0.0, 0.0, 0.0, 0.0, 0.0, 0.0, 0.0, 1.706882953844172E9, 0.0, 2024-02-02 15:09:13.844
214.0, 61844.90762292238, 65553.79963562485, -31582.903156626602, -1990.6910646785577, 16617.851450187143, 7252.761096091402, 26979.33786861156, 4761.502714336242, 38145.66590138267, 46862.80153546352, 37111.65185113571, 46437.26902452338, 23454.065436609442, 26241.90911554207, -6475.657996613741, -608.8838707070197, -0.132, 0.962, 0.304, 192.0, 0.0, 0.0, 0.0, 0.0, 0.0, 0.0, 0.0, 0.0, 0.0, 1.7068829538519163E9, 0.0, 2024-02-02 15:09:13.851
216.0, 61845.13114036693, 65559.49933046095, -31583.663115938085, -1991.1157478232085, 16616.24212458636, 7255.845636826234, 26971.49240630775, 4763.022632959203, 38143.050747281406, 46854.95607315971, 37108.47790342306, 46432.329288998764, 23450.042122607487, 26242.713778342462, -6479.256627471045, -612.7730742422431, -0.132, 0.962, 0.304, 192.0, 0.0, 0.0, 0.0, 0.0, 0.0, 0.0, 0.0, 0.0, 0.0, 1.7068829538609543E9, 0.0, 2024-02-02 15:09:13.860
218.0, 61848.52860552414, 65564.01438284092, -31583.327839771253, -1993.3956257576497, 16612.57643849569, 7251.040011768343, 26968.318458595095, 4758.41817360141, 38147.31993047237, 46867.40599482131, 37111.56244415789, 46438.09603906823, 23456.702942455166, 26247.72056910045, -6481.514153661032, -612.4825015643241, -0.132, 0.962, 0.304, 192.0, 0.0, 0.0, 0.0, 0.0, 0.0, 0.0, 0.0, 0.0, 0.0, 1.7068829538679583E9, 0.0, 2024-02-02 15:09:13.867
220.0, 61856.552881783595, 65570.98812711098, -31579.259822280386, -1990.8251751452894, 16622.05357814474, 7255.577415892771, 26984.076438436085, 4766.308339394133, 38146.29175022742, 46863.00270116362, 37111.83066509136, 46435.34677450023, 23455.65241046577, 26239.852755052183, -6479.9495315491595, -618.8303969896314, -0.138, 0.968, 0.306, 192.0, 125.5, 88.0, 15.0, 32.0, 4.5, 72.0, 0.0, 0.0, 0.0, 1.7068829538761988E9, 0.0, 2024-02-02 15:09:13.876
222.0, 61855.47999804974, 65570.49638873296, -31582.411418248586, -1992.1215763236974, 16616.644455986556, 7252.470523413483, 26966.75383648322, 4761.748583525251, 38150.35976771829, 46867.31658784349, 37115.92103432668, 46440.30886176931, 23455.87592791032, 26244.367807432154, -6479.23427572659, -615.5223388102459, -0.138, 0.968, 0.306, 192.0, 0.0, 0.0, 0.0, 0.0, 0.0, 0.0, 0.0, 0.0, 0.0, 1.7068829538839386E9, 0.0, 2024-02-02 15:09:13.883
224.0, 61853.557748026586, 65567.45655148703, -31582.232604292945, -1991.3839687566722, 16620.533659521778, 7250.458866412505, 26972.811159230612, 4761.726231780795, 38152.684349141644, 46872.189268134745, 37112.27769998046, 46439.593605946735, 23455.741817443588, 26244.05488300978, -6481.402394938755, -617.0869609221174, -0.138, 0.968, 0.306, 192.0, 0.0, 0.0, 0.0, 0.0, 0.0, 0.0, 0.0, 0.0, 0.0, 1.7068829538920076E9, 0.0, 2024-02-02 15:09:13.892
226.0, 61857.15637888389, 65572.66450794513, -31581.29383102582, -1991.6521896901359, 16620.712473477422, 7249.0730582562755, 26969.078417906574, 4760.698051535851, 38153.39960496421, 46862.84623895243, 37115.76457211549, 46437.291376267836, 23457.44055002219, 26239.89745854109, -6480.28480771599, -622.4513795913911, -0.138, 0.968, 0.306, 192.0, 0.0, 0.0, 0.0, 0.0, 0.0, 0.0, 0.0, 0.0, 0.0, 1.706882953900201E9, 0.0, 2024-02-02 15:09:13.900
228.0, 61858.6986492513, 65571.52456897791, -31574.49890071141, -1990.0428640893538, 16624.422863057003, 7249.900072801122, 26979.47197907829, 4766.822429516606, 38152.72905263055, 46870.69170125624, 37114.28935698144, 46438.63248093516, 23459.049875622975, 26239.67394109654, -6480.530676904998, -621.8031790021872, -0.138, 0.968, 0.306, 192.0, 0.0, 0.0, 0.0, 0.0, 0.0, 0.0, 0.0, 0.0, 0.0, 1.7068829539081485E9, 0.0, 2024-02-02 15:09:13.908
230.0, 61855.34588758301, 65566.29426077536, -31578.097531568714, -1992.255686790429, 16621.606543255635, 7249.564796634293, 26979.203758144828, 4765.257807404734, 38156.14886953221, 46872.479840812666, 37120.03375530645, 46439.68301292456, 23463.810797191956, 26240.59036261921, -6475.23331346909, -617.6457545335, -0.132, 0.972, 0.306, 192.0, 125.5, 112.0, 15.0, 48.0, 4.5, 72.0, 0.0, 0.0, 0.0, 1.7068829539170303E9, 0.0, 2024-02-02 15:09:13.917
232.0, 61857.893986450916, 65570.09405733277, -31575.81765363427, -1988.6570559331246, 16619.058444387727, 7248.715430344991, 26966.57502252758, 4759.803981757639, 38153.84663985332, 46867.67421575478, 37119.89964483972, 46441.33704201425, 23456.479425010613, 26240.52330738584, -6476.060328013937, -616.5728707996453, -0.132, 0.972, 0.306, 192.0, 0.0, 0.0, 0.0, 0.0, 0.0, 0.0, 0.0, 0.0, 0.0, 1.706882953923024E9, 0.0, 2024-02-02 15:09:13.923
234.0, 61849.33326832453, 65560.61691768371, -31583.953688616002, -1993.2168118020072, 16611.503554761835, 7244.401543665117, 26959.7130369798, 4754.41721134391, 38148.32575897286, 46867.69656749923, 37113.32823196986, 46439.25832977991, 23452.07613135292, 26235.538868372307, -6488.242028742079, -623.3678011140587, -0.132, 0.972, 0.306, 192.0, 0.0, 0.0, 0.0, 0.0, 0.0, 0.0, 0.0, 0.0, 0.0, 1.7068829539320045E9, 0.0, 2024-02-02 15:09:13.932
236.0, 61857.06697190607, 65568.01534509842, -31576.555261201294, -1986.1089570652196, 16617.851450187143, 7252.962261791499, 26972.118255152494, 4761.6591765474295, 38152.79610786392, 46861.147506373825, 37119.89964483972, 46441.91818737009, 23456.233555821607, 26241.14915623059, -6480.2401042270785, -615.7682079992543, -0.132, 0.972, 0.306, 192.0, 0.0, 0.0, 0.0, 0.0, 0.0, 0.0, 0.0, 0.0, 0.0, 1.70688295394028E9, 0.0, 2024-02-02 15:09:13.940
238.0, 61831.80950067157, 65538.77926335088, -31590.659211952596, -2004.1021113517418, 16605.20036282544, 7237.181930206053, 26959.13189162396, 4748.158722896424, 38143.09545077031, 46859.49347728414, 37109.32726971236, 46433.513931454894, 23449.84095690739, 26234.42128114954, -6487.124441519313, -622.1161034245615, -0.132, 0.972, 0.306, 192.0, 0.0, 0.0, 0.0, 0.0, 0.0, 0.0, 0.0, 0.0, 0.0, 1.7068829539480784E9, 0.0, 2024-02-02 15:09:13.948
240.0, 61831.00483787118, 65531.53729814736, -31580.265650780875, -1994.0885298357643, 16615.638627486067, 7248.380154178161, 26963.266964348193, 4755.534798566675, 38137.61927337877, 46845.88126491085, 37109.12610401226, 46427.769533129875, 23450.958544130153, 26232.81195554876, -6487.035034541493, -621.1773301574386, -0.126, 0.97, 0.306, 192.0, 126.0, 8.0, 15.0, 40.0, 4.5, 72.0, 0.0, 0.0, 0.0, 1.706882953956056E9, 0.0, 2024-02-02 15:09:13.956
242.0, 61810.37417773893, 65505.22929492346, -31585.004220605402, -1997.709512437524, 16615.817441441708, 7244.200377965019, 26965.591545771545, 4755.333632866577, 38142.58136064784, 46845.07660211046, 37115.026964548466, 46431.837550620745, 23455.07126510993, 26234.287170682812, -6484.039900784481, -624.1724639144497, -0.126, 0.97, 0.306, 192.0, 0.0, 0.0, 0.0, 0.0, 0.0, 0.0, 0.0, 0.0, 0.0, 1.7068829539640684E9, 0.0, 2024-02-02 15:09:13.964
244.0, 61777.785334323096, 65468.88535843913, -31590.34628753022, -2003.4762625069932, 16615.23629608587, 7243.216901208985, 26969.14547313994, 4753.523141565698, 38123.29180518291, 46835.33124152795, 37098.50902539599, 46415.252556234904, 23448.768073173535, 26227.20166769048, -6487.638531641785, -628.6875162944217, -0.126, 0.97, 0.306, 192.0, 0.0, 0.0, 0.0, 0.0, 0.0, 0.0, 0.0, 0.0, 0.0, 1.7068829539733E9, 0.0, 2024-02-02 15:09:13.973
246.0, 61739.65325828234, 65424.11481429516, -31602.63974698064, -2016.0155911464205, 16608.687234960467, 7235.14792146062, 26956.315571822593, 4743.7554292387285, 38111.87006376625, 46813.29242149501, 37092.518757881975, 46404.12138749616, 23448.25398305106, 26229.190972947, -6484.911618818238, -626.7429145268101, -0.126, 0.97, 0.306, 192.0, 0.0, 0.0, 0.0, 0.0, 0.0, 0.0, 0.0, 0.0, 0.0, 1.706882953979138E9, 0.0, 2024-02-02 15:09:13.979
248.0, 61711.758281202114, 65393.38116566911, -31610.708726729004, -2028.6666785081243, 16602.987540124363, 7225.38020913365, 26951.37583629797, 4736.7146297353065, 38087.596069287785, 46793.064092762965, 37067.82008025886, 46383.15545119708, 23440.050892835963, 26212.404812861063, -6498.501479447064, -643.1714467014607, -0.126, 0.97, 0.306, 192.0, 0.0, 0.0, 0.0, 0.0, 0.0, 0.0, 0.0, 0.0, 0.0, 1.706882953988119E9, 0.0, 2024-02-02 15:09:13.988
250.0, 61710.39482479034, 65387.547360366276, -31606.10426737121, -2021.000030159954, 16608.754290193832, 7236.421970894572, 26959.7130369798, 4745.5212170506975, 38083.416293074646, 46782.73758682461, 37066.210754658074, 46377.05342496079, 23437.21222129014, 26210.95194947147, -6498.233258513601, -640.355126900092, -0.12, 0.968, 0.304, 192.0, 126.0, 32.0, 15.0, 32.0, 4.5, 64.0, 0.0, 0.0, 0.0, 1.7068829539962957E9, 0.0, 2024-02-02 15:09:13.996
252.0, 61702.99639737564, 65378.22668292841, -31611.893369185138, -2024.710419739535, 16600.841772656655, 7231.683401070047, 26946.458452517803, 4738.458065802821, 38086.903165209675, 46780.21183970116, 37069.585868070826, 46380.719111051454, 23442.7331021706, 26218.909170497558, -6495.171069523224, -630.9673942288631, -0.12, 0.968, 0.304, 192.0, 0.0, 0.0, 0.0, 0.0, 0.0, 0.0, 0.0, 0.0, 0.0, 1.7068829540044973E9, 0.0, 2024-02-02 15:09:14.004
254.0, 61691.75346991461, 65370.11299969113, -31618.64359601064, -2032.5558820433478, 16594.09154583115, 7224.8884707556335, 26945.05029261712, 4732.691315733351, 38073.80504295886, 46780.189487956704, 37053.73848125202, 46369.38677661261, 23431.53487819849, 26210.862542493647, -6507.822156884928, -642.0762112231507, -0.12, 0.968, 0.304, 192.0, 0.0, 0.0, 0.0, 0.0, 0.0, 0.0, 0.0, 0.0, 0.0, 1.7068829540122347E9, 0.0, 2024-02-02 15:09:14.012
0.0, 61687.998376846124, 65365.17326416651, -31614.97790991997, -2034.4334285775935, 16597.55606622172, 7223.279145154852, 26945.474975761772, 4731.417266299399, 38069.26763883443, 46765.95142673868, 37054.14081265221, 46361.094279419696, 23433.926514855208, 26201.51951331133, -6506.9504388511705, -645.9877665028295, -0.12, 0.968, 0.304, 192.0, 0.0, 0.0, 0.0, 0.0, 0.0, 0.0, 0.0, 0.0, 0.0, 1.7068829540201995E9, 0.0, 2024-02-02 15:09:14.020
2.0, 61690.68058618076, 65367.56490082323, -31610.574616262275, -2028.1078848967416, 16604.32864479168, 7227.660087068091, 26956.80731020061, 4737.295775091145, 38070.51933652393, 46774.802717542974, 37055.92895220863, 46363.28475037632, 23437.279276523506, 26203.2853011233, -6505.341113250389, -642.903225767997, -0.12, 0.968, 0.304, 192.0, 0.0, 0.0, 0.0, 0.0, 0.0, 0.0, 0.0, 0.0, 0.0, 1.7068829540283885E9, 0.0, 2024-02-02 15:09:14.028
4.0, 61692.53578097055, 65373.689278803984, -31612.563921518795, -2029.1137133972304, 16598.919522633496, 7230.4093516360945, 26950.817042686587, 4735.395876812444, 38063.85851667625, 46784.43631940321, 37060.1981353996, 46371.51019233587, 23438.55332595746, 26212.42716460552, -6494.724034634118, -632.9119959964748, -0.13, 0.964, 0.3, 192.0, 125.5, 120.0, 15.0, 16.0, 4.5, 48.0, 0.0, 0.0, 0.0, 1.7068829540351908E9, 0.0, 2024-02-02 15:09:14.035
6.0, 61712.62999923587, 65392.71061333545, -31604.11496211469, -2020.5082917819373, 16605.781508181277, 7237.204281950508, 26955.399150299927, 4741.252033859734, 38062.495060264475, 46785.66566534826, 37060.1981353996, 46374.05829120377, 23437.234573034595, 26211.846019249682, -6500.602543425864, -634.0742867081508, -0.13, 0.964, 0.3, 192.0, 0.0, 0.0, 0.0, 0.0, 0.0, 0.0, 0.0, 0.0, 0.0, 1.7068829540442395E9, 0.0, 2024-02-02 15:09:14.044
8.0, 61727.2703918541, 65409.67558737702, -31598.34821204522, -2017.3119923248282, 16611.32474080619, 7242.3228314307735, 26970.352467340526, 4752.293795620656, 38071.189888857596, 46807.43626444772, 37069.496461093004, 46388.206945443984, 23441.92843937021, 26218.775060030828, -6493.114709033336, -625.1782924149386, -0.13, 0.964, 0.3, 192.0, 0.0, 0.0, 0.0, 0.0, 0.0, 0.0, 0.0, 0.0, 0.0, 1.706882954052234E9, 0.0, 2024-02-02 15:09:14.052
10.0, 61745.50941532963, 65430.23919227591, -31591.709743941992, -2013.1992713450518, 16616.46564203091, 7248.961299533999, 26971.738275496755, 4757.792324756661, 38077.336618582805, 46805.24579349111, 37081.34288565432, 46395.60537285869, 23450.220936563128, 26219.892647253593, -6480.933008305194, -616.1258359105392, -0.13, 0.964, 0.3, 192.0, 0.0, 0.0, 0.0, 0.0, 0.0, 0.0, 0.0, 0.0, 0.0, 1.7068829540606236E9, 0.0, 2024-02-02 15:09:14.060
12.0, 61755.16536893432, 65446.91359363957, -31592.559110231297, -2015.7697219574122, 16614.319874563203, 7245.00504076541, 26968.407865572914, 4753.053754932136, 38080.73408374001, 46824.64710767831, 37082.639286832724, 46403.56259388478, 23447.136395828296, 26223.066594966247, -6483.302293217456, -620.1267981680392, -0.13, 0.964, 0.3, 192.0, 0.0, 0.0, 0.0, 0.0, 0.0, 0.0, 0.0, 0.0, 0.0, 1.7068829540672777E9, 0.0, 2024-02-02 15:09:14.067
14.0, 61764.21782543872, 65457.84359667821, -31589.8545491522, -2013.4898440229708, 16620.600714755146, 7245.943814032533, 26979.89666222294, 4758.395821856955, 38077.94011568309, 46820.15440704279, 37083.913336266676, 46404.68018110755, 23445.59412546088, 26218.81976351974, -6479.547200148964, -622.9878214583184, -0.134, 0.964, 0.302, 192.0, 125.5, 104.0, 15.0, 16.0, 4.5, 56.0, 0.0, 0.0, 0.0, 1.7068829540762444E9, 0.0, 2024-02-02 15:09:14.076
16.0, 61767.74940106266, 65463.47623628095, -31588.334630529243, -2010.7405794549682, 16617.404415298035, 7245.474427398972, 26974.241670875752, 4757.9040834789375, 38081.89637445169, 46822.41193323278, 37090.64121134773, 46411.698628866514, 23452.322000541928, 26220.116164698145, -6475.479182658099, -618.1598446559722, -0.134, 0.964, 0.302, 192.0, 0.0, 0.0, 0.0, 0.0, 0.0, 0.0, 0.0, 0.0, 0.0, 1.7068829540846062E9, 0.0, 2024-02-02 15:09:14.084
18.0, 61770.96805226422, 65469.86883519517, -31598.92935740106, -2017.356695813739, 16606.09443260365, 7235.930232516555, 26959.690685235346, 4744.56009203912, 38078.3871505722, 46833.31958452697, 37084.405074644696, 46409.955192798996, 23444.767110916033, 26219.04328096429, -6486.90092407476, -626.2735278932486, -0.134, 0.964, 0.302, 192.0, 0.0, 0.0, 0.0, 0.0, 0.0, 0.0, 0.0, 0.0, 0.0, 1.7068829540912435E9, 0.0, 2024-02-02 15:09:14.091
20.0, 61778.58999712348, 65477.021393420866, -31600.449276024017, -2018.3401725697724, 16606.832040170677, 7233.5162441153825, 26955.399150299927, 4743.2860426051675, 38077.82835696082, 46822.12136055486, 37085.88028977875, 46410.6033933882, 23441.01201784754, 26215.198780917977, -6491.170107265724, -633.3143273966704, -0.134, 0.964, 0.302, 192.0, 0.0, 0.0, 0.0, 0.0, 0.0, 0.0, 0.0, 0.0, 0.0, 1.7068829541002867E9, 0.0, 2024-02-02 15:09:14.100
22.0, 61793.140982763885, 65494.567512818285, -31594.570767232275, -2007.9242596535994, 16612.710548962423, 7242.948680275522, 26968.497272550736, 4752.383202598477, 38081.82931921832, 46836.00179386161, 37089.03188574695, 46416.303088224304, 23440.319113769427, 26219.356205386666, -6491.773604366017, -632.5767198296452, -0.134, 0.964, 0.302, 192.0, 0.0, 0.0, 0.0, 0.0, 0.0, 0.0, 0.0, 0.0, 0.0, 1.7068829541086068E9, 0.0, 2024-02-02 15:09:14.108
24.0, 61793.40920369735, 65496.91444598609, -31598.30350855631, -2009.578288743292, 16609.178973338483, 7240.557043618804, 26966.91029869441, 4747.488170562765, 38082.142243640694, 46841.63443346434, 37093.59164161583, 46421.39928596011, 23446.287029538995, 26225.972321745438, -6487.459717686143, -626.0053069597849, -0.133, 0.963, 0.302, 192.0, 125.5, 112.0, 15.0, 8.0, 4.5, 56.0, 0.0, 0.0, 0.0, 1.7068829541152697E9, 0.0, 2024-02-02 15:09:14.115
26.0, 61811.33530275051, 65514.08058572777, -31589.832197407748, -2001.710474695024, 16615.079833874683, 7248.223691966974, 26969.279583606673, 4754.41721134391, 38085.89733670918, 46844.584863732445, 37099.783074829946, 46427.32249824077, 23450.422102263226, 26232.074347981736, -6483.861086828839, -623.5689668141564, -0.133, 0.963, 0.302, 192.0, 0.0, 0.0, 0.0, 0.0, 0.0, 0.0, 0.0, 0.0, 0.0, 1.7068829541233585E9, 0.0, 2024-02-02 15:09:14.123
28.0, 61811.98350333971, 65513.94647526104, -31601.231587079954, -2011.0535038773423, 16604.686272702966, 7244.334488431751, 26960.897679435933, 4751.6232432869965, 38091.35116235628, 46850.597482990925, 37096.25149920601, 46425.44495170653, 23452.456111008658, 26231.33674041471, -6490.186630509691, -627.3464116271033, -0.133, 0.963, 0.302, 192.0, 0.0, 0.0, 0.0, 0.0, 0.0, 0.0, 0.0, 0.0, 0.0, 1.7068829541324744E9, 0.0, 2024-02-02 15:09:14.132
30.0, 61832.54710823859, 65533.21367898151, -31588.87107239617, -1997.5530502263368, 16619.281961832283, 7256.4714856709825, 26978.309688366615, 4766.397746371955, 38090.613554789255, 46843.377869531854, 37100.36422018579, 46427.59071917424, 23449.237459807096, 26233.32604567123, -6484.352825206855, -621.7808272577319, -0.133, 0.963, 0.302, 192.0, 0.0, 0.0, 0.0, 0.0, 0.0, 0.0, 0.0, 0.0, 0.0, 1.7068829541395297E9, 0.0, 2024-02-02 15:09:14.139
32.0, 61829.61902971495, 65533.14662374814, -31591.620336964173, -1999.58705897177, 16618.58905775417, 7251.554101890815, 26972.364124341504, 4763.51437133722, 38098.54842407089, 46860.14167787334, 37108.56731040088, 46437.20196929002, 23459.74277970109, 26238.176374218034, -6479.413089682233, -613.7341992538213, -0.133, 0.963, 0.302, 192.0, 0.0, 0.0, 0.0, 0.0, 0.0, 0.0, 0.0, 0.0, 0.0, 1.7068829541473684E9, 0.0, 2024-02-02 15:09:14.147
34.0, 61823.271134289644, 65524.07181549929, -31600.225758579465, -2008.0807218647865, 16611.168278595003, 7244.401543665117, 26965.70330449382, 4754.394859599454, 38085.04797041988, 46851.916235913784, 37101.01242077499, 46429.93765234204, 23456.01003837705, 26230.599132847685, -6487.593828152875, -622.876062736042, -0.1305, 0.9644999999999999, 0.304, 192.0, 126.0, 0.0, 15.0, 24.0, 4.5, 72.0, 0.0, 0.0, 0.0, 1.7068829541553805E9, 0.0, 2024-02-02 15:09:14.155
36.0, 61832.033018116126, 65536.47703367198, -31596.44831376652, -2006.2702305639066, 16613.559915251724, 7246.077924499265, 26973.8169877311, 4758.529932323687, 38087.886641965706, 46848.161142845296, 37099.984240530044, 46428.03775406334, 23456.278259310515, 26228.60982759116, -6492.511211933042, -628.8439785056089, -0.1305, 0.9644999999999999, 0.304, 192.0, 0.0, 0.0, 0.0, 0.0, 0.0, 0.0, 0.0, 0.0, 0.0, 1.706882954164606E9, 0.0, 2024-02-02 15:09:14.164
38.0, 61837.62095422995, 65541.72969361898, -31595.420133521577, -2005.0185328744094, 16615.66097923052, 7248.111933244698, 26976.05216217663, 4761.279196891689, 38096.44736009209, 46867.94243668824, 37107.3603162003, 46438.92305361308, 23463.855500680864, 26240.1433277301, -6483.7046246176515, -616.9528504553855, -0.1305, 0.9644999999999999, 0.304, 192.0, 0.0, 0.0, 0.0, 0.0, 0.0, 0.0, 0.0, 0.0, 0.0, 1.7068829541715567E9, 0.0, 2024-02-02 15:09:14.171
40.0, 61847.589832257014, 65549.66456290061, -31588.58049971825, -1998.3353612822727, 16623.014703156317, 7253.230482724963, 26983.24942389124, 4768.476458606298, 38091.68643852311, 46855.67132898228, 37108.67906912316, 46437.42548673457, 23462.26852682454, 26234.935371272015, -6485.492764174076, -623.3230976251481, -0.1305, 0.9644999999999999, 0.304, 192.0, 0.0, 0.0, 0.0, 0.0, 0.0, 0.0, 0.0, 0.0, 0.0, 1.7068829541793945E9, 0.0, 2024-02-02 15:09:14.179
42.0, 61836.704532707285, 65537.10288251673, -31605.813694693294, -2013.579251000792, 16601.355862779124, 7235.505549371905, 26947.86661241849, 4743.777780983184, 38096.93909847011, 46864.34380583093, 37111.76360985799, 46442.65579493711, 23464.54840475898, 26237.930505029024, -6491.6841973881965, -623.3678011140587, -0.1305, 0.9644999999999999, 0.304, 192.0, 0.0, 0.0, 0.0, 0.0, 0.0, 0.0, 0.0, 0.0, 0.0, 1.706882954188584E9, 0.0, 2024-02-02 15:09:14.188
44.0, 61838.13504435242, 65536.63349588317, -31606.752467960414, -2012.6628294781244, 16607.837868671166, 7242.09931398622, 26969.458397562314, 4755.8477229890495, 38084.0868454083, 46853.950244659216, 37097.72671434006, 46427.16603602959, 23453.573698231423, 26226.32994965672, -6507.0621975734475, -636.0412402202178, -0.12825, 0.9652499999999999, 0.304, 192.0, 126.0, 8.0, 15.0, 24.0, 4.5, 64.0, 0.0, 0.0, 0.0, 1.7068829541954653E9, 0.0, 2024-02-02 15:09:14.195
46.0, 61842.024247887646, 65543.67429538659, -31600.292813812834, -2009.9806201434876, 16611.481203017378, 7243.306308186807, 26972.90056620843, 4755.691260777862, 38087.97604894353, 46854.84431443743, 37102.53233939795, 46429.9600040865, 23457.6864192112, 26231.984941003913, -6496.959209079649, -625.066533692662, -0.12825, 0.9652499999999999, 0.304, 192.0, 0.0, 0.0, 0.0, 0.0, 0.0, 0.0, 0.0, 0.0, 0.0, 1.7068829542036881E9, 0.0, 2024-02-02 15:09:14.203
48.0, 61844.326477566545, 65546.0659320433, -31601.477456268964, -2011.321724810806, 16609.29073206076, 7243.015735508888, 26963.311667837104, 4750.706821764329, 38083.34923784128, 46865.774317476076, 37099.87248180777, 46430.09411455323, 23455.40654127676, 26230.733243314415, -6500.043749814481, -627.2793563937374, -0.12825, 0.9652499999999999, 0.304, 192.0, 0.0, 0.0, 0.0, 0.0, 0.0, 0.0, 0.0, 0.0, 0.0, 1.7068829542114713E9, 0.0, 2024-02-02 15:09:14.211
50.0, 61854.85414920499, 65558.71701940501, -31593.073200353767, -2000.9952188724542, 16613.649322229543, 7251.151770490619, 26958.170766612384, 4755.445391588854, 38084.98091518652, 46861.929817429766, 37108.12027551178, 46435.59264368923, 23458.379323289315, 26232.56608635975, -6497.942685835682, -626.3405831266145, -0.12825, 0.9652499999999999, 0.304, 192.0, 0.0, 0.0, 0.0, 0.0, 0.0, 0.0, 0.0, 0.0, 0.0, 1.7068829542206776E9, 0.0, 2024-02-02 15:09:14.220
52.0, 61849.89206193591, 65554.2243187695, -31601.2092353355, -2008.9300881540883, 16610.453022772435, 7245.049744254321, 26964.183385870863, 4752.159685153924, 38089.004229188475, 46871.54106754554, 37111.383630202254, 46442.36522225919, 23464.436646036702, 26237.66228409556, -6496.0874910458915, -620.8867574795196, -0.12825, 0.9652499999999999, 0.304, 192.0, 0.0, 0.0, 0.0, 0.0, 0.0, 0.0, 0.0, 0.0, 0.0, 1.706882954227471E9, 0.0, 2024-02-02 15:09:14.227
54.0, 61849.40032355789, 65555.61012692572, -31599.465799267986, -2005.9573061415324, 16614.141060607562, 7250.995308279433, 26970.82185397409, 4759.535760824176, 38082.47751980752, 46864.299102342025, 37104.83456907685, 46436.12908555616, 23462.246175080083, 26229.123917713634, -6497.897982346772, -624.418333103458, -0.132125, 0.965625, 0.3, 192.0, 125.5, 96.0, 15.0, 24.0, 4.5, 32.0, 0.0, 0.0, 0.0, 1.7068829542355623E9, 0.0, 2024-02-02 15:09:14.235
56.0, 61849.46737879126, 65558.44879847155, -31598.0576393673, -2006.9854863864764, 16612.95641815143, 7243.753343075913, 26970.6653917629, 4754.663080532919, 38080.197641873085, 46864.299102342025, 37106.57800514436, 46440.04064083584, 23462.559099502458, 26231.694368325996, -6491.0359967989925, -619.7244667678436, -0.132125, 0.965625, 0.3, 192.0, 0.0, 0.0, 0.0, 0.0, 0.0, 0.0, 0.0, 0.0, 0.0, 1.7068829542446756E9, 0.0, 2024-02-02 15:09:14.244
58.0, 61844.68410547783, 65556.63830717067, -31601.365697546687, -2010.651172477147, 16610.587133239165, 7238.880662784656, 26955.734426466755, 4745.789437984162, 38075.079092392814, 46871.65282626782, 37102.15235974221, 46438.31955651278, 23461.083884368407, 26229.05686248027, -6495.126366034314, -625.4241616039469, -0.132125, 0.965625, 0.3, 192.0, 0.0, 0.0, 0.0, 0.0, 0.0, 0.0, 0.0, 0.0, 0.0, 1.7068829542515097E9, 0.0, 2024-02-02 15:09:14.251
60.0, 61844.527643266636, 65553.68787690256, -31597.364735289186, -2008.8183294318117, 16617.270304831305, 7246.189683221542, 26969.8160254736, 4756.585330556075, 38073.17919411411, 46860.07462263997, 37101.750028342016, 46433.33511749925, 23464.45899778116, 26227.20166769048, -6498.9038108472605, -630.6991732953994, -0.132125, 0.965625, 0.3, 192.0, 0.0, 0.0, 0.0, 0.0, 0.0, 0.0, 0.0, 0.0, 0.0, 1.7068829542595503E9, 0.0, 2024-02-02 15:09:14.259
62.0, 61837.77741644114, 65548.79284486685, -31597.431790522554, -2010.8299864327894, 16613.42580478499, 7242.836921553246, 26972.118255152494, 4755.043060188658, 38076.19667961558, 46865.975483176175, 37105.505121410504, 46436.82198963428, 23472.70679148517, 26234.264818938354, -6485.269246729523, -617.8916237225085, -0.132125, 0.965625, 0.3, 192.0, 0.0, 0.0, 0.0, 0.0, 0.0, 0.0, 0.0, 0.0, 0.0, 1.70688295426756E9, 0.0, 2024-02-02 15:09:14.267
64.0, 61835.13991059541, 65545.57419366529, -31593.63199396515, -2006.3149340528173, 16614.38692979657, 7247.955471033511, 26969.10076965103, 4755.51244682222, 38070.72050222403, 46855.47016328218, 37102.13000799775, 46432.329288998764, 23465.531881515013, 26229.99563574739, -6492.913543333238, -621.6914202799106, -0.1350625, 0.9678125, 0.3, 192.0, 125.5, 88.0, 15.0, 40.0, 4.5, 48.0, 0.0, 0.0, 0.0, 1.7068829542768512E9, 0.0, 2024-02-02 15:09:14.276
66.0, 61817.52673596463, 65522.462489898506, -31597.454142267008, -2009.645343976658, 16609.737766949864, 7241.518168630382, 26959.467167790794, 4750.997394442248, 38068.507679522954, 46850.172799846274, 37106.04156327743, 46434.497408210926, 23466.06832338194, 26230.934409014513, -6486.833868841394, -615.6788010214331, -0.1350625, 0.9678125, 0.3, 192.0, 0.0, 0.0, 0.0, 0.0, 0.0, 0.0, 0.0, 0.0, 0.0, 1.70688295428364E9, 0.0, 2024-02-02 15:09:14.283
68.0, 61790.2352559847, 65488.73370751545, -31607.35596506071, -2020.262422592929, 16603.47927850238, 7233.896223771122, 26952.918106665387, 4744.068353661103, 38048.50286823545, 46838.32637528496, 37087.28844967943, 46417.59948940271, 23456.971163388633, 26219.020929219834, -6499.552011436464, -629.8498070060978, -0.1350625, 0.9678125, 0.3, 192.0, 0.0, 0.0, 0.0, 0.0, 0.0, 0.0, 0.0, 0.0, 0.0, 1.7068829542916276E9, 0.0, 2024-02-02 15:09:14.291
70.0, 61769.89516853037, 65462.0010211469, -31603.220892336478, -2016.484977779982, 16609.76011869432, 7241.875796541667, 26965.010400415707, 4751.51148456472, 38042.17732455461, 46820.668497165265, 37084.80740604489, 46408.14470149812, 23461.486215768604, 26216.94221698549, -6495.439290456688, -628.0616674496731, -0.1350625, 0.9678125, 0.3, 192.0, 0.0, 0.0, 0.0, 0.0, 0.0, 0.0, 0.0, 0.0, 0.0, 1.7068829542998176E9, 0.0, 2024-02-02 15:09:14.299
72.0, 61727.82918546548, 65414.034177545815, -31614.30735758631, -2027.5714430298142, 16601.735842434864, 7232.242194681429, 26957.34375206754, 4742.950766438337, 38030.59912092675, 46812.3983517168, 37074.92793499565, 46394.19721295801, 23453.77486393152, 26215.064670451247, -6493.159412522246, -623.3678011140587, -0.1350625, 0.9678125, 0.3, 192.0, 0.0, 0.0, 0.0, 0.0, 0.0, 0.0, 0.0, 0.0, 0.0, 1.7068829543076365E9, 0.0, 2024-02-02 15:09:14.307
74.0, 61725.59401101995, 65410.949636810976, -31601.566863246786, -2017.06612313582, 16615.370406552604, 7246.167331477086, 26965.971525427285, 4753.925472965893, 38021.546664422356, 46797.35562769838, 37069.585868070826, 46384.20598318648, 23454.624230220823, 26211.041356449292, -6493.494688689076, -629.4027721169916, -0.13653125, 0.96690625, 0.301, 192.0, 125.5, 88.0, 15.0, 24.0, 4.5, 56.0, 0.0, 0.0, 0.0, 1.70688295431561E9, 0.0, 2024-02-02 15:09:14.315
76.0, 61698.61545546239, 65383.32288066422, -31608.317090072287, -2027.1914633740741, 16611.10122336164, 7234.790293549335, 26958.260173590206, 4743.9342431943705, 38021.27844348889, 46794.02521777454, 37073.922106495156, 46389.07866347774, 23463.02848613602, 26217.657472808063, -6487.2809037305005, -629.1569029279832, -0.13653125, 0.96690625, 0.301, 192.0, 0.0, 0.0, 0.0, 0.0, 0.0, 0.0, 0.0, 0.0, 0.0, 1.706882954323602E9, 0.0, 2024-02-02 15:09:14.323
78.0, 61678.54358894153, 65363.340421121175, -31619.82823846677, -2035.0369256778868, 16601.355862779124, 7225.179043433553, 26945.273810061673, 4733.361868067011, 38001.81007406832, 46786.85030780439, 37053.649074274195, 46370.32554987974, 23454.087788353896, 26204.224074390422, -6503.150642293768, -644.6243100910557, -0.13653125, 0.96690625, 0.301, 192.0, 0.0, 0.0, 0.0, 0.0, 0.0, 0.0, 0.0, 0.0, 0.0, 1.7068829543328772E9, 0.0, 2024-02-02 15:09:14.332
80.0, 61679.28119650856, 65364.525063577305, -31612.83214245226, -2024.1739778726076, 16613.157583851527, 7237.6289650951585, 26964.116330637495, 4750.528007808686, 37999.172568222595, 46783.408139158266, 37055.168992897154, 46370.34790162419, 23457.574660488925, 26207.2862633808, -6497.450947457665, -638.2764146657485, -0.13653125, 0.96690625, 0.301, 192.0, 0.0, 0.0, 0.0, 0.0, 0.0, 0.0, 0.0, 0.0, 0.0, 1.706882954338676E9, 0.0, 2024-02-02 15:09:14.338
82.0, 61668.06062079199, 65353.3268396052, -31614.441468053043, -2028.1972918745628, 16610.676540216988, 7233.00215399291, 26974.33107785357, 4749.544531052653, 37995.37277166519, 46789.6442758613, 37052.1962108846, 46372.87364874764, 23458.7369512006, 26211.667205294038, -6492.868839844327, -632.6661268074664, -0.13653125, 0.96690625, 0.301, 192.0, 0.0, 0.0, 0.0, 0.0, 0.0, 0.0, 0.0, 0.0, 0.0, 1.7068829543476403E9, 0.0, 2024-02-02 15:09:14.347
84.0, 61669.93816732624, 65355.33849660618, -31611.982776162957, -2028.8231407193114, 16611.704720461934, 7236.891357528134, 26972.878214463977, 4752.450257831843, 37994.29988793134, 46790.02425551704, 37054.00670218548, 46372.67248304754, 23455.920631399233, 26210.102583182168, -6492.935895077693, -631.8614640070754, -0.135265625, 0.9664531249999999, 0.3015, 192.0, 125.5, 104.0, 15.0, 24.0, 4.5, 56.0, 0.0, 0.0, 0.0, 1.7068829543556893E9, 0.0, 2024-02-02 15:09:14.355
86.0, 61664.998431801614, 65347.78360698028, -31617.190732621046, -2035.3051466113504, 16599.970054622896, 7227.123645201164, 26954.080397377063, 4741.028516415181, 37988.28726867286, 46770.77940354102, 37049.67046376115, 46367.48687833391, 23454.914802898744, 26202.36887960063, -6500.1331567923025, -639.5281123552456, -0.135265625, 0.9664531249999999, 0.3015, 192.0, 0.0, 0.0, 0.0, 0.0, 0.0, 0.0, 0.0, 0.0, 0.0, 1.706882954362667E9, 0.0, 2024-02-02 15:09:14.362
88.0, 61678.409478474794, 65359.160644908035, -31614.17324711958, -2025.805655217845, 16606.452060514934, 7234.678534827058, 26959.735388724257, 4748.069315918603, 37991.01418149641, 46782.60347635788, 37055.124289408246, 46374.77354702634, 23460.54744250148, 26209.297920381778, -6500.513136448042, -638.8128565326758, -0.135265625, 0.9664531249999999, 0.3015, 192.0, 0.0, 0.0, 0.0, 0.0, 0.0, 0.0, 0.0, 0.0, 0.0, 1.7068829543720152E9, 0.0, 2024-02-02 15:09:14.372
90.0, 61694.16745831579, 65374.51629334883, -31612.92154943008, -2021.737637726979, 16607.65905471552, 7237.159578461597, 26969.413694073402, 4751.667946775907, 37999.731361833976, 46782.8940490358, 37064.064987190366, 46382.10491920768, 23465.12955011482, 26210.795487260282, -6494.344054978377, -630.2074349173827, -0.135265625, 0.9664531249999999, 0.3015, 192.0, 0.0, 0.0, 0.0, 0.0, 0.0, 0.0, 0.0, 0.0, 0.0, 1.7068829543797224E9, 0.0, 2024-02-02 15:09:14.379
92.0, 61708.91960965629, 65392.19652321297, -31609.322918572776, -2018.742503969968, 16606.295598303746, 7236.064342983287, 26964.85393820452, 4747.443467073854, 37999.88782404516, 46795.90276430878, 37064.132042423735, 46384.161279697575, 23459.385151789804, 26211.242522149387, -6502.211869026646, -629.7380482838212, -0.135265625, 0.9664531249999999, 0.3015, 192.0, 0.0, 0.0, 0.0, 0.0, 0.0, 0.0, 0.0, 0.0, 0.0, 1.7068829543877704E9, 0.0, 2024-02-02 15:09:14.387
94.0, 61717.32386557149, 65403.059471018256, -31608.54060751684, -2018.966021414521, 16607.86022041562, 7234.253851682407, 26956.270868333682, 4742.682545504874, 38003.73232409148, 46807.682133636736, 37070.770510526956, 46392.65494259059, 23467.655297238267, 26216.003443718368, -6498.188555024691, -628.6651645499664, -0.1306328125, 0.9672265624999999, 0.30174999999999996, 192.0, 126.0, 8.0, 15.0, 32.0, 4.5, 56.0, 0.0, 0.0, 0.0, 1.7068829543947327E9, 0.0, 2024-02-02 15:09:14.394
96.0, 61734.0206186796, 65423.37720672813, -31600.49397951293, -2008.192480587063, 16614.81161294122, 7244.6697645985805, 26974.062856920107, 4757.971138712303, 38004.402876425134, 46816.064037807475, 37077.252516419, 46401.05919850578, 23470.896300184286, 26221.85960076566, -6490.208982254146, -621.646716791, -0.1306328125, 0.9672265624999999, 0.30174999999999996, 192.0, 0.0, 0.0, 0.0, 0.0, 0.0, 0.0, 0.0, 0.0, 0.0, 1.7068829544037428E9, 0.0, 2024-02-02 15:09:14.403
98.0, 61741.1731769053, 65436.81060514577, -31605.92545341557, -2013.3557335562389, 16607.68140645998, 7238.8583110402005, 26955.779129955667, 4745.27534786169, 38007.77798983789, 46831.732610670646, 37078.884193764236, 46406.06598926378, 23470.918651928743, 26222.06076646576, -6493.449985200165, -624.2171674033603, -0.1306328125, 0.9672265624999999, 0.30174999999999996, 192.0, 0.0, 0.0, 0.0, 0.0, 0.0, 0.0, 0.0, 0.0, 0.0, 1.7068829544117763E9, 0.0, 2024-02-02 15:09:14.411
100.0, 61760.440380625776, 65457.97770714494, -31596.62712772216, -2004.4597392630267, 16619.103147876638, 7246.971994277477, 26978.399095344437, 4758.5522840681415, 38012.315393962315, 46825.80939838999, 37084.42742638915, 46406.35656194169, 23467.87881468282, 26221.166696687545, -6491.818307854928, -624.2395191478156, -0.1306328125, 0.9672265624999999, 0.30174999999999996, 192.0, 0.0, 0.0, 0.0, 0.0, 0.0, 0.0, 0.0, 0.0, 0.0, 1.7068829544187665E9, 0.0, 2024-02-02 15:09:14.418
102.0, 61765.246005683664, 65462.828035691746, -31604.047906881322, -2011.7911114443675, 16607.81551692671, 7236.600784850215, 26964.406903315416, 4747.13054265148, 38017.79157135386, 46835.89003513933, 37087.266097934975, 46410.75985559939, 23470.941003673197, 26222.53015309932, -6493.002950311059, -622.3619726135698, -0.1306328125, 0.9672265624999999, 0.30174999999999996, 192.0, 0.0, 0.0, 0.0, 0.0, 0.0, 0.0, 0.0, 0.0, 0.0, 1.7068829544277716E9, 0.0, 2024-02-02 15:09:14.427
104.0, 61776.913616289334, 65473.378059074654, -31597.096514355722, -2005.2420503189626, 16609.91658090551, 7239.998250007421, 26963.66929574839, 4750.438600830866, 38020.272614988404, 46835.621814205864, 37089.76949331397, 46410.648096877114, 23468.97405016113, 26220.22792342042, -6498.590886424886, -624.775961014743, -0.13031640625000002, 0.9726132812499999, 0.301875, 192.0, 125.5, 120.0, 15.0, 72.0, 4.5, 56.0, 0.0, 0.0, 0.0, 1.706882954435794E9, 0.0, 2024-02-02 15:09:14.435
106.0, 61788.84944782847, 65485.693870269526, -31588.58049971825, -2002.8727654067, 16612.062348373216, 7242.211072708496, 26967.20087137233, 4753.813714243617, 38036.008243084936, 46839.44396250772, 37103.71698185408, 46415.543128912825, 23479.568777032946, 26224.56416184475, -6489.9854648095925, -617.8469202335979, -0.13031640625000002, 0.9726132812499999, 0.301875, 192.0, 0.0, 0.0, 0.0, 0.0, 0.0, 0.0, 0.0, 0.0, 0.0, 1.7068829544427896E9, 0.0, 2024-02-02 15:09:14.442
108.0, 61798.57245666653, 65497.8085157643, -31586.14415957262, -1999.2517828049401, 16624.176993867994, 7249.989479778944, 26990.312575139116, 4770.622226074008, 38044.16662981112, 46849.479895768156, 37105.303955710406, 46419.16411151458, 23480.619309022346, 26227.20166769048, -6487.124441519313, -617.0422574332068, -0.13031640625000002, 0.9726132812499999, 0.301875, 192.0, 0.0, 0.0, 0.0, 0.0, 0.0, 0.0, 0.0, 0.0, 0.0, 1.7068829544508119E9, 0.0, 2024-02-02 15:09:14.450
110.0, 61795.04088104259, 65495.37217561867, -31599.666964968084, -2007.678390464591, 16613.582266996178, 7243.194549464531, 26978.10852266652, 4763.89435099296, 38052.41442351513, 46838.438134007236, 37101.9064905532, 46415.56548065728, 23477.758285732067, 26221.90430425457, -6488.622008397819, -619.5680045566564, -0.13031640625000002, 0.9726132812499999, 0.301875, 192.0, 0.0, 0.0, 0.0, 0.0, 0.0, 0.0, 0.0, 0.0, 0.0, 1.7068829544598095E9, 0.0, 2024-02-02 15:09:14.459
112.0, 61809.86008761646, 65509.27496066988, -31595.107209099202, -2000.2352595609736, 16617.493822275857, 7251.4199914240835, 26985.506950081224, 4772.6338830749855, 38066.004284143964, 46846.55181724451, 37096.854996306305, 46418.44885569201, 23470.918651928743, 26224.1394787001, -6491.594790410375, -612.0578184196733, -0.13031640625000002, 0.9726132812499999, 0.301875, 192.0, 0.0, 0.0, 0.0, 0.0, 0.0, 0.0, 0.0, 0.0, 0.0, 1.7068829544679294E9, 0.0, 2024-02-02 15:09:14.467
114.0, 61817.07970107552, 65514.77348980588, -31597.07416261127, -2001.0175706169096, 16617.694987975956, 7249.788314078845, 26979.49433082275, 4768.476458606298, 38082.231650618516, 46853.682023725756, 37098.48667365154, 46424.215605761485, 23471.969183918143, 26228.699234568983, -6487.504421175054, -606.4028270724806, -0.132158203125, 0.9733066406249999, 0.29993749999999997, 192.0, 125.5, 104.0, 15.0, 56.0, 4.5, 40.0, 0.0, 0.0, 0.0, 1.7068829544749367E9, 0.0, 2024-02-02 15:09:14.474
116.0, 61820.72303542174, 65521.5684201203, -31597.655307967107, -2008.9300881540883, 16612.688197217965, 7240.668802341081, 26973.638173775456, 4759.982795713281, 38097.90022348169, 46848.83169517895, 37103.47111266507, 46425.64611740662, 23473.422047307737, 26227.84986827968, -6491.281865988, -610.2026236298829, -0.132158203125, 0.9733066406249999, 0.29993749999999997, 192.0, 0.0, 0.0, 0.0, 0.0, 0.0, 0.0, 0.0, 0.0, 0.0, 1.7068829544828985E9, 0.0, 2024-02-02 15:09:14.482
118.0, 61825.506308735174, 65526.48580390046, -31597.92352890057, -2017.580213258292, 16612.084700117673, 7235.438494138539, 26969.368990584495, 4752.98669969877, 38107.08679045281, 46854.62079699288, 37099.514853896486, 46423.05331504981, 23467.856462938365, 26221.881952510113, -6499.730825392106, -624.1277604255391, -0.132158203125, 0.9733066406249999, 0.29993749999999997, 192.0, 0.0, 0.0, 0.0, 0.0, 0.0, 0.0, 0.0, 0.0, 0.0, 1.7068829544918563E9, 0.0, 2024-02-02 15:09:14.491
120.0, 61835.83281467352, 65540.70151337404, -31592.134427086647, -2012.260498077929, 16622.947647922952, 7244.602709365215, 26979.784903500666, 4761.681528291885, 38123.045935993905, 46845.79185793303, 37106.06391502189, 46423.790922616834, 23466.78357920451, 26223.401871133075, -6491.661845643741, -622.8313592471313, -0.132158203125, 0.9733066406249999, 0.29993749999999997, 192.0, 0.0, 0.0, 0.0, 0.0, 0.0, 0.0, 0.0, 0.0, 0.0, 1.7068829544991293E9, 0.0, 2024-02-02 15:09:14.499
122.0, 61839.25263157519, 65544.52366167589, -31598.236453322945, -2012.6628294781244, 16616.73386296438, 7240.355877918706, 26976.7674179992, 4758.127600923491, 38141.19555249161, 46856.14071561584, 37111.76360985799, 46435.32442275577, 23478.428838065727, 26237.170545717545, -6483.168182750725, -611.968411441852, -0.132158203125, 0.9733066406249999, 0.29993749999999997, 192.0, 0.0, 0.0, 0.0, 0.0, 0.0, 0.0, 0.0, 0.0, 0.0, 1.7068829545070825E9, 0.0, 2024-02-02 15:09:14.507
124.0, 61844.90762292238, 65548.94930707804, -31597.49884575592, -2008.192480587063, 16615.43746178597, 7242.926328531066, 26974.264022620206, 4758.328766623588, 38139.58622689083, 46850.172799846274, 37103.20289173161, 46433.156303543605, 23463.810797191956, 26231.873182281637, -6493.673502644719, -622.5407865692123, -0.132158203125, 0.9733066406249999, 0.29993749999999997, 192.0, 0.0, 0.0, 0.0, 0.0, 0.0, 0.0, 0.0, 0.0, 0.0, 1.706882954515915E9, 0.0, 2024-02-02 15:09:14.515
126.0, 61852.44016080382, 65561.1310078062, -31592.022668364367, -2002.7833584288787, 16614.90101991904, 7246.81553206629, 26977.43797033286, 4763.804944015139, 38149.5551049179, 46855.80543944901, 37114.78109535946, 46444.77921066037, 23466.78357920451, 26239.495127140897, -6489.1584502647465, -611.2531556192822, -0.138, 0.97, 0.304, 192.0, 125.5, 88.0, 15.0, 40.0, 4.5, 64.0, 0.0, 0.0, 0.0, 1.7068829545239131E9, 0.0, 2024-02-02 15:09:14.523
128.0, 61857.06697190607, 65564.86374913022, -31589.943956130024, -2003.3645037847168, 16618.924333920997, 7246.949642533022, 26978.28733662216, 4765.280159149189, 38158.898134100215, 46870.021148922584, 37121.39721171823, 46450.210684563004, 23466.336544315403, 26243.898420798592, -6487.99615955307, -603.0277136597292, -0.138, 0.97, 0.304, 192.0, 0.0, 0.0, 0.0, 0.0, 0.0, 0.0, 0.0, 0.0, 0.0, 1.7068829545310628E9, 0.0, 2024-02-02 15:09:14.531
130.0, 61858.363373084474, 65565.10961831923, -31595.62129922167, -2006.6055067307364, 16615.795089697254, 7247.262566955396, 26964.362199826504, 4760.161609668924, 38158.11582304428, 46850.55277950201, 37116.144551771235, 46437.58194894576, 23465.375419303826, 26236.00825500587, -6492.265342744034, -609.777940485232, -0.138, 0.97, 0.304, 192.0, 0.0, 0.0, 0.0, 0.0, 0.0, 0.0, 0.0, 0.0, 0.0, 1.7068829545392296E9, 0.0, 2024-02-02 15:09:14.539
132.0, 61856.50817829469, 65566.54012996437, -31600.046944623824, -2009.1089021097307, 16607.010854126318, 7242.591052364237, 26952.672237476378, 4754.014879943715, 38162.85439286881, 46865.70726224271, 37112.232996491555, 46441.7617251589, 23464.324887314426, 26242.534964386818, -6496.445118957176, -610.1132166520616, -0.138, 0.97, 0.304, 192.0, 0.0, 0.0, 0.0, 0.0, 0.0, 0.0, 0.0, 0.0, 0.0, 1.706882954547978E9, 0.0, 2024-02-02 15:09:14.547
134.0, 61863.90660570939, 65578.25244405895, -31591.463874752986, -1999.6317624606804, 16619.125499621096, 7252.515226902393, 26982.891795979955, 4768.4094033729325, 38161.33447424584, 46867.07071865448, 37110.131932512755, 46443.25929203741, 23462.536747758004, 26241.43972890851, -6494.6793311452075, -612.1248736530392, -0.138, 0.97, 0.304, 192.0, 0.0, 0.0, 0.0, 0.0, 0.0, 0.0, 0.0, 0.0, 0.0, 1.7068829545549638E9, 0.0, 2024-02-02 15:09:14.554
136.0, 61868.376954600455, 65581.47109526052, -31591.597985219716, -2000.3693700277056, 16617.4714705314, 7252.716392602491, 26974.19696738684, 4763.89435099296, 38172.890326129236, 46876.6149135369, 37121.39721171823, 46455.396289276636, 23464.8389774369, 26254.023761036846, -6481.134174005291, -604.9499636828856, -0.132, 0.968, 0.302, 192.0, 125.5, 112.0, 15.0, 32.0, 4.5, 56.0, 0.0, 0.0, 0.0, 1.7068829545632684E9, 0.0, 2024-02-02 15:09:14.563
138.0, 61859.36920158497, 65573.20094981205, -31603.01972663638, -2008.4830532649821, 16608.217848326905, 7247.083752999753, 26963.46813004829, 4756.898254978449, 38169.71637841659, 46882.49342232865, 37110.37780170176, 46448.04256535084, 23457.395846533283, 26252.325028458243, -6494.791089867484, -614.9858969433185, -0.132, 0.968, 0.302, 192.0, 0.0, 0.0, 0.0, 0.0, 0.0, 0.0, 0.0, 0.0, 0.0, 1.7068829545722337E9, 0.0, 2024-02-02 15:09:14.572
140.0, 61866.566463299576, 65576.84428415827, -31596.06833411078, -2002.068102606309, 16615.839793186165, 7253.029317024865, 26969.77132198469, 4762.687356792374, 38171.616276695284, 46865.059061653505, 37109.48373192355, 46443.61691994869, 23458.133454100305, 26249.62046737915, -6492.108880532847, -613.3765713425364, -0.132, 0.968, 0.302, 192.0, 0.0, 0.0, 0.0, 0.0, 0.0, 0.0, 0.0, 0.0, 0.0, 1.7068829545790205E9, 0.0, 2024-02-02 15:09:14.579
142.0, 61864.443047576315, 65573.67033644562, -31596.470665510973, -2002.7833584288787, 16615.258647830327, 7243.708639587002, 26977.370915099495, 4760.98862421377, 38176.60071570882, 46866.37781457637, 37110.80248484641, 46446.23207404996, 23462.089712868896, 26250.00044703489, -6486.386833952289, -606.7381032393102, -0.132, 0.968, 0.302, 192.0, 0.0, 0.0, 0.0, 0.0, 0.0, 0.0, 0.0, 0.0, 0.0, 1.7068829545870032E9, 0.0, 2024-02-02 15:09:14.587
144.0, 61863.57132954256, 65572.44099050057, -31602.371526047176, -2007.9466113980548, 16608.888400660562, 7237.360744161695, 26962.48465329226, 4749.075144419092, 38171.146890061726, 46855.827791193464, 37105.28160396595, 46437.26902452338, 23456.50177675507, 26235.62827535013, -6494.612275911842, -616.7516847552878, -0.132, 0.968, 0.302, 192.0, 0.0, 0.0, 0.0, 0.0, 0.0, 0.0, 0.0, 0.0, 0.0, 1.7068829545953104E9, 0.0, 2024-02-02 15:09:14.595
146.0, 61869.271024378664, 65577.38072602519, -31596.470665510973, -2003.4762625069932, 16614.25281932984, 7241.071133741276, 26973.504063308726, 4756.585330556075, 38183.596811723335, 46860.74517497363, 37110.198987746124, 46441.828780392265, 23458.133454100305, 26241.976170775437, -6490.499554932065, -616.4611120773687, -0.132, 0.972, 0.304, 192.0, 125.5, 112.0, 15.0, 48.0, 4.5, 64.0, 0.0, 0.0, 0.0, 1.7068829546043012E9, 0.0, 2024-02-02 15:09:14.604
148.0, 61870.63448079044, 65580.04058361538, -31591.888557897637, -2001.554012483837, 16618.5220025208, 7244.803875065312, 26976.722714510288, 4760.7204032803065, 38189.676486215176, 46874.13386990236, 37111.56244415789, 46444.823914149274, 23460.636849479302, 26248.10054875619, -6487.079738030403, -612.9965916867961, -0.132, 0.972, 0.304, 192.0, 0.0, 0.0, 0.0, 0.0, 0.0, 0.0, 0.0, 0.0, 0.0, 1.7068829546110334E9, 0.0, 2024-02-02 15:09:14.611
150.0, 61888.38176588795, 65593.87631343321, -31574.945935600514, -1989.5958292002476, 16634.838775973174, 7258.505494416416, 26989.977298972288, 4775.830182532094, 38200.360620064814, 46869.08237565546, 37122.9618338301, 46452.19998981953, 23469.73400947261, 26250.112205757167, -6478.340205948378, -609.7555887407767, -0.132, 0.972, 0.304, 192.0, 0.0, 0.0, 0.0, 0.0, 0.0, 0.0, 0.0, 0.0, 0.0, 1.7068829546193087E9, 0.0, 2024-02-02 15:09:14.619
152.0, 61876.8035622601, 65581.44874351606, -31592.29088929783, -2001.8892886506665, 16612.218810584403, 7243.708639587002, 26964.362199826504, 4756.60768230053, 38209.70364924713, 46877.2631141261, 37131.25433102302, 46460.224266078985, 23475.143131630797, 26256.638915138115, -6476.216790225124, -604.1676526269499, -0.132, 0.972, 0.304, 192.0, 0.0, 0.0, 0.0, 0.0, 0.0, 0.0, 0.0, 0.0, 0.0, 1.7068829546271083E9, 0.0, 2024-02-02 15:09:14.627
154.0, 61874.41192560339, 65578.18538882559, -31594.034325365345, -2004.4150357741162, 16614.141060607562, 7242.635755853147, 26968.832548717564, 4756.98766195627, 38190.36939029329, 46861.72865172967, 37110.3107464684, 46440.934710614056, 23451.137358085794, 26236.47764163943, -6497.160374779746, -622.5631383136677, -0.132, 0.972, 0.304, 192.0, 0.0, 0.0, 0.0, 0.0, 0.0, 0.0, 0.0, 0.0, 0.0, 1.706882954635085E9, 0.0, 2024-02-02 15:09:14.635
156.0, 61875.48480933724, 65580.53232199339, -31588.424037507062, -1998.000085115443, 16615.795089697254, 7247.307270444307, 26966.127987638472, 4759.7816300131835, 38197.790169452455, 46861.907465685304, 37118.15620877221, 46451.842361908246, 23460.100407612375, 26244.30075219879, -6484.419880440221, -612.9965916867961, -0.134, 0.972, 0.304, 192.0, 125.5, 104.0, 15.0, 48.0, 4.5, 64.0, 0.0, 0.0, 0.0, 1.706882954643088E9, 0.0, 2024-02-02 15:09:14.643
158.0, 61877.943501227324, 65582.14164759418, -31586.412380506084, -1992.0545210903313, 16614.990426896864, 7250.324755945773, 26965.256269604717, 4759.692223035362, 38201.478207287575, 46874.44679432474, 37118.46913319459, 46457.363242788706, 23460.41333203475, 26249.352246445687, -6486.252723485556, -607.7215799953437, -0.134, 0.972, 0.304, 192.0, 0.0, 0.0, 0.0, 0.0, 0.0, 0.0, 0.0, 0.0, 0.0, 1.7068829546513872E9, 0.0, 2024-02-02 15:09:14.651
160.0, 61883.41967861888, 65588.3330808083, -31582.031438592847, -1987.7182826660019, 16616.823269942197, 7255.8232850817785, 26968.519624295193, 4762.508542836731, 38202.6181462548, 46865.2602273536, 37123.475923952574, 46460.067803867794, 23460.97212564613, 26249.218135978954, -6485.403357196255, -607.3192485951482, -0.134, 0.972, 0.304, 192.0, 0.0, 0.0, 0.0, 0.0, 0.0, 0.0, 0.0, 0.0, 0.0, 1.7068829546601417E9, 0.0, 2024-02-02 15:09:14.660
162.0, 61879.105791939, 65585.69557496256, -31591.39681951962, -1997.2401258039627, 16607.14496459305, 7245.362668676695, 26957.164938111895, 4749.70099326384, 38208.519006791, 46872.412785579305, 37125.666394909196, 46462.50414401342, 23461.97795414662, 26252.325028458243, -6489.471374687121, -610.3814375855253, -0.134, 0.972, 0.304, 192.0, 0.0, 0.0, 0.0, 0.0, 0.0, 0.0, 0.0, 0.0, 0.0, 1.7068829546671755E9, 0.0, 2024-02-02 15:09:14.667
164.0, 61883.57614083006, 65589.33890930879, -31587.68642994004, -1995.1167100807083, 16614.923371663495, 7250.7717908348795, 26963.62459225948, 4751.779705498184, 38207.066143401404, 46870.870515211886, 37122.67126115218, 46458.59258873374, 23460.949773901677, 26249.754577845884, -6491.9747700661155, -613.6000887870895, -0.134, 0.972, 0.304, 192.0, 0.0, 0.0, 0.0, 0.0, 0.0, 0.0, 0.0, 0.0, 0.0, 1.7068829546754189E9, 0.0, 2024-02-02 15:09:14.675
166.0, 61879.01638496118, 65582.14164759418, -31588.178168318056, -1997.8436229042559, 16613.582266996178, 7245.7873518213455, 26953.85687993251, 4743.576615283086, 38209.34602133585, 46870.42348032278, 37127.43218272116, 46462.951178902535, 23461.35210530187, 26253.33085695873, -6487.325607219411, -614.292992865204, -0.134, 0.964, 0.302, 192.0, 125.5, 104.0, 15.0, 16.0, 4.5, 56.0, 0.0, 0.0, 0.0, 1.7068829546831536E9, 0.0, 2024-02-02 15:09:14.683
168.0, 61875.66362329288, 65580.44291501558, -31593.16260733159, -2000.7493496834459, 16610.296560561248, 7246.234386710452, 26959.489519535247, 4743.956594938826, 38208.65311725773, 46879.07360542698, 37125.241711764545, 46463.42056553609, 23459.54161400099, 26255.76719710436, -6492.064177043936, -615.7905597437095, -0.134, 0.964, 0.302, 192.0, 0.0, 0.0, 0.0, 0.0, 0.0, 0.0, 0.0, 0.0, 0.0, 1.7068829546911843E9, 0.0, 2024-02-02 15:09:14.691
170.0, 61876.87061749347, 65581.09111560478, -31589.809845663294, -1998.0894920932642, 16620.846583944152, 7251.487046657449, 26971.380647585473, 4752.204388642835, 38200.04769564244, 46867.718919243685, 37120.749011129024, 46457.43029802207, 23455.518299999036, 26250.738054601916, -6491.639493899285, -619.9032807234861, -0.134, 0.964, 0.302, 192.0, 0.0, 0.0, 0.0, 0.0, 0.0, 0.0, 0.0, 0.0, 0.0, 1.7068829546993933E9, 0.0, 2024-02-02 15:09:14.699
172.0, 61859.637422518426, 65562.09213281776, -31594.749581187916, -2003.4315590180827, 16616.48799377537, 7247.620194866681, 26968.05023766163, 4751.84676073155, 38201.70172473213, 46874.580904791466, 37120.16786577319, 46459.53136200087, 23462.22382333563, 26255.52132791535, -6483.883438573294, -611.9237079529414, -0.134, 0.964, 0.302, 192.0, 0.0, 0.0, 0.0, 0.0, 0.0, 0.0, 0.0, 0.0, 0.0, 1.7068829547072337E9, 0.0, 2024-02-02 15:09:14.707
174.0, 61842.068951376554, 65542.51200467492, -31599.085819612246, -2006.8960794086552, 16612.86701117361, 7242.523997130871, 26959.13189162396, 4747.242301373756, 38180.60167796632, 46858.308834828, 37105.21454873259, 46443.34869901523, 23446.063512094443, 26242.28909519781, -6493.852316600361, -622.1161034245615, -0.134, 0.964, 0.302, 192.0, 0.0, 0.0, 0.0, 0.0, 0.0, 0.0, 0.0, 0.0, 0.0, 1.7068829547152472E9, 0.0, 2024-02-02 15:09:14.715
176.0, 61837.03980887411, 65535.29239121585, -31588.558147973796, -1996.3907595146609, 16619.81840369921, 7247.799008822323, 26961.85880444751, 4754.081935177081, 38178.768834920986, 46854.46433478169, 37111.54009241344, 46445.740335671944, 23453.238422064594, 26246.379464433132, -6490.074871787414, -616.5281673107347, -0.136, 0.972, 0.304, 192.0, 125.5, 96.0, 15.0, 48.0, 4.5, 64.0, 0.0, 0.0, 0.0, 1.7068829547223115E9, 0.0, 2024-02-02 15:09:14.722
178.0, 61813.68223591831, 65506.25747516841, -31596.1577410886, -2003.6997799515464, 16616.756214708832, 7241.048781996821, 26962.395246314438, 4750.148028152947, 38173.873802885275, 46852.16210510279, 37106.354487699806, 46439.593605946735, 23452.72433194212, 26243.540792887306, -6494.232296256101, -618.3610103560699, -0.136, 0.972, 0.304, 192.0, 0.0, 0.0, 0.0, 0.0, 0.0, 0.0, 0.0, 0.0, 0.0, 1.7068829547315452E9, 0.0, 2024-02-02 15:09:14.731
180.0, 61799.80180261157, 65479.48008531095, -31591.374467775164, -2002.7833584288787, 16625.16047062403, 7249.408334423106, 26969.301935351126, 4759.446353846354, 38166.676541170666, 46830.77148565906, 37099.38074342975, 46425.35554472871, 23452.523166242026, 26238.511650384862, -6493.3829299668, -621.5796615576342, -0.136, 0.972, 0.304, 192.0, 0.0, 0.0, 0.0, 0.0, 0.0, 0.0, 0.0, 0.0, 0.0, 1.7068829547392912E9, 0.0, 2024-02-02 15:09:14.739
182.0, 61754.74068578967, 65430.75328239838, -31607.668889483084, -2022.1846726160852, 16611.39179603956, 7233.963279004488, 26959.511871279705, 4746.504693806732, 38159.56868643388, 46825.11649431187, 37091.28941193693, 46417.443027191526, 23452.053779608465, 26239.182202718523, -6491.751252621562, -620.6185365460559, -0.136, 0.972, 0.304, 192.0, 0.0, 0.0, 0.0, 0.0, 0.0, 0.0, 0.0, 0.0, 0.0, 1.7068829547472963E9, 0.0, 2024-02-02 15:09:14.747
184.0, 61732.9700866902, 65406.72515710893, -31604.718459214982, -2021.4917685379708, 16620.44425254396, 7238.701848829013, 26969.726618495777, 4754.305452621634, 38141.62023563626, 46806.94452606971, 37074.056216961886, 46399.449872905, 23443.135433570795, 26230.934409014513, -6493.941723578182, -627.905205238486, -0.136, 0.972, 0.304, 192.0, 0.0, 0.0, 0.0, 0.0, 0.0, 0.0, 0.0, 0.0, 0.0, 1.7068829547545812E9, 0.0, 2024-02-02 15:09:14.754
186.0, 61708.58433348946, 65380.01482248483, -31618.710651244004, -2036.73565825649, 16608.48606926037, 7226.922479501067, 26949.945324652832, 4739.150969880935, 38132.0983924983, 46790.605400872875, 37063.68500753463, 46387.46933787696, 23440.430872491703, 26223.491278110898, -6501.988351582093, -636.5776820871451, -0.134, 0.974, 0.306, 192.0, 125.5, 104.0, 15.0, 56.0, 4.5, 72.0, 0.0, 0.0, 0.0, 1.7068829547632842E9, 0.0, 2024-02-02 15:09:14.763
188.0, 61707.4667462667, 65377.37731663911, -31614.48617154195, -2031.0136116759315, 16614.744557707854, 7232.242194681429, 26954.57213575508, 4745.476513561787, 38128.008023262984, 46790.895973550796, 37054.341978352306, 46378.19336392801, 23439.626209691312, 26221.926655999025, -6507.755101651562, -641.6962315674105, -0.134, 0.974, 0.306, 192.0, 0.0, 0.0, 0.0, 0.0, 0.0, 0.0, 0.0, 0.0, 0.0, 1.7068829547713053E9, 0.0, 2024-02-02 15:09:14.771
190.0, 61694.03334784906, 65362.8263309987, -31625.39382283614, -2038.6355565351912, 16604.306293047226, 7226.363685889684, 26938.23301055825, 4736.60287101303, 38131.40548842019, 46783.65400834728, 37056.95713245358, 46375.51115459337, 23440.900259125265, 26218.931522242015, -6510.549069708475, -640.3774786445473, -0.134, 0.974, 0.306, 192.0, 0.0, 0.0, 0.0, 0.0, 0.0, 0.0, 0.0, 0.0, 0.0, 1.7068829547783105E9, 0.0, 2024-02-02 15:09:14.778
192.0, 61690.814696647496, 65363.630993799095, -31627.137258903655, -2037.2497483789623, 16604.596865725143, 7226.698962056514, 26954.862708433, 4738.726286736284, 38122.911825527175, 46783.22932520263, 37047.59175152681, 46369.78910801281, 23428.562096185935, 26212.896551239082, -6515.891136633294, -641.2268449338491, -0.134, 0.974, 0.306, 192.0, 0.0, 0.0, 0.0, 0.0, 0.0, 0.0, 0.0, 0.0, 0.0, 1.7068829547873528E9, 0.0, 2024-02-02 15:09:14.787
194.0, 61689.741812913635, 65358.177168152, -31626.0643751698, -2036.3780303452052, 16602.47345000189, 7228.66591556858, 26953.119272365486, 4740.4697228037985, 38119.02262199195, 46783.87752579183, 37049.64811201669, 46372.22544815844, 23429.05383456395, 26215.176429173524, -6513.834776143405, -637.9858419878295, -0.134, 0.974, 0.306, 192.0, 0.0, 0.0, 0.0, 0.0, 0.0, 0.0, 0.0, 0.0, 0.0, 1.7068829547954414E9, 0.0, 2024-02-02 15:09:14.795
196.0, 61692.15580131481, 65361.01583969782, -31621.750488489928, -2034.5675390443255, 16600.171220322994, 7226.520148100871, 26951.66640897589, 4739.46389430331, 38115.66986032365, 46775.07093847644, 37052.12915565123, 46371.33137838023, 23426.77395662951, 26212.42716460552, -6512.381912753811, -636.8906065095194, -0.138, 0.974, 0.304, 192.0, 125.5, 88.0, 15.0, 56.0, 4.5, 64.0, 0.0, 0.0, 0.0, 1.7068829548035543E9, 0.0, 2024-02-02 15:09:14.803
198.0, 61710.05954862351, 65378.89723526207, -31613.770915719382, -2024.7998267173562, 16606.42970877048, 7235.371438905173, 26960.942382924844, 4748.918682207905, 38123.06828773836, 46791.387711928815, 37058.9464377101, 46382.26138141887, 23431.691340409678, 26215.623464062628, -6507.285715018001, -630.1627314284721, -0.138, 0.974, 0.304, 192.0, 0.0, 0.0, 0.0, 0.0, 0.0, 0.0, 0.0, 0.0, 0.0, 1.7068829548106513E9, 0.0, 2024-02-02 15:09:14.810
200.0, 61725.88458369787, 65398.164438982545, -31604.62905223716, -2017.4237510471048, 16615.03513038577, 7246.949642533022, 26965.122159137984, 4758.060545690125, 38130.28790119742, 46792.88527880732, 37072.35748438328, 46395.04657924731, 23436.787538145487, 26229.258028180368, -6498.747348636073, -620.4844260793241, -0.138, 0.974, 0.304, 192.0, 0.0, 0.0, 0.0, 0.0, 0.0, 0.0, 0.0, 0.0, 0.0, 1.7068829548194053E9, 0.0, 2024-02-02 15:09:14.819
202.0, 61742.55898506153, 65422.37137822764, -31601.075124868767, -2018.8989661811552, 16618.276133331794, 7249.631851867659, 26966.373856827482, 4761.3239003806, 38143.72129961506, 46814.00767731758, 37082.77339729946, 46407.74237009792, 23443.69422718218, 26238.936333529513, -6492.354749721855, -612.4377980754135, -0.138, 0.974, 0.304, 192.0, 0.0, 0.0, 0.0, 0.0, 0.0, 0.0, 0.0, 0.0, 0.0, 1.7068829548264587E9, 0.0, 2024-02-02 15:09:14.826
204.0, 61749.44332235376, 65432.072035321245, -31606.35013656022, -2018.9883731589764, 16618.43259554298, 7248.335450689251, 26961.747045725235, 4755.803019500139, 38142.961340303584, 46818.63448841983, 37078.951248997604, 46408.12234975366, 23442.01784634803, 26238.846926551694, -6493.114709033336, -616.8187399886536, -0.138, 0.974, 0.304, 192.0, 0.0, 0.0, 0.0, 0.0, 0.0, 0.0, 0.0, 0.0, 0.0, 1.70688295483438E9, 0.0, 2024-02-02 15:09:14.834
206.0, 61756.75234279065, 65444.14197732711, -31609.792305206338, -2015.7250184685015, 16613.023473384794, 7247.709601844502, 26961.47882479177, 4750.662118275419, 38150.04684329592, 46827.798703646506, 37087.66842933517, 46417.443027191526, 23447.65048595077, 26248.659342367573, -6488.8678775868275, -611.9907631863074, -0.13, 0.972, 0.294, 192.0, 125.5, 120.0, 15.0, 48.0, 4.5, 24.0, 0.0, 0.0, 0.0, 1.706882954843646E9, 0.0, 2024-02-02 15:09:14.843
208.0, 61757.22172942421, 65447.315925039766, -31622.666910012595, -2027.2138151185293, 16601.71349069041, 7235.080866227254, 26950.72763570877, 4739.285080347667, 38139.608578635285, 46830.12328506986, 37075.19615592911, 46408.211756731485, 23434.753529400055, 26237.05878699527, -6509.833813885905, -628.5981093166005, -0.13, 0.972, 0.294, 192.0, 0.0, 0.0, 0.0, 0.0, 0.0, 0.0, 0.0, 0.0, 0.0, 1.706882954851418E9, 0.0, 2024-02-02 15:09:14.851
210.0, 61773.426744154305, 65463.878567681146, -31615.91668318709, -2020.5529952708478, 16608.57547623819, 7239.9758982629655, 26958.10371137902, 4747.287004862667, 38142.04491878091, 46824.31183151148, 37078.61597283077, 46411.363352699685, 23430.9313810982, 26229.302731669275, -6510.325552263922, -635.84007452012, -0.13, 0.972, 0.294, 192.0, 0.0, 0.0, 0.0, 0.0, 0.0, 0.0, 0.0, 0.0, 0.0, 1.7068829548584597E9, 0.0, 2024-02-02 15:09:14.858
212.0, 61777.22654071171, 65471.03112590685, -31615.626110509173, -2026.4985592959595, 16602.741670935353, 7231.549290603315, 26944.871478661476, 4738.435714058365, 38148.07988978385, 46835.152427572306, 37086.5508421124, 46421.51104468239, 23440.766148658535, 26232.923714271037, -6503.552973693964, -630.1850831729273, -0.13, 0.972, 0.294, 192.0, 0.0, 0.0, 0.0, 0.0, 0.0, 0.0, 0.0, 0.0, 0.0, 1.7068829548665125E9, 0.0, 2024-02-02 15:09:14.866
214.0, 61793.565665908536, 65486.878512725656, -31604.137313859144, -2020.7318092264902, 16610.363615794613, 7237.9195377730775, 26957.679028234368, 4745.364754839511, 38146.381157205244, 46831.84436939292, 37086.28262117894, 46418.24768999192, 23438.374512001814, 26224.452403122476, -6508.246840029578, -637.8070280321871, -0.13, 0.972, 0.294, 192.0, 0.0, 0.0, 0.0, 0.0, 0.0, 0.0, 0.0, 0.0, 0.0, 1.706882954875685E9, 0.0, 2024-02-02 15:09:14.875
216.0, 61801.85816310146, 65496.802687263815, -31601.924491158068, -2018.8542626922444, 16615.95155190844, 7240.802912807812, 26962.752874225724, 4751.109153164524, 38159.389872478234, 46838.68400319624, 37100.52068239697, 46431.546977942824, 23450.757378430055, 26233.594266604694, -6495.7969183679725, -627.8157982606648, -0.126, 0.968, 0.306, 192.0, 126.0, 8.0, 15.0, 32.0, 4.5, 72.0, 0.0, 0.0, 0.0, 1.7068829548824472E9, 0.0, 2024-02-02 15:09:14.882
218.0, 61802.75223287967, 65499.2613791539, -31609.054697639313, -2026.4315040625936, 16617.404415298035, 7236.019639494377, 26968.00553417272, 4751.13150490898, 38157.9593608331, 46847.311776555995, 37095.49153989453, 46428.820065119275, 23452.701980197668, 26232.94606601549, -6498.926162591715, -625.8935482375084, -0.126, 0.968, 0.306, 192.0, 0.0, 0.0, 0.0, 0.0, 0.0, 0.0, 0.0, 0.0, 0.0, 1.7068829548914557E9, 0.0, 2024-02-02 15:09:14.891
220.0, 61807.15552653737, 65503.95524548951, -31613.614453508195, -2026.5656145293256, 16617.694987975956, 7237.71837207298, 26965.971525427285, 4751.064449675614, 38149.1527735177, 46836.24766305061, 37091.40117065921, 46426.450780207015, 23443.604820204357, 26227.268722923844, -6503.7764911385175, -628.0616674496731, -0.126, 0.968, 0.306, 192.0, 0.0, 0.0, 0.0, 0.0, 0.0, 0.0, 0.0, 0.0, 0.0, 1.7068829548986604E9, 0.0, 2024-02-02 15:09:14.898
222.0, 61810.75415739467, 65509.99021649244, -31618.174209377077, -2032.9135099546327, 16612.039996628762, 7232.488063870438, 26956.561441011603, 4743.867187961005, 38147.990482806024, 46843.33316604295, 37089.41186540268, 46427.18838777404, 23449.148052829274, 26229.347435158186, -6504.156470794257, -628.8439785056089, -0.126, 0.968, 0.306, 192.0, 0.0, 0.0, 0.0, 0.0, 0.0, 0.0, 0.0, 0.0, 0.0, 1.7068829549064922E9, 0.0, 2024-02-02 15:09:14.906
224.0, 61816.207983041764, 65516.67338808458, -31613.50269478592, -2028.7337337414901, 16616.6221042421, 7236.8019505503125, 26957.23199334526, 4747.17524614039, 38146.09058452733, 46845.054250366, 37088.11546422428, 46426.33902148474, 23448.07516909542, 26228.09573746869, -6507.173956295724, -631.3026703956926, -0.126, 0.968, 0.306, 192.0, 0.0, 0.0, 0.0, 0.0, 0.0, 0.0, 0.0, 0.0, 0.0, 1.7068829549155028E9, 0.0, 2024-02-02 15:09:14.915
226.0, 61812.587000440006, 65513.074757227274, -31616.40842156511, -2035.3722018447165, 16614.25281932984, 7231.102255714209, 26960.897679435933, 4744.64949901694, 38141.03909028043, 46833.87837813835, 37085.34384791182, 46422.69568713853, 23446.331733027906, 26223.156001944066, -6505.989313839593, -633.9625279858742, -0.128, 0.968, 0.303, 192.0, 125.5, 120.0, 15.0, 32.0, 4.5, 48.0, 0.0, 0.0, 0.0, 1.7068829549236512E9, 0.0, 2024-02-02 15:09:14.923
228.0, 61816.766776653145, 65514.281751427865, -31616.229607609464, -2040.6695652806243, 16613.694025718454, 7230.118778958175, 26954.415673543892, 4741.140275137458, 38143.49778217051, 46843.400221276315, 37082.169900199166, 46419.6558498926, 23443.962448115642, 26220.85377226517, -6509.565592952442, -640.93627225593, -0.128, 0.968, 0.303, 192.0, 0.0, 0.0, 0.0, 0.0, 0.0, 0.0, 0.0, 0.0, 0.0, 1.7068829549305348E9, 0.0, 2024-02-02 15:09:14.930
230.0, 61825.90864013537, 65524.38473992166, -31616.87780819867, -2036.4674373230264, 16615.929200163984, 7234.656183082603, 26963.311667837104, 4749.2763101191895, 38140.659110624685, 46835.86768339488, 37085.61206884528, 46420.9075475821, 23446.01880860553, 26217.34454838569, -6507.643342929286, -640.2433681778155, -0.128, 0.968, 0.303, 192.0, 0.0, 0.0, 0.0, 0.0, 0.0, 0.0, 0.0, 0.0, 0.0, 1.7068829549388387E9, 0.0, 2024-02-02 15:09:14.938
232.0, 61823.00291335618, 65522.64130385415, -31627.181962392566, -2043.8211612488226, 16608.553124493734, 7224.8884707556335, 26956.114406122495, 4741.542606537653, 38137.306348956394, 46841.4556195087, 37081.38758914323, 46425.824931362265, 23440.810852147442, 26216.29401639629, -6514.371218010333, -643.4396676349244, -0.128, 0.968, 0.303, 192.0, 0.0, 0.0, 0.0, 0.0, 0.0, 0.0, 0.0, 0.0, 0.0, 1.7068829549476137E9, 0.0, 2024-02-02 15:09:14.947
234.0, 61834.15643383938, 65531.403187680626, -31619.895293700138, -2036.0874576672863, 16620.064272888216, 7233.560947604293, 26963.892813192942, 4749.790400241662, 38137.306348956394, 46846.12713409986, 37084.31566766687, 46428.28362325235, 23447.337561528395, 26213.410641361552, -6515.265287788545, -643.1490949570054, -0.128, 0.968, 0.303, 192.0, 0.0, 0.0, 0.0, 0.0, 0.0, 0.0, 0.0, 0.0, 0.0, 1.7068829549548924E9, 0.0, 2024-02-02 15:09:14.954
236.0, 61836.95040189629, 65533.92893480408, -31617.928340188068, -2033.002916932454, 16613.314046062715, 7233.851520282212, 26957.14258636744, 4750.6844700198735, 38143.98952054853, 46848.94345390123, 37095.24567070552, 46435.2126640335, 23451.427930763715, 26218.81976351974, -6507.598639440374, -635.1695221864608, -0.132, 0.967, 0.3055, 192.0, 125.5, 96.0, 15.0, 24.0, 4.5, 80.0, 0.0, 0.0, 0.0, 1.706882954962597E9, 0.0, 2024-02-02 15:09:14.962
238.0, 61836.81629142956, 65534.30891445982, -31619.895293700138, -2035.707478011546, 16608.217848326905, 7227.660087068091, 26951.7111124648, 4745.565920539609, 38139.92150305766, 46855.26899758208, 37090.66356309218, 46433.648041921624, 23443.67187543772, 26216.495182096387, -6516.137005822302, -636.1753506869496, -0.132, 0.967, 0.3055, 192.0, 0.0, 0.0, 0.0, 0.0, 0.0, 0.0, 0.0, 0.0, 0.0, 1.7068829549716055E9, 0.0, 2024-02-02 15:09:14.971
240.0, 61847.411018301376, 65543.7189988755, -31613.949729675023, -2032.1759023876075, 16607.05555761523, 7229.783502791346, 26946.749025195724, 4745.27534786169, 38140.9049798137, 46847.021203878074, 37096.45266490611, 46433.22335877697, 23445.281201038506, 26215.802278018273, -6514.415921499243, -636.4882751093239, -0.132, 0.967, 0.3055, 192.0, 0.0, 0.0, 0.0, 0.0, 0.0, 0.0, 0.0, 0.0, 0.0, 1.7068829549789765E9, 0.0, 2024-02-02 15:09:14.978
242.0, 61859.16803588487, 65554.6266501697, -31602.505636513906, -2022.8775766942, 16615.95155190844, 7235.438494138539, 26961.411769558403, 4751.667946775907, 38150.06919504037, 46856.43128829376, 37108.96964180108, 46445.51681822739, 23454.624230220823, 26225.52528685633, -6504.37998823881, -629.6709930504553, -0.132, 0.967, 0.3055, 192.0, 0.0, 0.0, 0.0, 0.0, 0.0, 0.0, 0.0, 0.0, 0.0, 1.706882954986642E9, 0.0, 2024-02-02 15:09:14.986
244.0, 61858.20691087329, 65551.6762199016, -31605.612528993195, -2024.1516261281522, 16611.99529313985, 7237.6289650951585, 26957.835490445555, 4753.143161909958, 38145.80001184941, 46859.337015072946, 37105.95215629961, 46445.22624554947, 23450.243288307585, 26224.653568822574, -6505.564630694942, -628.9110337389748, -0.132, 0.967, 0.3055, 192.0, 0.0, 0.0, 0.0, 0.0, 0.0, 0.0, 0.0, 0.0, 0.0, 1.706882954994645E9, 0.0, 2024-02-02 15:09:14.994
246.0, 61858.81040797358, 65559.11935080521, -31604.20436909251, -2017.4684545360155, 16612.352921051137, 7238.47833138446, 26951.62170548698, 4750.952690953337, 38147.230523494545, 46860.2087331067, 37110.690726124136, 46448.0649170953, 23452.433759264204, 26230.196801447488, -6502.725959149117, -626.6982110378995, -0.133, 0.9655, 0.30574999999999997, 192.0, 125.5, 104.0, 15.0, 16.0, 4.5, 72.0, 0.0, 0.0, 0.0, 1.7068829550038092E9, 0.0, 2024-02-02 15:09:15.003
248.0, 61864.62186153196, 65567.63536544268, -31601.142180102135, -2010.025323632398, 16616.376235053092, 7244.602709365215, 26954.706246221813, 4756.205350900334, 38143.318968214866, 46871.295198356536, 37108.2096824896, 46451.52943748587, 23452.210241819652, 26233.706025326974, -6505.989313839593, -623.5689668141564, -0.133, 0.9655, 0.30574999999999997, 192.0, 0.0, 0.0, 0.0, 0.0, 0.0, 0.0, 0.0, 0.0, 0.0, 1.7068829550106733E9, 0.0, 2024-02-02 15:09:15.010
250.0, 61869.91922496787, 65571.45751374454, -31593.38612477614, -2006.0243613748983, 16623.998179912352, 7247.799008822323, 26968.00553417272, 4763.5367230816755, 38152.125555530256, 46871.988102434654, 37120.056107050914, 46456.379766032675, 23461.866195424343, 26238.824574807237, -6493.874668344816, -613.3095161091705, -0.133, 0.9655, 0.30574999999999997, 192.0, 0.0, 0.0, 0.0, 0.0, 0.0, 0.0, 0.0, 0.0, 0.0, 1.70688295501871E9, 0.0, 2024-02-02 15:09:15.018
252.0, 61863.72779175375, 65565.64606018616, -31597.67765971156, -2014.450969034549, 16620.6230664996, 7239.081828484754, 26967.513795794704, 4757.412345100921, 38149.57745666235, 46874.26798036909, 37118.13385702775, 46456.62563522168, 23464.16842510324, 26236.142365472602, -6492.175935766213, -614.8964899654973, -0.133, 0.9655, 0.30574999999999997, 192.0, 0.0, 0.0, 0.0, 0.0, 0.0, 0.0, 0.0, 0.0, 0.0, 1.7068829550266936E9, 0.0, 2024-02-02 15:09:15.026
254.0, 61859.52566379615, 65563.43323748508, -31601.186883591043, -2015.8144254463227, 16618.96903740991, 7236.198453450019, 26962.19408061434, 4754.305452621634, 38140.0556135244, 46868.344768088435, 37110.422505190676, 46450.47890549647, 23454.937154643198, 26226.75463280137, -6497.518002691031, -622.0266964467403, -0.133, 0.9655, 0.30574999999999997, 192.0, 0.0, 0.0, 0.0, 0.0, 0.0, 0.0, 0.0, 0.0, 0.0, 1.7068829550351243E9, 0.0, 2024-02-02 15:09:15.035
0.0, 61874.166056414375, 65579.57119698182, -31590.905081141602, -2004.2362218184737, 16631.418959071514, 7246.77082857738, 26980.34369711205, 4768.677624306396, 38143.318968214866, 46865.23787560915, 37113.08236278086, 46454.05518460932, 23456.03239012151, 26228.274551424332, -6494.47816544511, -620.3503156125922, -0.1345, 0.96575, 0.306875, 192.0, 125.5, 96.0, 15.0, 24.0, 4.5, 80.0, 0.0, 0.0, 0.0, 1.7068829550427039E9, 0.0, 2024-02-02 15:09:15.042
2.0, 61870.70153602381, 65577.26896730292, -31595.911871899592, -2004.6832567075799, 16625.026360157295, 7247.106104744209, 26978.689668022358, 4766.487153349776, 38149.84567759582, 46883.83452699596, 37121.39721171823, 46466.795678948845, 23469.376381561327, 26239.361016674164, -6486.967979308126, -607.1404346395058, -0.1345, 0.96575, 0.306875, 192.0, 0.0, 0.0, 0.0, 0.0, 0.0, 0.0, 0.0, 0.0, 0.0, 1.706882955050732E9, 0.0, 2024-02-02 15:09:15.050
4.0, 61862.29728010861, 65569.98229861048, -31598.01293587839, -2006.9631346420213, 16623.171165367505, 7245.4967791434265, 26974.57694704258, 4766.643615560963, 38132.45602040959, 46865.79666922053, 37113.10471452531, 46455.35158578773, 23456.92645989972, 26227.62635083513, -6499.417900969733, -618.3386586116146, -0.1345, 0.96575, 0.306875, 192.0, 0.0, 0.0, 0.0, 0.0, 0.0, 0.0, 0.0, 0.0, 0.0, 1.7068829550597112E9, 0.0, 2024-02-02 15:09:15.059
6.0, 61867.52758831115, 65573.89385389017, -31591.575633475262, -2001.3975502726496, 16623.05940664523, 7248.871892556178, 26967.62555451698, 4767.3588713835325, 38142.22373273656, 46877.55368680402, 37121.732487885056, 46463.88995216965, 23469.912823428254, 26239.495127140897, -6491.550086921464, -608.7274084958325, -0.1345, 0.96575, 0.306875, 192.0, 0.0, 0.0, 0.0, 0.0, 0.0, 0.0, 0.0, 0.0, 0.0, 1.706882955066832E9, 0.0, 2024-02-02 15:09:15.066
8.0, 61857.71517249527, 65560.23693802797, -31600.449276024017, -2011.5005387664485, 16613.358749551626, 7241.3840581636505, 26956.963772411797, 4758.172304412402, 38136.814610578374, 46871.11638440089, 37113.95408081461, 46452.445859008534, 23460.905070412766, 26230.10739446967, -6502.90477310476, -620.0373911902179, -0.1345, 0.96575, 0.306875, 192.0, 0.0, 0.0, 0.0, 0.0, 0.0, 0.0, 0.0, 0.0, 0.0, 1.7068829550747447E9, 0.0, 2024-02-02 15:09:15.074
