%OpenBCI Raw EXG Data
%Number of channels = 16
%Sample Rate = 125 Hz
%Board = OpenBCI_GUI$BoardCytonSerialDaisy
Sample Index, EXG Channel 0, EXG Channel 1, EXG Channel 2, EXG Channel 3, EXG Channel 4, EXG Channel 5, EXG Channel 6, EXG Channel 7, EXG Channel 8, EXG Channel 9, EXG Channel 10, EXG Channel 11, EXG Channel 12, EXG Channel 13, EXG Channel 14, EXG Channel 15, Accel Channel 0, Accel Channel 1, Accel Channel 2, Other, Other, Other, Other, Other, Other, Other, Analog Channel 0, Analog Channel 1, Analog Channel 2, Timestamp, Other, Timestamp (Formatted)
38.0, 61915.270914467685, 65699.0636228399, -31745.8920771947, -2249.524265471013, 16702.45280295048, 7177.256903321374, 26877.346858661993, 4764.766069026718, 38356.68872078523, 47103.68628545837, 37157.87525866929, 46593.35125605479, 23442.978971359607, 26282.388124750632, -6696.806156254549, -650.6592810939886, 0.0, 0.0, 0.0, 192.0, 0.0, 0.0, 0.0, 0.0, 0.0, 0.0, 0.0, 0.0, 0.0, 1.706882986617103E9, 0.0, 2024-02-02 15:09:46.617
40.0, 61918.04253078014, 65701.56701821888, -31745.8920771947, -2250.083059082396, 16700.418794205045, 7176.6981097099915, 26870.216652180752, 4762.285025392178, 38368.02105522407, 47095.483195243265, 37164.46902328361, 46596.01111364498, 23448.924535384722, 26286.791418408327, -6688.692473017272, -641.2044931893937, 0.0, 0.0, 0.0, 192.0, 0.0, 0.0, 0.0, 0.0, 0.0, 0.0, 0.0, 0.0, 0.0, 1.7068829866171343E9, 0.0, 2024-02-02 15:09:46.617
0.0, 30943.129175082348, 32852.68340738814, -15899.28756943793, -1189.2469154890675, 8422.271421226433, 3581.7776419851357, 13410.353769106123, 2388.7085781942105, 19183.474085745107, 23548.590963910934, 18577.987680195296, 23294.56338817637, 11719.80192897343, 13140.970544930762, -3350.772363039537, -325.597861480458, -0.114, 0.974, 0.292, 192.0, 126.0, 56.0, 15.0, 56.0, 4.5, 16.0, 0.0, 0.0, 0.0, 1.7068829866992297E9, 0.0, 2024-02-02 15:09:46.699
2.0, 61889.0076147327, 65709.14425958923, -31801.302051699407, -2383.2324008026603, 16841.838281373773, 7157.989699600899, 26814.560808487036, 4771.739813296773, 38507.47358888073, 47198.614144160056, 37244.33180622242, 46732.46851354463, 23512.31408265997, 26393.789219115883, -6809.280134353654, -613.9800684428297, -0.114, 0.974, 0.292, 192.0, 0.0, 0.0, 0.0, 0.0, 0.0, 0.0, 0.0, 0.0, 0.0, 1.7068829867061875E9, 0.0, 2024-02-02 15:09:46.706
4.0, 61907.49250739724, 65726.93624817565, -31792.920147528668, -2372.637673930845, 16848.76732215492, 7163.1976560589865, 26819.053509122554, 4780.725214567807, 38516.95072852978, 47203.30801049567, 37257.921666851245, 46745.49958056207, 23521.344187419916, 26400.47239070802, -6802.1052243835, -607.7215799953437, -0.114, 0.974, 0.292, 192.0, 0.0, 0.0, 0.0, 0.0, 0.0, 0.0, 0.0, 0.0, 0.0, 1.70688298671332E9, 0.0, 2024-02-02 15:09:46.713
6.0, 61913.77334758918, 65734.02175116798, -31794.507121384995, -2375.3869384988475, 16845.347505253256, 7157.699126922981, 26819.813468434033, 4777.484211621787, 38514.91671978435, 47210.1923477879, 37255.86530636136, 46745.29841486197, 23514.504553616593, 26397.499608695463, -6809.391893075931, -611.968411441852, -0.114, 0.974, 0.292, 192.0, 0.0, 0.0, 0.0, 0.0, 0.0, 0.0, 0.0, 0.0, 0.0, 1.7068829867202172E9, 0.0, 2024-02-02 15:09:46.720
8.0, 61937.98028683428, 65757.35697237933, -31778.592679332818, -2359.584255168945, 16850.75662741144, 7170.059641606766, 26815.186657331786, 4781.596932601564, 38524.595025133494, 47213.835682134115, 37270.37158851285, 46755.021423700025, 23518.550219363, 26405.210960532542, -6806.173241874367, -609.196795129394, -0.106, 0.978, 0.29, 192.0, 126.0, 88.0, 15.0, 72.0, 4.5, 8.0, 0.0, 0.0, 0.0, 1.7068829867292604E9, 0.0, 2024-02-02 15:09:46.729
10.0, 61936.28155425568, 65758.9662979801, -31778.32445839935, -2362.8699616038757, 16846.48744422048, 7162.124772325132, 26816.237189321186, 4781.284008179189, 38537.112002028465, 47230.21951081986, 37283.69322820821, 46767.62780757282, 23525.345149677414, 26414.822210648326, -6804.183936617844, -603.4076933154695, -0.106, 0.978, 0.29, 192.0, 0.0, 0.0, 0.0, 0.0, 0.0, 0.0, 0.0, 0.0, 0.0, 1.7068829867372272E9, 0.0, 2024-02-02 15:09:46.737
12.0, 61934.67222865489, 65758.02752471299, -31785.38760964723, -2368.9049326068084, 16846.91212736513, 7157.922644367533, 26827.524820271115, 4781.976912257303, 38525.91377805636, 47223.33517352762, 37270.23747804612, 46757.86009524585, 23513.31991116046, 26399.22069301852, -6805.592096518529, -609.7108852518661, -0.106, 0.978, 0.29, 192.0, 0.0, 0.0, 0.0, 0.0, 0.0, 0.0, 0.0, 0.0, 0.0, 1.7068829867444196E9, 0.0, 2024-02-02 15:09:46.744
14.0, 61952.330106774585, 65778.12174297831, -31773.38472287473, -2353.5269324215574, 16863.161845584138, 7177.525124254838, 26842.254619867163, 4800.595915388574, 38531.43465893682, 47221.77055141575, 37278.21705081667, 46768.32071165094, 23520.248951941605, 26406.552065199863, -6794.706796968794, -599.1832136134165, -0.106, 0.978, 0.29, 192.0, 0.0, 0.0, 0.0, 0.0, 0.0, 0.0, 0.0, 0.0, 0.0, 1.706882986752263E9, 0.0, 2024-02-02 15:09:46.752
16.0, 61955.9734411208, 65782.94971978065, -31778.369161888262, -2358.041984801529, 16856.501025736456, 7171.3560427851735, 26839.08067215451, 4795.18679323039, 38541.40353696389, 47238.1990835904, 37280.60868747338, 46776.3896913993, 23524.249914199107, 26413.27994028091, -6788.872991665959, -593.550574010679, -0.106, 0.978, 0.29, 192.0, 0.0, 0.0, 0.0, 0.0, 0.0, 0.0, 0.0, 0.0, 0.0, 1.7068829867612996E9, 0.0, 2024-02-02 15:09:46.761
18.0, 61970.47972327229, 65797.8359815879, -31769.272001894955, -2348.0507550300067, 16859.764380426932, 7179.894409167101, 26832.576314518014, 4799.254810721256, 38543.906932342885, 47232.40998177648, 37285.28020206454, 46777.66374083325, 23520.047786241506, 26410.217751290533, -6792.2034015898, -601.5077950367684, -0.098, 0.986, 0.28600000000000003, 192.0, 126.0, 120.0, 15.0, 104.0, 4.0, 120.0, 0.0, 0.0, 0.0, 1.706882986768272E9, 0.0, 2024-02-02 15:09:46.768
20.0, 61968.758638949235, 65799.19943799966, -31770.233126906533, -2350.2635777310825, 16854.51172047993, 7176.474592265438, 26828.17302086032, 4796.080863008602, 38557.85442088299, 47246.31276682768, 37296.14314986982, 46792.32648519594, 23527.289751445027, 26419.38196651721, -6790.415262033375, -597.7974054571874, -0.098, 0.986, 0.28600000000000003, 192.0, 0.0, 0.0, 0.0, 0.0, 0.0, 0.0, 0.0, 0.0, 0.0, 1.7068829867767344E9, 0.0, 2024-02-02 15:09:46.776
22.0, 61971.910234917435, 65802.9321793237, -31766.209812904577, -2345.5473596510124, 16862.603051972754, 7187.3822435596285, 26843.931000701312, 4809.067226537136, 38551.9982638357, 47246.64804299451, 37290.66697247827, 46789.53251713902, 23524.60754211039, 26417.50441998296, -6790.4599655222855, -598.5126612797573, -0.098, 0.986, 0.28600000000000003, 192.0, 0.0, 0.0, 0.0, 0.0, 0.0, 0.0, 0.0, 0.0, 0.0, 1.7068829867842808E9, 0.0, 2024-02-02 15:09:46.784
24.0, 61962.43309526838, 65792.73978385208, -31773.76470253047, -2356.633824900845, 16861.396057772166, 7179.916760911556, 26841.382901833404, 4802.764034600739, 38552.646464424906, 47241.7530109588, 37292.030428890044, 46789.30899969447, 23528.8543735569, 26422.242989807488, -6785.073195108556, -592.8800216770198, -0.098, 0.986, 0.28600000000000003, 192.0, 0.0, 0.0, 0.0, 0.0, 0.0, 0.0, 0.0, 0.0, 0.0, 1.7068829867933254E9, 0.0, 2024-02-02 15:09:46.793
26.0, 61956.26401379872, 65786.68246110469, -31784.247670680008, -2369.351967495915, 16850.264889033424, 7167.913874139056, 26823.479154524703, 4787.073109993114, 38542.38701371992, 47238.48965626832, 37276.652428704794, 46775.9426565102, 23524.02639675455, 26411.89413212468, -6796.159660358389, -601.4630915478577, -0.098, 0.986, 0.28600000000000003, 192.0, 0.0, 0.0, 0.0, 0.0, 0.0, 0.0, 0.0, 0.0, 0.0, 1.7068829868004744E9, 0.0, 2024-02-02 15:09:46.800
28.0, 61971.44084828387, 65799.40060369976, -31769.495519339507, -2357.37143246787, 16862.938328139582, 7177.6368829771145, 26827.77068946012, 4793.286894951689, 38547.192638777815, 47235.56157774467, 37281.72627469615, 46776.36733965485, 23520.695986830713, 26410.79889664637, -6798.305427826099, -608.9509259403856, -0.10400000000000001, 0.988, 0.28800000000000003, 192.0, 126.0, 96.0, 15.0, 112.0, 4.5, 0.0, 0.0, 0.0, 0.0, 1.7068829868083735E9, 0.0, 2024-02-02 15:09:46.808
30.0, 61968.98215639379, 65799.7358798666, -31771.90950774068, -2359.4501447022135, 16855.76341816943, 7171.8254294187345, 26823.859134180446, 4789.084766994091, 38552.86998186946, 47247.29624358371, 37289.48233002214, 46785.41979615924, 23526.775661322554, 26416.386832760196, -6793.835078935037, -603.4076933154695, -0.10400000000000001, 0.988, 0.28800000000000003, 192.0, 0.0, 0.0, 0.0, 0.0, 0.0, 0.0, 0.0, 0.0, 0.0, 1.7068829868173506E9, 0.0, 2024-02-02 15:09:46.817
32.0, 61969.876226172004, 65801.18874325618, -31770.72486528455, -2356.723231878666, 16856.545729225367, 7173.725327697436, 26824.50733476965, 4790.649389105963, 38547.52791494464, 47250.78311571874, 37285.28020206454, 46785.06216824796, 23521.36653916437, 26411.648262935672, -6799.199497604311, -606.3134200946594, -0.10400000000000001, 0.988, 0.28800000000000003, 192.0, 0.0, 0.0, 0.0, 0.0, 0.0, 0.0, 0.0, 0.0, 0.0, 1.7068829868243835E9, 0.0, 2024-02-02 15:09:46.824
34.0, 61969.49624651626, 65799.7358798666, -31768.936725728123, -2350.598853897912, 16857.95388912605, 7177.1674963435535, 26826.250770837163, 4793.800985074161, 38549.67368241235, 47246.715098227876, 37294.62323124686, 46791.857098562374, 23528.161469478782, 26418.532600227907, -6789.655302721894, -597.7079984793662, -0.10400000000000001, 0.988, 0.28800000000000003, 192.0, 0.0, 0.0, 0.0, 0.0, 0.0, 0.0, 0.0, 0.0, 0.0, 1.7068829868327594E9, 0.0, 2024-02-02 15:09:46.832
36.0, 61961.270804556705, 65794.14794375276, -31780.514929355973, -2357.282025490049, 16846.95683085404, 7173.5241619973385, 26810.246921807164, 4786.715482081829, 38540.554170674586, 47256.751031488304, 37285.123739853356, 46789.30899969447, 23519.578399607944, 26419.38196651721, -6796.874916180959, -602.6700857484443, -0.10400000000000001, 0.988, 0.28800000000000003, 192.0, 0.0, 0.0, 0.0, 0.0, 0.0, 0.0, 0.0, 0.0, 0.0, 1.7068829868403971E9, 0.0, 2024-02-02 15:09:46.840
38.0, 61964.154179591445, 65796.65133913176, -31771.596583318304, -2347.2907957185266, 16857.596261214767, 7188.052795893288, 26830.676416239312, 4800.953543299859, 38537.179057261834, 47250.85017095211, 37285.63782997583, 46790.02425551704, 23516.672672828758, 26423.829963663815, -6793.67861672385, -601.3736845700365, -0.10400000000000001, 0.978, 0.28400000000000003, 192.0, 126.0, 96.0, 15.0, 72.0, 4.0, 112.0, 0.0, 0.0, 0.0, 1.7068829868494158E9, 0.0, 2024-02-02 15:09:46.849
40.0, 61950.9219468739, 65780.6251383573, -31775.172862431154, -2353.3257667214593, 16855.13756932468, 7181.257865578875, 26834.96795117473, 4796.147918241968, 38537.06729853956, 47249.710231984885, 37286.24132707612, 46785.68801709271, 23523.71347233218, 26427.741518943494, -6784.290884052621, -591.0024751427741, -0.10400000000000001, 0.978, 0.28400000000000003, 192.0, 0.0, 0.0, 0.0, 0.0, 0.0, 0.0, 0.0, 0.0, 0.0, 1.7068829868563993E9, 0.0, 2024-02-02 15:09:46.856
42.0, 61938.561432190116, 65765.80593178344, -31778.19034793262, -2355.5162376780795, 16854.310554779837, 7180.386147545118, 26832.64336975138, 4795.209144974845, 38528.70774611327, 47240.99305164732, 37277.92647813875, 46775.42856638772, 23517.45498388469, 26421.393623518186, -6793.812727190581, -600.16669036945, -0.10400000000000001, 0.978, 0.28400000000000003, 192.0, 0.0, 0.0, 0.0, 0.0, 0.0, 0.0, 0.0, 0.0, 0.0, 1.7068829868644106E9, 0.0, 2024-02-02 15:09:46.864
44.0, 61924.233963994266, 65749.98089670908, -31776.804539776393, -2355.113906277884, 16857.283336792392, 7180.900237667589, 26830.475250539217, 4795.94675254187, 38526.003185034184, 47225.168016572956, 37278.64173396132, 46770.93586575221, 23520.98655950863, 26417.79499266088, -6791.018759133668, -598.0656263906511, -0.10400000000000001, 0.978, 0.28400000000000003, 192.0, 0.0, 0.0, 0.0, 0.0, 0.0, 0.0, 0.0, 0.0, 0.0, 1.7068829868726444E9, 0.0, 2024-02-02 15:09:46.872
46.0, 61899.5129346267, 65722.97998940706, -31781.654868323192, -2357.4384877012358, 16854.042333846373, 7178.687414966514, 26821.713366712735, 4792.951618784859, 38514.96142327326, 47230.64419396451, 37271.77974841354, 46768.16424943975, 23520.36071066388, 26420.097222339777, -6795.600866747006, -597.5962397570896, -0.10400000000000001, 0.978, 0.28400000000000003, 192.0, 0.0, 0.0, 0.0, 0.0, 0.0, 0.0, 0.0, 0.0, 0.0, 1.706882986879518E9, 0.0, 2024-02-02 15:09:46.879
48.0, 61852.976602670744, 65681.36104123128, -31786.549900358907, -2365.75333663861, 16857.171578070116, 7172.227760818931, 26832.285741840096, 4792.2810664512, 38504.34434465699, 47206.43725471941, 37262.1461465533, 46752.92035972123, 23518.393757151814, 26410.441268735085, -6796.24906733621, -601.4854432923131, -0.098, 0.982, 0.29, 192.0, 126.0, 120.0, 15.0, 88.0, 4.5, 8.0, 0.0, 0.0, 0.0, 1.7068829868887415E9, 0.0, 2024-02-02 15:09:46.888
50.0, 61834.29054430611, 65652.5496426284, -31789.120350971265, -2373.4423367312356, 16852.835339645786, 7164.382298515117, 26826.16136385934, 4784.748528569762, 38488.69812353827, 47188.15352775497, 37248.824506857934, 46737.65411825826, 23515.42097513926, 26404.56275994334, -6796.58434350304, -604.8382049606091, -0.098, 0.982, 0.29, 192.0, 0.0, 0.0, 0.0, 0.0, 0.0, 0.0, 0.0, 0.0, 0.0, 1.7068829868964832E9, 0.0, 2024-02-02 15:09:46.896
52.0, 61813.10109056248, 65622.10656668026, -31792.048429494913, -2379.2761420340707, 16854.66818269112, 7158.839065890202, 26820.931055656798, 4777.417156388421, 38475.08591116499, 47175.07775724861, 37236.77691659652, 46723.974850651604, 23515.108050716884, 26396.22555926151, -6799.668884237873, -609.6885335074107, -0.098, 0.982, 0.29, 192.0, 0.0, 0.0, 0.0, 0.0, 0.0, 0.0, 0.0, 0.0, 0.0, 1.7068829869047608E9, 0.0, 2024-02-02 15:09:46.904
54.0, 61800.964093323244, 65606.28153160591, -31797.65871735319, -2387.3898252713475, 16845.23574653098, 7150.837141375201, 26810.11281134043, 4766.621263816508, 38466.18991687178, 47156.52580935071, 37232.73125085011, 46715.660001714234, 23514.61631233887, 26389.140056269178, -6799.937105171336, -611.6107835305671, -0.098, 0.982, 0.29, 192.0, 0.0, 0.0, 0.0, 0.0, 0.0, 0.0, 0.0, 0.0, 0.0, 1.7068829869125967E9, 0.0, 2024-02-02 15:09:46.912
56.0, 61783.79795358157, 65592.66931923262, -31803.470170911572, -2389.557944483512, 16838.016133071917, 7150.211292530453, 26801.082706580488, 4760.496885835753, 38456.89159117837, 47162.247855931266, 37222.3823931673, 46710.072065600405, 23506.480277357135, 26386.41314344563, -6812.856413466503, -618.1151411670616, -0.098, 0.982, 0.29, 192.0, 0.0, 0.0, 0.0, 0.0, 0.0, 0.0, 0.0, 0.0, 0.0, 1.7068829869205015E9, 0.0, 2024-02-02 15:09:46.920
58.0, 61783.68619485929, 65592.26698783242, -31799.78213307645, -2379.164383311794, 16849.907261122138, 7165.27636829333, 26829.26825633863, 4778.490040122276, 38443.569951483005, 47156.034070972695, 37220.594253610885, 46707.3228010324, 23500.735879032123, 26390.503512680953, -6810.353018087509, -614.6953242653996, -0.10200000000000001, 0.98, 0.29, 192.0, 126.0, 104.0, 15.0, 80.0, 4.5, 8.0, 0.0, 0.0, 0.0, 1.706882986928532E9, 0.0, 2024-02-02 15:09:46.928
60.0, 61773.449095898766, 65584.26506331743, -31810.287452970442, -2390.47436600618, 16837.300877249345, 7157.967347856445, 26813.867904408922, 4769.8175632736165, 38440.775983426094, 47159.85621927455, 37220.41543965524, 46709.73678943358, 23497.807800508475, 26396.449076706063, -6807.8943261974255, -609.5767747851343, -0.10200000000000001, 0.98, 0.29, 192.0, 0.0, 0.0, 0.0, 0.0, 0.0, 0.0, 0.0, 0.0, 0.0, 1.7068829869355516E9, 0.0, 2024-02-02 15:09:46.935
62.0, 61774.61138661044, 65583.63921447269, -31808.16403724719, -2390.1614415838053, 16838.016133071917, 7163.1976560589865, 26814.69491895377, 4772.745641797262, 38434.070460089504, 47162.02433848671, 37213.06171572945, 46704.08179808639, 23495.572626062945, 26392.783390615394, -6816.611506534995, -615.7011527658883, -0.10200000000000001, 0.98, 0.29, 192.0, 0.0, 0.0, 0.0, 0.0, 0.0, 0.0, 0.0, 0.0, 0.0, 1.706882986944795E9, 0.0, 2024-02-02 15:09:46.944
64.0, 61773.76202032114, 65582.231054572, -31812.321461715874, -2396.9116684093083, 16834.3727987257, 7159.174342057031, 26806.715346183224, 4769.214066173323, 38435.09864033444, 47152.949530237864, 37216.12390471982, 46703.03126609699, 23498.12072493085, 26390.771733614416, -6817.393817590931, -616.9304987109302, -0.10200000000000001, 0.98, 0.29, 192.0, 0.0, 0.0, 0.0, 0.0, 0.0, 0.0, 0.0, 0.0, 0.0, 1.7068829869526515E9, 0.0, 2024-02-02 15:09:46.952
66.0, 61782.74742159217, 65590.65766223165, -31809.303976214407, -2392.9777613851743, 16836.831490615787, 7164.18113281502, 26812.7279654417, 4775.919589509916, 38433.08698333347, 47156.592864584076, 37211.47474187312, 46700.17024280671, 23494.723259773644, 26389.56473941383, -6824.054637438612, -618.4057138449805, -0.10200000000000001, 0.98, 0.29, 192.0, 0.0, 0.0, 0.0, 0.0, 0.0, 0.0, 0.0, 0.0, 0.0, 1.7068829869606512E9, 0.0, 2024-02-02 15:09:46.960
68.0, 61787.01660478314, 65595.26212158945, -31815.38365070625, -2400.3761887998808, 16837.390284227167, 7159.643728690592, 26809.822238662513, 4772.052737719147, 38435.053936845536, 47160.97380649731, 37220.862474544345, 46706.80871090993, 23501.160562176774, 26395.46559995003, -6815.985657690247, -609.4203125739471, -0.108, 0.974, 0.292, 192.0, 126.0, 80.0, 15.0, 56.0, 4.5, 16.0, 0.0, 0.0, 0.0, 1.7068829869678192E9, 0.0, 2024-02-02 15:09:46.967
70.0, 61795.242046742685, 65608.51670605144, -31812.67908962716, -2400.599706244434, 16836.563269682323, 7156.805057144768, 26804.7260409267, 4770.063432462625, 38429.398945498346, 47158.62687332951, 37214.291061674485, 46698.51621371701, 23491.348146360895, 26385.340259711775, -6824.456968838807, -618.8974522229972, -0.108, 0.974, 0.292, 192.0, 0.0, 0.0, 0.0, 0.0, 0.0, 0.0, 0.0, 0.0, 0.0, 1.7068829869766583E9, 0.0, 2024-02-02 15:09:46.976
72.0, 61807.17787828182, 65624.36409287025, -31812.366165204785, -2402.790177201054, 16834.506909192434, 7151.932376853511, 26805.01661360462, 4765.637787060474, 38434.94217812326, 47175.01070201525, 37218.73905882109, 46708.328629532894, 23495.483219085127, 26388.60361440225, -6822.668829282383, -620.7079435238771, -0.108, 0.974, 0.292, 192.0, 0.0, 0.0, 0.0, 0.0, 0.0, 0.0, 0.0, 0.0, 0.0, 1.7068829869846735E9, 0.0, 2024-02-02 15:09:46.984
74.0, 61818.46550923175, 65641.64199133421, -31808.16403724719, -2395.414101530803, 16839.75956913943, 7151.0383070753, 26808.615244461926, 4766.844781261061, 38436.97618686869, 47176.441213660386, 37226.31630019144, 46715.749408692056, 23497.919559230755, 26388.73772486898, -6820.187785647844, -623.8371877476201, -0.108, 0.974, 0.292, 192.0, 0.0, 0.0, 0.0, 0.0, 0.0, 0.0, 0.0, 0.0, 0.0, 1.7068829869916713E9, 0.0, 2024-02-02 15:09:46.991
76.0, 61828.657904703374, 65655.00833451848, -31812.366165204785, -2398.8115666880094, 16831.95881032453, 7144.109266294154, 26797.30526176754, 4757.948786967849, 38436.32798627949, 47185.1360422535, 37227.67975660321, 46722.20906283964, 23494.7456115181, 26386.65901263464, -6826.938012473347, -632.1743884294497, -0.108, 0.974, 0.292, 192.0, 0.0, 0.0, 0.0, 0.0, 0.0, 0.0, 0.0, 0.0, 0.0, 1.7068829870009325E9, 0.0, 2024-02-02 15:09:47.000
78.0, 61855.9493846833, 65680.73519238654, -31797.77047607547, -2381.7124821796992, 16843.24644127446, 7160.470743235439, 26815.186657331786, 4775.8078307876385, 38443.301730549545, 47185.180745742415, 37239.392070697795, 46730.16628386573, 23498.701870286688, 26386.41314344563, -6822.199442648822, -626.2064726598827, -0.108, 0.974, 0.29, 192.0, 126.0, 80.0, 15.0, 56.0, 4.5, 8.0, 0.0, 0.0, 0.0, 1.706882987008684E9, 0.0, 2024-02-02 15:09:47.008
80.0, 61860.263271363176, 65690.12292505776, -31797.390496419728, -2380.751357168121, 16841.100673806748, 7159.353156012673, 26810.91747414082, 4774.064394720125, 38451.63893123138, 47194.45671969136, 37248.556285924475, 46739.35285083686, 23503.08281219993, 26394.638585405184, -6813.146986144422, -612.5272050532348, -0.108, 0.974, 0.29, 192.0, 0.0, 0.0, 0.0, 0.0, 0.0, 0.0, 0.0, 0.0, 0.0, 1.7068829870166717E9, 0.0, 2024-02-02 15:09:47.016
82.0, 61867.66169877788, 65702.72930893056, -31792.29429868392, -2377.3091885220038, 16853.125912323703, 7165.9916241159, 26827.323654571017, 4782.2674849352225, 38450.96837889771, 47208.35950474257, 37249.69622489169, 46744.20317938366, 23504.51332384507, 26396.35966972824, -6809.324837842565, -609.3309055961258, -0.108, 0.974, 0.29, 192.0, 0.0, 0.0, 0.0, 0.0, 0.0, 0.0, 0.0, 0.0, 0.0, 1.7068829870236883E9, 0.0, 2024-02-02 15:09:47.023
84.0, 61874.83660874804, 65710.88769565674, -31797.23403420854, -2378.426775744769, 16847.94030761007, 7160.627205446626, 26822.518029513125, 4777.975949999804, 38452.08596612048, 47204.87263260754, 37253.18309702672, 46746.6842230182, 23506.16735293476, 26397.633719162193, -6808.162547130889, -608.6380015180113, -0.108, 0.974, 0.29, 192.0, 0.0, 0.0, 0.0, 0.0, 0.0, 0.0, 0.0, 0.0, 0.0, 1.706882987032655E9, 0.0, 2024-02-02 15:09:47.032
86.0, 61878.74816402772, 65711.7594136905, -31802.129066244255, -2382.47244149118, 16841.19008078457, 7155.12867631062, 26819.724061456214, 4775.204333687346, 38451.39306204236, 47209.58885068761, 37247.59516091289, 46745.8348567289, 23501.562893576967, 26393.431591204597, -6817.237355379743, -614.3823998430253, -0.108, 0.974, 0.29, 192.0, 0.0, 0.0, 0.0, 0.0, 0.0, 0.0, 0.0, 0.0, 0.0, 1.7068829870407104E9, 0.0, 2024-02-02 15:09:47.040
88.0, 61898.03771949265, 65729.77491972147, -31789.410923649186, -2370.4472029742246, 16851.740104167475, 7165.946920626989, 26825.580218503503, 4784.525011125209, 38458.21034410124, 47212.025190833236, 37255.91000985027, 46749.500542819565, 23506.41322212377, 26395.398544716663, -6813.035227422146, -611.163748641461, -0.10200000000000001, 0.976, 0.293, 192.0, 126.5, 0.0, 15.0, 72.0, 4.5, 32.0, 0.0, 0.0, 0.0, 1.7068829870477207E9, 0.0, 2024-02-02 15:09:47.047
90.0, 61899.73645207125, 65733.48530930106, -31791.28847018343, -2375.6998629212217, 16846.196871542557, 7162.057717091766, 26824.395576047373, 4783.385072157988, 38466.2793238496, 47218.26132753627, 37264.694245421204, 46755.62492080032, 23515.46567862817, 26401.992309330977, -6807.91667794188, -603.7206177378438, -0.10200000000000001, 0.976, 0.293, 192.0, 0.0, 0.0, 0.0, 0.0, 0.0, 0.0, 0.0, 0.0, 0.0, 1.706882987057548E9, 0.0, 2024-02-02 15:09:47.057
92.0, 61905.36909167399, 65739.22970762607, -31788.561557359884, -2373.0847088199507, 16849.504929721945, 7164.337595026207, 26826.92132317082, 4785.776708814706, 38461.74191972517, 47223.58104271663, 37261.43089073073, 46753.79207775499, 23507.396698879802, 26396.024393561413, -6812.543489044129, -608.3474288400923, -0.10200000000000001, 0.976, 0.293, 192.0, 0.0, 0.0, 0.0, 0.0, 0.0, 0.0, 0.0, 0.0, 0.0, 1.7068829870647347E9, 0.0, 2024-02-02 15:09:47.064
94.0, 61915.20385923432, 65748.4162745972, -31784.71705731357, -2368.6143599288894, 16853.036505345885, 7165.32107178224, 26823.903837669353, 4786.961351270837, 38463.440652303776, 47218.28367928072, 37267.89054487831, 46757.21189465665, 23514.146925705307, 26397.253739506454, -6808.0731401530675, -605.7099229943661, -0.10200000000000001, 0.976, 0.293, 192.0, 0.0, 0.0, 0.0, 0.0, 0.0, 0.0, 0.0, 0.0, 0.0, 1.7068829870720153E9, 0.0, 2024-02-02 15:09:47.072
96.0, 61913.99686503373, 65746.29285887395, -31795.155321974198, -2382.695958935733, 16848.230880287992, 7155.978042599922, 26815.745450943166, 4779.629979089496, 38465.117033137925, 47229.48190325283, 37264.64954193229, 46755.311996377946, 23516.22563793965, 26396.963166828536, -6811.0682739100785, -608.615649773556, -0.10200000000000001, 0.976, 0.293, 192.0, 0.0, 0.0, 0.0, 0.0, 0.0, 0.0, 0.0, 0.0, 0.0, 1.7068829870799177E9, 0.0, 2024-02-02 15:09:47.079
98.0, 61922.199955248834, 65753.98185896658, -31791.020249249967, -2379.0973280784283, 16856.724543181008, 7161.3201095247405, 26834.900895941366, 4790.694092594873, 38459.19382085727, 47219.06599033666, 37258.27929476253, 46746.93009220721, 23512.69406231571, 26388.89418708017, -6814.44338732283, -615.8576149770755, -0.1, 0.978, 0.2955, 192.0, 126.0, 120.0, 15.0, 80.0, 4.5, 40.0, 0.0, 0.0, 0.0, 1.7068829870889225E9, 0.0, 2024-02-02 15:09:47.088
100.0, 61923.026969793675, 65755.72529503409, -31794.462417896084, -2379.8349356454537, 16849.01319134393, 7154.41342048805, 26826.094308625976, 4782.356891913044, 38461.831326702995, 47219.088342081115, 37261.18502154172, 46749.88052247531, 23515.242161183618, 26389.54238766937, -6810.1295006429555, -610.6273067745336, -0.1, 0.978, 0.2955, 192.0, 0.0, 0.0, 0.0, 0.0, 0.0, 0.0, 0.0, 0.0, 0.0, 1.706882987095785E9, 0.0, 2024-02-02 15:09:47.095
102.0, 61925.06097853911, 65760.19564392515, -31792.249595195008, -2379.0973280784283, 16852.00832510094, 7158.459086234461, 26824.194410347274, 4783.318016924622, 38454.94698941076, 47223.82691190564, 37258.681626162725, 46750.57342655342, 23510.50359135909, 26388.491855679975, -6814.242221622732, -614.4047515874805, -0.1, 0.978, 0.2955, 192.0, 0.0, 0.0, 0.0, 0.0, 0.0, 0.0, 0.0, 0.0, 0.0, 1.7068829871037693E9, 0.0, 2024-02-02 15:09:47.103
104.0, 61933.06290305411, 65765.73887655007, -31786.840473036824, -2379.6114182009005, 16850.95779311154, 7157.520312967338, 26815.70074745426, 4778.4453366333655, 38455.21521034422, 47217.00962984677, 37262.682588420226, 46753.36739461034, 23509.27424541405, 26388.26833823542, -6811.984695432747, -614.002420187285, -0.1, 0.978, 0.2955, 192.0, 0.0, 0.0, 0.0, 0.0, 0.0, 0.0, 0.0, 0.0, 0.0, 1.7068829871120508E9, 0.0, 2024-02-02 15:09:47.112
106.0, 61937.89087985646, 65769.51632136301, -31780.492577611516, -2374.626979187367, 16858.020944359418, 7160.291929279796, 26839.907686699356, 4788.257752449244, 38458.836192945986, 47228.811350919175, 37266.39297799981, 46759.15649642426, 23517.298521673503, 26387.9777655575, -6804.988599418235, -604.9946671717962, -0.1, 0.978, 0.2955, 192.0, 0.0, 0.0, 0.0, 0.0, 0.0, 0.0, 0.0, 0.0, 0.0, 1.7068829871208184E9, 0.0, 2024-02-02 15:09:47.120
108.0, 61950.02787709569, 65786.63775761578, -31771.82010076286, -2361.081822047451, 16865.01704037393, 7173.971196886444, 26841.002922177664, 4796.684360108896, 38463.75357672615, 47232.27587130974, 37277.56885022746, 46768.05249071747, 23526.239219455627, 26398.706602896047, -6794.3938725464195, -593.7964431996875, -0.099, 0.976, 0.29774999999999996, 192.0, 126.0, 120.0, 15.0, 56.0, 4.5, 48.0, 0.0, 0.0, 0.0, 1.7068829871278129E9, 0.0, 2024-02-02 15:09:47.127
110.0, 61943.00942933672, 65781.76507732453, -31784.15826370219, -2371.3859762413476, 16853.818816401817, 7162.460048491961, 26828.128317371407, 4786.6037233595525, 38458.23269584569, 47235.49452251131, 37274.350199025896, 46770.95821749666, 23520.830097297443, 26396.896111595168, -6803.289866839632, -598.4456060463913, -0.099, 0.976, 0.29774999999999996, 192.0, 0.0, 0.0, 0.0, 0.0, 0.0, 0.0, 0.0, 0.0, 0.0, 1.706882987135934E9, 0.0, 2024-02-02 15:09:47.135
112.0, 61946.96568810531, 65783.50851339204, -31786.57225210336, -2374.2917030205376, 16853.14826406816, 7162.124772325132, 26824.26146558064, 4784.94969426986, 38450.923675408805, 47234.466342266365, 37266.21416404416, 46764.36445288235, 23512.537600104526, 26388.93889056908, -6816.544451301629, -612.54955679769, -0.099, 0.976, 0.29774999999999996, 192.0, 0.0, 0.0, 0.0, 0.0, 0.0, 0.0, 0.0, 0.0, 0.0, 1.7068829871448684E9, 0.0, 2024-02-02 15:09:47.144
114.0, 61959.84029291157, 65801.00992930055, -31775.46343510907, -2362.601740670412, 16864.413543273633, 7172.965368385955, 26837.381939575906, 4795.455014163854, 38457.83036444549, 47239.94251965792, 37280.96631538466, 46777.12729896633, 23519.958379263688, 26400.293576752374, -6803.558087773095, -603.9664869268521, -0.099, 0.976, 0.29774999999999996, 192.0, 0.0, 0.0, 0.0, 0.0, 0.0, 0.0, 0.0, 0.0, 0.0, 1.7068829871518447E9, 0.0, 2024-02-02 15:09:47.151
116.0, 61952.79949340814, 65796.15960075374, -31783.1524352017, -2365.3286534939593, 16849.99666809996, 7163.979967114922, 26818.628825977903, 4782.982740757792, 38459.70791097974, 47257.77921173325, 37281.36864678486, 46782.089386235406, 23522.059443242484, 26404.94273959908, -6805.703855240805, -600.7925392141985, -0.099, 0.976, 0.29774999999999996, 192.0, 0.0, 0.0, 0.0, 0.0, 0.0, 0.0, 0.0, 0.0, 0.0, 1.7068829871598835E9, 0.0, 2024-02-02 15:09:47.159
118.0, 61968.98215639379, 65808.38600497079, -31770.121368184256, -2354.7115748776882, 16858.020944359418, 7173.188885830508, 26824.59674174747, 4789.822374561117, 38458.63502724589, 47249.53141802924, 37281.86038516288, 46781.39648215729, 23519.33253041894, 26401.858198864247, -6809.257782609199, -604.8158532161538, -0.1015, 0.98, 0.297875, 192.0, 126.0, 96.0, 15.0, 96.0, 4.5, 40.0, 0.0, 0.0, 0.0, 1.7068829871679387E9, 0.0, 2024-02-02 15:09:47.167
120.0, 61965.8752639145, 65805.2344090026, -31772.088321696323, -2354.8680370888756, 16851.38247625619, 7166.304548538274, 26820.729889956703, 4785.3743774145105, 38467.642780261376, 47258.15919138899, 37293.99738240211, 46794.78517708602, 23527.669731100767, 26412.40822224715, -6801.524079027663, -600.2560973472712, -0.1015, 0.98, 0.297875, 192.0, 0.0, 0.0, 0.0, 0.0, 0.0, 0.0, 0.0, 0.0, 0.0, 1.7068829871769104E9, 0.0, 2024-02-02 15:09:47.176
122.0, 61956.48753124327, 65798.57358915491, -31779.844377022313, -2362.6687959037777, 16848.85672913274, 7160.649557191081, 26820.931055656798, 4780.3899384009765, 38459.08206213499, 47256.974548932856, 37286.375437542854, 46788.34787468289, 23523.959341521186, 26405.300367510365, -6806.083834896545, -605.8216817166426, -0.1015, 0.98, 0.297875, 192.0, 0.0, 0.0, 0.0, 0.0, 0.0, 0.0, 0.0, 0.0, 0.0, 1.7068829871839147E9, 0.0, 2024-02-02 15:09:47.183
124.0, 61946.33983926057, 65789.16350473923, -31785.81229279188, -2367.630883172856, 16846.196871542557, 7154.972214099434, 26818.047680622065, 4775.5172581097195, 38446.94506489576, 47236.433295778435, 37277.36768452736, 46776.434394888216, 23517.253818184596, 26392.51516968193, -6811.135329143444, -613.1530538979833, -0.1015, 0.98, 0.297875, 192.0, 0.0, 0.0, 0.0, 0.0, 0.0, 0.0, 0.0, 0.0, 0.0, 1.7068829871921237E9, 0.0, 2024-02-02 15:09:47.192
126.0, 61953.53710097517, 65799.64647288877, -31780.358467144786, -2359.986586569141, 16849.5272814664, 7161.074240335732, 26818.025328877608, 4779.205295944846, 38446.05099511755, 47245.441048793924, 37276.85359440489, 46781.15061296828, 23516.89619027331, 26394.236254004987, -6813.459910566797, -612.7060190088772, -0.1015, 0.98, 0.297875, 192.0, 0.0, 0.0, 0.0, 0.0, 0.0, 0.0, 0.0, 0.0, 0.0, 1.7068829871999536E9, 0.0, 2024-02-02 15:09:47.199
128.0, 61963.103647602045, 65808.14013578178, -31771.708342040583, -2351.470571931669, 16853.5282437239, 7173.099478852687, 26814.06907010902, 4782.111022724035, 38452.89062892087, 47250.71606048537, 37288.118873610365, 46795.008694530574, 23525.635722355335, 26404.048669820866, -6807.290829097132, -604.6593910049667, -0.10475000000000001, 0.977, 0.29793749999999997, 192.0, 126.0, 80.0, 15.0, 56.0, 4.5, 40.0, 0.0, 0.0, 0.0, 1.706882987207938E9, 0.0, 2024-02-02 15:09:47.207
130.0, 61949.334973017576, 65794.90790306425, -31772.33419088533, -2353.1693045102725, 16857.484502492487, 7171.668967207547, 26836.107890141953, 4789.420043160921, 38457.27157083411, 47257.06395591068, 37291.94102191222, 46801.088369022415, 23531.871859058367, 26410.88830362419, -6802.3734453169645, -598.5350130242125, -0.10475000000000001, 0.977, 0.29793749999999997, 192.0, 0.0, 0.0, 0.0, 0.0, 0.0, 0.0, 0.0, 0.0, 0.0, 1.7068829872162025E9, 0.0, 2024-02-02 15:09:47.216
132.0, 61933.59934492104, 65776.95945226663, -31779.75497004449, -2360.6124354138897, 16854.131740824192, 7168.18209507252, 26831.726948228712, 4784.4356041473875, 38446.095698606456, 47250.02315640726, 37279.446396761705, 46787.252639204584, 23527.84854505641, 26403.266358764933, -6805.770910474171, -602.938306681908, -0.10475000000000001, 0.977, 0.29793749999999997, 192.0, 0.0, 0.0, 0.0, 0.0, 0.0, 0.0, 0.0, 0.0, 0.0, 1.7068829872239687E9, 0.0, 2024-02-02 15:09:47.223
134.0, 61917.997827291234, 65755.63588805628, -31785.56642360287, -2367.6085314284005, 16844.207566286037, 7162.974138614433, 26808.369375272916, 4772.924455752905, 38436.573855468494, 47232.94642364341, 37274.26079204807, 46774.75801405407, 23522.08179498694, 26399.354803485254, -6811.560012288095, -610.0238096742404, -0.10475000000000001, 0.977, 0.29793749999999997, 192.0, 0.0, 0.0, 0.0, 0.0, 0.0, 0.0, 0.0, 0.0, 0.0, 1.7068829872319915E9, 0.0, 2024-02-02 15:09:47.231
136.0, 61900.96579801629, 65733.4182540677, -31787.265156181475, -2371.2518657746155, 16848.18617679908, 7165.768106671347, 26815.25371256515, 4780.054662234147, 38427.05201233054, 47227.38083927403, 37260.6932831637, 46761.61518831435, 23514.437498383224, 26396.51613193943, -6824.97105896128, -620.7079435238771, -0.10475000000000001, 0.977, 0.29793749999999997, 192.0, 0.0, 0.0, 0.0, 0.0, 0.0, 0.0, 0.0, 0.0, 0.0, 1.706882987240147E9, 0.0, 2024-02-02 15:09:47.240
138.0, 61884.313748397086, 65707.33376828836, -31785.14174045822, -2373.7329094091547, 16857.66331644813, 7167.153914827575, 26831.570486017525, 4787.140165226479, 38427.499047219644, 47229.45955150838, 37264.18015529873, 46759.06708944644, 23523.333492676436, 26403.623986676215, -6806.575573274562, -606.0451991611957, -0.10337500000000001, 0.9764999999999999, 0.29796875, 192.0, 126.0, 104.0, 15.0, 64.0, 4.5, 40.0, 0.0, 0.0, 0.0, 1.706882987248011E9, 0.0, 2024-02-02 15:09:47.248
140.0, 61848.036867146126, 65661.31152645487, -31797.390496419728, -2387.3451217824368, 16848.34263901027, 7151.999432086877, 26817.757107944144, 4775.003167987248, 38407.33777372095, 47199.68702789391, 37248.556285924475, 46738.36937408082, 23519.041957741018, 26388.871835335714, -6812.2976198551205, -618.3163068671593, -0.10337500000000001, 0.9764999999999999, 0.29796875, 192.0, 0.0, 0.0, 0.0, 0.0, 0.0, 0.0, 0.0, 0.0, 0.0, 1.7068829872562249E9, 0.0, 2024-02-02 15:09:47.256
142.0, 61828.81436691456, 65639.33976165531, -31804.833627323347, -2390.2508485616268, 16838.95490633904, 7150.591272186193, 26814.113773597932, 4772.6338830749855, 38390.372799679375, 47192.53446966821, 37234.83231482891, 46728.91458617623, 23511.30825415948, 26383.932099811092, -6822.914698471392, -625.2453476483045, -0.10337500000000001, 0.9764999999999999, 0.29796875, 192.0, 0.0, 0.0, 0.0, 0.0, 0.0, 0.0, 0.0, 0.0, 0.0, 1.7068829872641065E9, 0.0, 2024-02-02 15:09:47.264
144.0, 61822.511174978164, 65632.76834878545, -31799.33509818734, -2382.47244149118, 16844.00640058594, 7159.911949624056, 26814.225532320208, 4778.221819188812, 38384.67310484328, 47177.71526309434, 37234.11705900634, 46724.757161707545, 23507.66491981327, 26378.03123927489, -6826.44627409533, -626.9664319713631, -0.10337500000000001, 0.9764999999999999, 0.29796875, 192.0, 0.0, 0.0, 0.0, 0.0, 0.0, 0.0, 0.0, 0.0, 0.0, 1.7068829872733743E9, 0.0, 2024-02-02 15:09:47.273
146.0, 61797.79014561059, 65609.23196187401, -31814.35547046131, -2395.503508508624, 16832.249383002447, 7144.690411649992, 26799.808657146536, 4765.4142696159215, 38387.64588685583, 47191.21571674535, 37232.77595433903, 46724.332478562894, 23511.285902415028, 26386.435495190086, -6823.249974638221, -619.3221353676481, -0.10337500000000001, 0.9764999999999999, 0.29796875, 192.0, 0.0, 0.0, 0.0, 0.0, 0.0, 0.0, 0.0, 0.0, 0.0, 1.7068829872790637E9, 0.0, 2024-02-02 15:09:47.279
148.0, 61786.636625127394, 65597.8325722018, -31815.182485006153, -2394.765900941599, 16833.791653369863, 7145.852702361668, 26808.01174736163, 4767.1800574278905, 38363.68481679974, 47169.512172879244, 37214.80515179696, 46703.3218387749, 23495.907902229777, 26369.336410681775, -6837.711553300805, -636.1977024314049, -0.09868750000000001, 0.97925, 0.29698437499999997, 192.0, 126.5, 8.0, 15.0, 88.0, 4.5, 32.0, 0.0, 0.0, 0.0, 1.7068829872882736E9, 0.0, 2024-02-02 15:09:47.288
150.0, 61788.9835582952, 65600.60418851426, -31808.521665158474, -2388.507412494113, 16840.854804617742, 7148.020821573833, 26813.532628242094, 4771.963330741326, 38366.79170927903, 47172.2837891917, 37221.95771002265, 46708.03805685497, 23505.40739362328, 26375.50549215144, -6830.111960186, -632.1520366849943, -0.09868750000000001, 0.97925, 0.29698437499999997, 192.0, 0.0, 0.0, 0.0, 0.0, 0.0, 0.0, 0.0, 0.0, 0.0, 1.7068829872961028E9, 0.0, 2024-02-02 15:09:47.296
152.0, 61790.637587384896, 65602.14645888167, -31814.71309837259, -2394.6764939637774, 16834.75277838144, 7144.8245221167235, 26806.894160138865, 4767.135353938979, 38360.175592920255, 47171.836754302596, 37215.475704130615, 46705.57936496489, 23503.954530233685, 26373.98557352848, -6837.063352711601, -636.0412402202178, -0.09868750000000001, 0.97925, 0.29698437499999997, 192.0, 0.0, 0.0, 0.0, 0.0, 0.0, 0.0, 0.0, 0.0, 0.0, 1.7068829873043072E9, 0.0, 2024-02-02 15:09:47.304
154.0, 61800.65116890087, 65611.40008108618, -31815.875389084267, -2396.4199300312916, 16831.95881032453, 7141.248243003874, 26797.417020489815, 4761.167438169413, 38364.62359006686, 47164.281864676705, 37220.95188152217, 46708.64155395527, 23500.869989498853, 26373.091503750267, -6838.046829467635, -636.9800134873407, -0.09868750000000001, 0.97925, 0.29698437499999997, 192.0, 0.0, 0.0, 0.0, 0.0, 0.0, 0.0, 0.0, 0.0, 0.0, 1.7068829873120773E9, 0.0, 2024-02-02 15:09:47.312
156.0, 61814.106919062964, 65626.8898399937, -31817.797639107426, -2397.626924231878, 16832.09292079126, 7141.561167426249, 26801.73090716969, 4764.60960681553, 38365.80823252299, 47179.659864861955, 37216.034497742, 46708.395684766256, 23497.56193131947, 26373.404428172642, -6846.004050493723, -641.2491966783043, -0.09868750000000001, 0.97925, 0.29698437499999997, 192.0, 0.0, 0.0, 0.0, 0.0, 0.0, 0.0, 0.0, 0.0, 0.0, 1.7068829873201275E9, 0.0, 2024-02-02 15:09:47.320
158.0, 61836.61512572946, 65653.68958159561, -31801.21264472159, -2384.752319425621, 16848.610859943732, 7155.910987366556, 26826.58604700399, 4783.116851224524, 38375.17361344977, 47184.57724864212, 37224.505808890564, 46714.74358019156, 23505.519152345558, 26378.970012542013, -6834.381143376964, -635.4153913754692, -0.09834375000000001, 0.980625, 0.29549218749999995, 192.0, 126.0, 120.0, 15.0, 88.0, 4.5, 24.0, 0.0, 0.0, 0.0, 1.70688298732815E9, 0.0, 2024-02-02 15:09:47.328
160.0, 61842.56068975457, 65665.24543347901, -31801.793790077427, -2386.562810726501, 16841.99474358496, 7146.769123884335, 26815.857209665446, 4773.70676680884, 38394.68668635925, 47199.53056568272, 37240.35319570937, 46730.43450479919, 23518.840792040923, 26392.22459700401, -6822.400608348919, -624.418333103458, -0.09834375000000001, 0.980625, 0.29549218749999995, 192.0, 0.0, 0.0, 0.0, 0.0, 0.0, 0.0, 0.0, 0.0, 0.0, 1.706882987335493E9, 0.0, 2024-02-02 15:09:47.335
162.0, 61851.41198055887, 65680.62343366425, -31803.604281378306, -2388.3509502829256, 16840.00543832844, 7142.812865115746, 26809.598721217957, 4768.1188306950135, 38398.6652968723, 47200.62580116103, 37230.585483382405, 46725.15949310774, 23510.190666936716, 26378.947660797556, -6835.87871025547, -639.5951675886116, -0.09834375000000001, 0.980625, 0.29549218749999995, 192.0, 0.0, 0.0, 0.0, 0.0, 0.0, 0.0, 0.0, 0.0, 0.0, 1.7068829873441715E9, 0.0, 2024-02-02 15:09:47.344
164.0, 61864.3536405985, 65698.54953271741, -31796.943461530624, -2381.6230752018782, 16845.23574653098, 7150.792437886291, 26811.476267752205, 4776.500734865754, 38420.88293086087, 47199.82113836064, 37239.526181164525, 46735.12837113481, 23510.302425658992, 26386.301384723352, -6828.659096796406, -628.7322197833323, -0.09834375000000001, 0.980625, 0.29549218749999995, 192.0, 0.0, 0.0, 0.0, 0.0, 0.0, 0.0, 0.0, 0.0, 0.0, 1.7068829873521817E9, 0.0, 2024-02-02 15:09:47.352
166.0, 61882.39149837393, 65721.2142015951, -31794.708287085094, -2379.209086800705, 16847.89560412116, 7158.056754834266, 26819.58995098948, 4783.630941346996, 38442.02768111559, 47215.802635646185, 37243.75066086658, 46740.91747294873, 23515.42097513926, 26392.157541770644, -6828.63674505195, -622.2725656357486, -0.09834375000000001, 0.980625, 0.29549218749999995, 192.0, 0.0, 0.0, 0.0, 0.0, 0.0, 0.0, 0.0, 0.0, 0.0, 1.7068829873601875E9, 0.0, 2024-02-02 15:09:47.360
168.0, 61885.90072225341, 65724.87988768576, -31801.659679610693, -2382.427738002269, 16847.605031443243, 7157.341499011696, 26824.68614872529, 4783.89916228046, 38458.79148945707, 47218.77541765874, 37247.05871904596, 46743.264406116534, 23515.353919905894, 26396.002041816955, -6825.507500828207, -617.0869609221174, -0.10017187500000001, 0.9803124999999999, 0.29474609374999994, 192.0, 126.0, 104.0, 15.0, 80.0, 4.5, 24.0, 0.0, 0.0, 0.0, 1.706882987368468E9, 0.0, 2024-02-02 15:09:47.368
170.0, 61889.63346357745, 65728.769091221, -31803.29135695593, -2385.8252031594757, 16841.681819162586, 7153.9216821100335, 26812.102116596954, 4778.490040122276, 38464.826460460004, 47210.88525186601, 37240.643768387294, 46738.279967103, 23506.45792561268, 26389.98942255848, -6832.235375909255, -624.2842226367262, -0.10017187500000001, 0.9803124999999999, 0.29474609374999994, 192.0, 0.0, 0.0, 0.0, 0.0, 0.0, 0.0, 0.0, 0.0, 0.0, 1.70688298737619E9, 0.0, 2024-02-02 15:09:47.376
172.0, 61898.574161359575, 65737.2180506251, -31798.128103986754, -2380.952522868219, 16842.352371496247, 7158.056754834266, 26817.06420386603, 4782.111022724035, 38480.31621936753, 47227.269080551756, 37248.355120224376, 46749.76876375303, 23510.145963447805, 26400.494742452473, -6824.009933949702, -616.0587806771732, -0.10017187500000001, 0.9803124999999999, 0.29474609374999994, 192.0, 0.0, 0.0, 0.0, 0.0, 0.0, 0.0, 0.0, 0.0, 0.0, 1.7068829873842108E9, 0.0, 2024-02-02 15:09:47.384
174.0, 61912.20872547731, 65750.42793159818, -31796.898758041712, -2377.488002477646, 16840.497176706456, 7159.710783923958, 26812.77266893061, 4780.836973290083, 38491.335629384, 47219.58008045913, 37255.127698794335, 46753.05447018796, 23508.8495622694, 26401.567626186326, -6824.054637438612, -617.712809766866, -0.10017187500000001, 0.9803124999999999, 0.29474609374999994, 192.0, 0.0, 0.0, 0.0, 0.0, 0.0, 0.0, 0.0, 0.0, 0.0, 1.706882987391218E9, 0.0, 2024-02-02 15:09:47.391
176.0, 61921.61880989299, 65760.70973404762, -31797.9045865422, -2377.398595499825, 16840.854804617742, 7156.782705400313, 26821.19927659026, 4780.077013978603, 38502.55620510056, 47232.074705609644, 37256.28998950601, 46758.12831617932, 23505.273283156548, 26402.729916898003, -6826.736846773249, -616.3717050995475, -0.10017187500000001, 0.9803124999999999, 0.29474609374999994, 192.0, 0.0, 0.0, 0.0, 0.0, 0.0, 0.0, 0.0, 0.0, 0.0, 1.706882987400454E9, 0.0, 2024-02-02 15:09:47.400
178.0, 61941.2212897803, 65780.98276626859, -31785.119388713767, -2365.0604325604954, 16848.230880287992, 7169.880827651123, 26828.39653830487, 4789.911781538937, 38511.83217904952, 47231.98529863183, 37263.8448791319, 46761.794002269984, 23503.149867433294, 26402.819323875825, -6823.361733360498, -611.9907631863074, -0.10017187500000001, 0.9803124999999999, 0.29474609374999994, 192.0, 0.0, 0.0, 0.0, 0.0, 0.0, 0.0, 0.0, 0.0, 0.0, 1.706882987408245E9, 0.0, 2024-02-02 15:09:47.408
180.0, 61944.77521714869, 65789.16350473923, -31784.91822301367, -2367.0050343281073, 16846.04040933137, 7165.32107178224, 26821.31103531254, 4784.815583803128, 38528.238359479714, 47247.69857498391, 37279.33463803943, 46777.37316815533, 23516.98559725113, 26419.784297917402, -6809.369541331475, -597.8868124350087, -0.10400000000000001, 0.978, 0.296, 192.0, 126.0, 96.0, 15.0, 72.0, 4.5, 32.0, 0.0, 0.0, 0.0, 1.7068829874162843E9, 0.0, 2024-02-02 15:09:47.416
182.0, 61946.652763682934, 65789.63289137279, -31789.29916492691, -2373.4199849867805, 16844.81106338633, 7158.816714145746, 26821.26633182363, 4776.590141843574, 38522.00222277668, 47244.41286854898, 37268.248172789594, 46768.76774654004, 23506.860257012875, 26411.111821068745, -6819.003143191713, -613.1307021535281, -0.10400000000000001, 0.978, 0.296, 192.0, 0.0, 0.0, 0.0, 0.0, 0.0, 0.0, 0.0, 0.0, 0.0, 1.7068829874236E9, 0.0, 2024-02-02 15:09:47.423
184.0, 61949.200862550846, 65791.64454837376, -31792.62957485075, -2375.856325132409, 16844.140511052672, 7156.4474292334835, 26822.562733002036, 4775.18198194289, 38530.45118218079, 47235.00278413329, 37275.400731015296, 46774.02040648704, 23511.777640793043, 26411.916483869136, -6815.5833262900505, -612.8177777311537, -0.10400000000000001, 0.978, 0.296, 192.0, 0.0, 0.0, 0.0, 0.0, 0.0, 0.0, 0.0, 0.0, 0.0, 1.706882987432284E9, 0.0, 2024-02-02 15:09:47.432
186.0, 61947.21155729432, 65789.0740977614, -31798.888063298236, -2383.8135461584984, 16837.27852550489, 7151.150065797576, 26814.44904976476, 4769.8175632736165, 38533.17809500433, 47241.797714447704, 37270.70686467968, 46769.706519807165, 23506.5473325905, 26406.88734136669, -6820.076026925568, -616.55051905519, -0.10400000000000001, 0.978, 0.296, 192.0, 0.0, 0.0, 0.0, 0.0, 0.0, 0.0, 0.0, 0.0, 0.0, 1.7068829874393013E9, 0.0, 2024-02-02 15:09:47.439
188.0, 61952.620679452506, 65794.5279234085, -31798.753952831503, -2379.499659478624, 16836.876194104694, 7157.430905989517, 26809.822238662513, 4769.728156295795, 38536.46380143926, 47235.0474876222, 37268.15876581178, 46765.03500521601, 23502.07698369944, 26401.969957586523, -6825.596907806028, -623.1889871584162, -0.10400000000000001, 0.978, 0.296, 192.0, 0.0, 0.0, 0.0, 0.0, 0.0, 0.0, 0.0, 0.0, 0.0, 1.7068829874473293E9, 0.0, 2024-02-02 15:09:47.447
190.0, 61962.99188887977, 65804.31798747992, -31796.38466791924, -2374.984607098652, 16840.631287173186, 7158.03440308981, 26814.672567209313, 4772.209199930335, 38547.170287033354, 47240.65777548048, 37273.67964669224, 46773.88629602031, 23508.715451802665, 26410.41891699063, -6818.77962574716, -621.9149377244637, -0.098, 0.978, 0.28800000000000003, 192.0, 126.0, 120.0, 15.0, 72.0, 4.5, 0.0, 0.0, 0.0, 0.0, 1.7068829874553344E9, 0.0, 2024-02-02 15:09:47.455
192.0, 61964.489455758274, 65808.38600497079, -31801.81614182188, -2374.112889064895, 16836.205641771037, 7159.7331356684135, 26805.59775896046, 4770.175191184901, 38553.696996414306, 47251.453668052396, 37273.9478676257, 46779.138955967304, 23507.754326791088, 26414.978672859514, -6822.199442648822, -622.0043447022849, -0.098, 0.978, 0.28800000000000003, 192.0, 0.0, 0.0, 0.0, 0.0, 0.0, 0.0, 0.0, 0.0, 0.0, 1.706882987464403E9, 0.0, 2024-02-02 15:09:47.464
194.0, 61969.89857791646, 65814.30921725144, -31796.831702808347, -2370.5813134409564, 16839.58075518379, 7166.930397383023, 26814.225532320208, 4776.813659288127, 38558.63673193893, 47244.479923782346, 37276.36185602687, 46778.289589678, 23509.83303902543, 26418.063213594345, -6820.29954437012, -620.1491499124944, -0.098, 0.978, 0.28800000000000003, 192.0, 0.0, 0.0, 0.0, 0.0, 0.0, 0.0, 0.0, 0.0, 0.0, 1.706882987471558E9, 0.0, 2024-02-02 15:09:47.471
196.0, 61969.27272907171, 65810.50942069404, -31800.497388899017, -2373.576447197968, 16834.417502214612, 7163.778801414825, 26802.826142648002, 4771.248074918756, 38568.091519843525, 47254.0017669203, 37278.66408570577, 46780.86004029036, 23509.87774251434, 26423.65114970817, -6820.25484088121, -614.7176760098548, -0.098, 0.978, 0.28800000000000003, 192.0, 0.0, 0.0, 0.0, 0.0, 0.0, 0.0, 0.0, 0.0, 0.0, 1.706882987479622E9, 0.0, 2024-02-02 15:09:47.479
198.0, 61973.76542970722, 65815.87383936332, -31796.272909196963, -2371.0954035634286, 16840.296011006358, 7168.249150305885, 26805.73186942719, 4778.043005233169, 38568.44914775481, 47247.2515400948, 37277.72531243865, 46777.4402233887, 23505.832076767932, 26420.544257228885, -6823.384085104953, -618.6515830339889, -0.098, 0.978, 0.28800000000000003, 192.0, 0.0, 0.0, 0.0, 0.0, 0.0, 0.0, 0.0, 0.0, 0.0, 1.7068829874884691E9, 0.0, 2024-02-02 15:09:47.488
200.0, 61976.514694275225, 65818.48899346459, -31794.86474929628, -2370.5813134409564, 16836.85384236024, 7165.410478760062, 26800.479209480192, 4776.433679632388, 38574.59587748002, 47249.62082500706, 37280.653390962296, 46783.966932769654, 23510.70475705919, 26424.14288808619, -6821.238317637243, -612.3930945865029, -0.094, 0.978, 0.28400000000000003, 192.0, 126.5, 8.0, 15.0, 72.0, 4.0, 112.0, 0.0, 0.0, 0.0, 1.706882987495428E9, 0.0, 2024-02-02 15:09:47.495
202.0, 61971.10557211704, 65812.81165037294, -31794.909452785192, -2371.8777146193643, 16843.29114476337, 7160.291929279796, 26816.795982932566, 4778.512391866731, 38574.88645015794, 47249.33025232914, 37272.42794900274, 46778.11077572236, 23508.357823891383, 26415.71628042654, -6824.524024072173, -616.1034841660838, -0.094, 0.978, 0.28400000000000003, 192.0, 0.0, 0.0, 0.0, 0.0, 0.0, 0.0, 0.0, 0.0, 0.0, 1.706882987503406E9, 0.0, 2024-02-02 15:09:47.503
204.0, 61973.47485702931, 65813.99629282908, -31791.042600994424, -2369.2849122625485, 16841.659467418132, 7155.955690855467, 26805.754221171646, 4771.94097899687, 38583.335409562045, 47241.01540339177, 37280.80985317348, 46781.865868790854, 23514.973940250155, 26412.36351875824, -6814.912773956392, -612.8848329645197, -0.094, 0.978, 0.28400000000000003, 192.0, 0.0, 0.0, 0.0, 0.0, 0.0, 0.0, 0.0, 0.0, 0.0, 1.7068829875117476E9, 0.0, 2024-02-02 15:09:47.511
206.0, 61977.565226264625, 65816.99142658609, -31788.38274340424, -2370.8048308855095, 16842.464130218523, 7154.100496065676, 26808.279968295097, 4770.510467351731, 38583.044836884124, 47246.133952872035, 37275.82541415995, 46779.3401216674, 23511.33060590394, 26407.982576845003, -6820.724227514771, -618.226899889338, -0.094, 0.978, 0.28400000000000003, 192.0, 0.0, 0.0, 0.0, 0.0, 0.0, 0.0, 0.0, 0.0, 0.0, 1.7068829875204432E9, 0.0, 2024-02-02 15:09:47.520
208.0, 61980.76152572173, 65817.01377833054, -31781.118426456265, -2367.072089561473, 16850.175482055605, 7158.436734490006, 26819.16526784483, 4775.874886021004, 38592.03023815516, 47244.77049646026, 37286.71071370968, 46786.02329325954, 23516.4491553842, 26410.955358857558, -6806.06148315209, -613.0189434312515, -0.094, 0.978, 0.28400000000000003, 192.0, 0.0, 0.0, 0.0, 0.0, 0.0, 0.0, 0.0, 0.0, 0.0, 1.7068829875274527E9, 0.0, 2024-02-02 15:09:47.527
210.0, 61969.33978430508, 65808.40835671526, -31788.114522470776, -2372.9953018421297, 16844.22991803049, 7151.954728597967, 26811.8785991524, 4770.219894673812, 38591.158520121404, 47239.428429535445, 37283.98380088613, 46780.16713621225, 23516.27034142856, 26406.999100088968, -6808.900154697914, -613.8459579760979, -0.10400000000000001, 0.978, 0.28400000000000003, 192.0, 126.0, 96.0, 15.0, 72.0, 4.0, 112.0, 0.0, 0.0, 0.0, 1.7068829875356276E9, 0.0, 2024-02-02 15:09:47.535
212.0, 61961.24845281225, 65804.11682177983, -31795.06591499638, -2376.7056914217105, 16839.200775528047, 7151.79826638678, 26804.569578715513, 4766.5318568386865, 38585.2576595852, 47241.06010688068, 37274.01492285907, 46773.57337159794, 23510.995329737107, 26404.249835520965, -6817.751445502216, -621.065571435162, -0.10400000000000001, 0.978, 0.28400000000000003, 192.0, 0.0, 0.0, 0.0, 0.0, 0.0, 0.0, 0.0, 0.0, 0.0, 1.7068829875444639E9, 0.0, 2024-02-02 15:09:47.544
214.0, 61966.36700229252, 65808.02837705951, -31792.33900217283, -2374.6716826762777, 16843.648772674653, 7156.9168158670445, 26807.430602005792, 4768.029423717192, 38583.536575262144, 47235.53922600022, 37274.66312344827, 46774.042758231495, 23511.062384970475, 26406.03797507739, -6816.879727468458, -619.7691702567543, -0.10400000000000001, 0.978, 0.28400000000000003, 192.0, 0.0, 0.0, 0.0, 0.0, 0.0, 0.0, 0.0, 0.0, 0.0, 1.7068829875514667E9, 0.0, 2024-02-02 15:09:47.551
216.0, 61957.26984229921, 65802.99923455706, -31796.831702808347, -2379.3431972674366, 16841.033618573383, 7153.832275132213, 26805.44129674927, 4763.89435099296, 38584.76592120718, 47242.96000515938, 37271.623286202346, 46777.37316815533, 23511.241198926116, 26409.301329767863, -6819.070198425079, -618.0927894226062, -0.10400000000000001, 0.978, 0.28400000000000003, 192.0, 0.0, 0.0, 0.0, 0.0, 0.0, 0.0, 0.0, 0.0, 0.0, 1.7068829875594635E9, 0.0, 2024-02-02 15:09:47.559
218.0, 61946.45159798284, 65788.47060066111, -31798.038697008935, -2385.109947336906, 16844.453435475043, 7156.268615277841, 26804.279006037596, 4760.809810258128, 38577.72512170376, 47232.76760968776, 37268.337579767416, 46770.84645877439, 23506.569684334958, 26404.585111687793, -6818.556108302607, -621.9372894689191, -0.10400000000000001, 0.978, 0.28400000000000003, 192.0, 0.0, 0.0, 0.0, 0.0, 0.0, 0.0, 0.0, 0.0, 0.0, 1.7068829875676708E9, 0.0, 2024-02-02 15:09:47.567
220.0, 61935.54394668865, 65773.0255452425, -31792.33900217283, -2380.6843019347552, 16848.72261866601, 7160.023708346333, 26808.54818922856, 4764.497848093253, 38573.455938512794, 47227.961984629874, 37269.14224256781, 46770.53353435201, 23508.60369308039, 26409.010757089945, -6811.850584966014, -614.6953242653996, -0.108, 0.97, 0.28600000000000003, 192.0, 126.0, 80.0, 15.0, 40.0, 4.0, 120.0, 0.0, 0.0, 0.0, 1.7068829875765452E9, 0.0, 2024-02-02 15:09:47.576
222.0, 61912.767519088695, 65748.59508855284, -31798.821008064868, -2387.278066549071, 16843.916993608116, 7155.553359455271, 26803.96608161522, 4759.356946868533, 38564.045854097116, 47220.38474325952, 37259.307475007474, 46759.46942084663, 23505.273283156548, 26404.85333262126, -6817.617335035484, -617.8022167446873, -0.108, 0.97, 0.28600000000000003, 192.0, 0.0, 0.0, 0.0, 0.0, 0.0, 0.0, 0.0, 0.0, 0.0, 1.7068829875835216E9, 0.0, 2024-02-02 15:09:47.583
224.0, 61896.62955959196, 65727.7185592316, -31793.456589395595, -2380.393729256836, 16850.935441367084, 7161.27540603583, 26814.180828831297, 4771.002205729747, 38553.20525803629, 47201.676333150426, 37256.111175550366, 46750.95340620916, 23505.385041878828, 26402.70756515355, -6815.248050123221, -615.5670422991565, -0.108, 0.97, 0.28600000000000003, 192.0, 0.0, 0.0, 0.0, 0.0, 0.0, 0.0, 0.0, 0.0, 0.0, 1.7068829875918E9, 0.0, 2024-02-02 15:09:47.591
226.0, 61873.6519662919, 65700.49413448502, -31795.602356863306, -2382.785365913554, 16851.024848344907, 7159.666080435048, 26815.320767798516, 4772.388013885977, 38545.29274049911, 47205.789054130204, 37250.45618420317, 46746.840685229385, 23507.754326791088, 26406.23914077749, -6812.58819253304, -608.8391672181091, -0.108, 0.97, 0.28600000000000003, 192.0, 0.0, 0.0, 0.0, 0.0, 0.0, 0.0, 0.0, 0.0, 0.0, 1.7068829876006024E9, 0.0, 2024-02-02 15:09:47.600
228.0, 61843.52181476615, 65664.61958463426, -31803.090191255833, -2392.441319518247, 16848.119121565716, 7153.362888498651, 26812.63855846388, 4770.130487695991, 38529.11007751347, 47189.159356255455, 37236.19577124069, 46730.85918794384, 23500.735879032123, 26398.61719591823, -6818.600811791517, -617.422237088947, -0.108, 0.97, 0.28600000000000003, 192.0, 0.0, 0.0, 0.0, 0.0, 0.0, 0.0, 0.0, 0.0, 0.0, 1.7068829876076221E9, 0.0, 2024-02-02 15:09:47.607
230.0, 61818.57726795403, 65636.97047674304, -31810.533322159452, -2402.5443080120453, 16838.99960982795, 7142.879920349112, 26797.282910023085, 4760.4298306023875, 38519.565882631054, 47178.542277639186, 37229.33378569291, 46720.15270234975, 23495.03618419602, 26396.829056361803, -6816.790320490637, -619.1209696675503, -0.108, 0.978, 0.28600000000000003, 192.0, 126.0, 80.0, 15.0, 72.0, 4.0, 120.0, 0.0, 0.0, 0.0, 1.706882987615641E9, 0.0, 2024-02-02 15:09:47.615
232.0, 61809.99419808319, 65626.95689522706, -31817.082383284855, -2407.595802258945, 16836.138586537672, 7142.7681616268355, 26797.17115130081, 4758.105249179036, 38502.779722545114, 47174.898943292974, 37208.45725637165, 46703.858280641834, 23481.468675311648, 26383.55212015535, -6835.141102688444, -635.5047983532904, -0.108, 0.978, 0.28600000000000003, 192.0, 0.0, 0.0, 0.0, 0.0, 0.0, 0.0, 0.0, 0.0, 0.0, 1.7068829876238704E9, 0.0, 2024-02-02 15:09:47.623
234.0, 61812.922276606834, 65631.8966307517, -31810.57802564836, -2396.2634678201043, 16844.52049070841, 7156.201560044475, 26809.576369473503, 4770.9351504963815, 38510.44637089329, 47173.66959734793, 37216.950919264666, 46712.3742952793, 23490.096448671397, 26394.37036447172, -6824.009933949702, -623.4348563474246, -0.108, 0.978, 0.28600000000000003, 192.0, 0.0, 0.0, 0.0, 0.0, 0.0, 0.0, 0.0, 0.0, 0.0, 1.7068829876316247E9, 0.0, 2024-02-02 15:09:47.631
236.0, 61797.85720084396, 65617.41270034465, -31824.570217677385, -2405.4500347912353, 16835.311571992825, 7149.093705307688, 26798.288738523574, 4761.435659102876, 38502.69031556729, 47174.65307410396, 37208.41255288274, 46709.69208594467, 23483.9944224351, 26393.476294693508, -6832.213024164799, -626.3852866155252, -0.108, 0.978, 0.28600000000000003, 192.0, 0.0, 0.0, 0.0, 0.0, 0.0, 0.0, 0.0, 0.0, 0.0, 1.706882987638836E9, 0.0, 2024-02-02 15:09:47.638
238.0, 61795.71143337625, 65618.99967420098, -31827.654758412216, -2408.825148203987, 16830.349484723745, 7150.814789630746, 26788.54337794106, 4760.22866490229, 38499.00227773217, 47163.633664087494, 37205.79739878147, 46705.4229027537, 23480.775771233533, 26391.64345164817, -6839.075009712578, -632.8449407631089, -0.108, 0.978, 0.28600000000000003, 192.0, 0.0, 0.0, 0.0, 0.0, 0.0, 0.0, 0.0, 0.0, 0.0, 1.7068829876476214E9, 0.0, 2024-02-02 15:09:47.647
240.0, 61804.42861371382, 65629.52734583942, -31819.608130408305, -2401.560831256012, 16837.770263882907, 7157.8555891341675, 26817.287721310586, 4774.712595309329, 38502.153873700365, 47164.14775420997, 37210.781837795, 46711.79314992346, 23482.206282878673, 26398.930120340603, -6833.688239298849, -628.0840191941285, -0.106, 0.982, 0.28800000000000003, 192.0, 126.0, 88.0, 15.0, 88.0, 4.5, 0.0, 0.0, 0.0, 0.0, 1.7068829876558478E9, 0.0, 2024-02-02 15:09:47.655
242.0, 61800.360596222956, 65626.0404737044, -31829.48760145755, -2413.0272761615847, 16826.79555735535, 7148.713725651947, 26795.561825700024, 4760.385127113477, 38498.75640854316, 47174.94364678188, 37204.724515047616, 46710.429693511694, 23472.282108340518, 26398.550140684863, -6836.661021311405, -629.358068628081, -0.106, 0.982, 0.28800000000000003, 192.0, 0.0, 0.0, 0.0, 0.0, 0.0, 0.0, 0.0, 0.0, 0.0, 1.7068829876626425E9, 0.0, 2024-02-02 15:09:47.662
244.0, 61811.38000623942, 65637.05988372087, -31822.424450209674, -2408.6239825038892, 16836.876194104694, 7154.3910687435955, 26808.481133995192, 4768.498810350753, 38496.14125444189, 47158.1798384404, 37204.74686679207, 46705.98169636509, 23470.561024017457, 26389.855312091746, -6838.560919590106, -631.83911226262, -0.106, 0.982, 0.28800000000000003, 192.0, 0.0, 0.0, 0.0, 0.0, 0.0, 0.0, 0.0, 0.0, 0.0, 1.706882987672024E9, 0.0, 2024-02-02 15:09:47.672
246.0, 61820.052483088075, 65645.1959187026, -31824.547865932927, -2411.037970905062, 16833.679894647586, 7151.977080342422, 26807.00591886114, 4770.108135951536, 38501.751542300175, 47166.226466444314, 37208.05492497145, 46707.50161498805, 23475.701925242178, 26393.722163882514, -6837.264518411698, -626.9664319713631, -0.106, 0.982, 0.28800000000000003, 192.0, 0.0, 0.0, 0.0, 0.0, 0.0, 0.0, 0.0, 0.0, 0.0, 1.7068829876799743E9, 0.0, 2024-02-02 15:09:47.679
248.0, 61841.845433932, 65666.67594512415, -31817.305900729407, -2402.276087078582, 16837.43498771608, 7161.945958369489, 26804.815447904522, 4775.539609854175, 38511.09457148249, 47170.04861474617, 37219.63312859931, 46714.94474589166, 23480.17227413324, 26398.728954640505, -6833.509425343207, -622.0043447022849, -0.106, 0.982, 0.28800000000000003, 192.0, 0.0, 0.0, 0.0, 0.0, 0.0, 0.0, 0.0, 0.0, 0.0, 1.7068829876876829E9, 0.0, 2024-02-02 15:09:47.687
250.0, 61849.646192746906, 65676.91304408468, -31817.708232129604, -2403.8407091904533, 16838.46316796102, 7154.882807121612, 26807.967043872723, 4774.354967398044, 38516.61545236295, 47172.44025140289, 37226.29394844698, 46723.48311227359, 23482.16157938976, 26397.879588351203, -6829.5531665746175, -620.1044464235838, -0.10200000000000001, 0.98, 0.28800000000000003, 192.0, 126.0, 104.0, 15.0, 80.0, 4.5, 0.0, 0.0, 0.0, 0.0, 1.7068829876947076E9, 0.0, 2024-02-02 15:09:47.694
252.0, 61860.464437063274, 65687.77599188995, -31809.929825059156, -2397.8057381875205, 16844.207566286037, 7157.766182156347, 26807.967043872723, 4775.874886021004, 38519.61058611996, 47180.643341617986, 37227.70210834767, 46729.13810362078, 23480.395791577794, 26395.487951694486, -6826.915660728891, -621.0208679462514, -0.10200000000000001, 0.98, 0.28800000000000003, 192.0, 0.0, 0.0, 0.0, 0.0, 0.0, 0.0, 0.0, 0.0, 0.0, 1.7068829877037117E9, 0.0, 2024-02-02 15:09:47.703
254.0, 61876.33417562654, 65707.42317526617, -31797.92693828666, -2383.992360114141, 16852.52241522341, 7165.455182248972, 26819.701709711757, 4785.061452992136, 38530.07120252505, 47184.4878416643, 37242.70012887718, 46742.6832607607, 23490.454076582682, 26402.260530264444, -6815.53862280114, -611.7001905083883, -0.10200000000000001, 0.98, 0.28800000000000003, 192.0, 0.0, 0.0, 0.0, 0.0, 0.0, 0.0, 0.0, 0.0, 0.0, 1.7068829877119465E9, 0.0, 2024-02-02 15:09:47.711
0.0, 61883.24086466323, 65716.09565211483, -31800.29622319892, -2389.0662061054954, 16847.53797620988, 7157.229740289419, 26819.254674822652, 4781.395766901465, 38535.05564153858, 47203.15154828448, 37248.757451624566, 46750.70753702016, 23493.27039638405, 26406.59676868877, -6810.665942509883, -607.6992282508884, -0.10200000000000001, 0.98, 0.28800000000000003, 192.0, 0.0, 0.0, 0.0, 0.0, 0.0, 0.0, 0.0, 0.0, 0.0, 1.706882987718721E9, 0.0, 2024-02-02 15:09:47.718
2.0, 61887.19712343182, 65718.93432366065, -31805.995918035023, -2396.464633520202, 16844.43108373059, 7148.736077396403, 26812.571503230516, 4771.225723174301, 38532.28402522612, 47195.21667900285, 37244.06358528895, 46741.27510086002, 23486.296652113993, 26395.577358672304, -6822.199442648822, -621.9372894689191, -0.10200000000000001, 0.98, 0.28800000000000003, 192.0, 0.0, 0.0, 0.0, 0.0, 0.0, 0.0, 0.0, 0.0, 0.0, 1.7068829877277572E9, 0.0, 2024-02-02 15:09:47.727
4.0, 61897.4118706479, 65732.27831510047, -31799.513912142982, -2390.9884561286517, 16848.834377388284, 7150.32305125273, 26813.867904408922, 4772.455069119343, 38540.06243229657, 47205.05144656318, 37252.80311737098, 46749.16526665274, 23495.527922574034, 26399.690079652082, -6819.405474591908, -619.9479842123967, -0.1, 0.986, 0.29, 192.0, 126.0, 112.0, 15.0, 104.0, 4.5, 8.0, 0.0, 0.0, 0.0, 1.706882987735999E9, 0.0, 2024-02-02 15:09:47.735
6.0, 61903.24567595073, 65740.10142565983, -31804.900682556712, -2392.195450329238, 16845.5263192089, 7149.116057052142, 26809.375203773405, 4767.917664994916, 38539.10130728499, 47215.512062968264, 37253.11604179336, 46755.75903126705, 23492.376326605838, 26398.684251151593, -6824.479320583263, -623.4795598363352, -0.1, 0.986, 0.29, 192.0, 0.0, 0.0, 0.0, 0.0, 0.0, 0.0, 0.0, 0.0, 0.0, 1.706882987742793E9, 0.0, 2024-02-02 15:09:47.742
8.0, 61908.833612064554, 65748.50568157503, -31801.63732786624, -2388.619171216389, 16847.828548887795, 7154.726344910425, 26804.748392671157, 4770.6445778184625, 38537.134353772926, 47210.66173442146, 37257.69814940669, 46761.2352086586, 23490.275262627038, 26402.595806431273, -6821.260669381699, -619.2774318787375, -0.1, 0.986, 0.29, 192.0, 0.0, 0.0, 0.0, 0.0, 0.0, 0.0, 0.0, 0.0, 0.0, 1.7068829877507713E9, 0.0, 2024-02-02 15:09:47.750
10.0, 61912.18637373285, 65752.05960894343, -31799.91624354318, -2390.47436600618, 16846.91212736513, 7155.08397282171, 26816.438355021284, 4775.360795898533, 38539.59304566301, 47215.91439436846, 37256.60291392838, 46758.240074901594, 23492.89041672831, 26403.333413998298, -6820.97009670378, -616.4834638218241, -0.1, 0.986, 0.29, 192.0, 0.0, 0.0, 0.0, 0.0, 0.0, 0.0, 0.0, 0.0, 0.0, 1.706882987759788E9, 0.0, 2024-02-02 15:09:47.759
12.0, 61913.30396095562, 65754.36183862231, -31799.91624354318, -2392.508374751613, 16851.6283454452, 7157.587368200704, 26822.585084746494, 4778.288874422178, 38534.27333048265, 47204.04561806269, 37255.21710577215, 46754.30616787746, 23491.92929171673, 26400.047707563368, -6820.433654836853, -617.6457545335, -0.1, 0.986, 0.29, 192.0, 0.0, 0.0, 0.0, 0.0, 0.0, 0.0, 0.0, 0.0, 0.0, 1.7068829877681053E9, 0.0, 2024-02-02 15:09:47.768
14.0, 61915.695597612335, 65761.33558289237, -31800.989127277033, -2395.302342808526, 16851.4271797451, 7158.593196701193, 26817.600645732957, 4776.254865676745, 38535.61443514996, 47208.00187683128, 37258.256943018074, 46757.72598477912, 23496.824323752444, 26402.975786087012, -6817.438521079841, -614.9411934544079, -0.096, 0.98, 0.296, 192.0, 126.5, 0.0, 15.0, 80.0, 4.5, 32.0, 0.0, 0.0, 0.0, 1.7068829877748463E9, 0.0, 2024-02-02 15:09:47.774
16.0, 61910.107661498514, 65757.69224854615, -31808.63342388075, -2403.1254533678834, 16850.063723333325, 7155.955690855467, 26815.052546865052, 4774.8690575205155, 38528.70774611327, 47214.14860655649, 37248.042195802, 46752.92035972123, 23490.655242282777, 26398.61719591823, -6826.692143284338, -620.0820946791285, -0.096, 0.98, 0.296, 192.0, 0.0, 0.0, 0.0, 0.0, 0.0, 0.0, 0.0, 0.0, 0.0, 1.7068829877828372E9, 0.0, 2024-02-02 15:09:47.782
18.0, 61914.73447260076, 65762.65433581524, -31808.700479114115, -2397.42575853178, 16852.790636156875, 7163.108249081165, 26817.667700966325, 4783.13920296898, 38526.76314434566, 47207.890118109004, 37249.69622489169, 46753.12152542133, 23491.37049810535, 26397.544312184375, -6820.63482053695, -614.6953242653996, -0.096, 0.98, 0.296, 192.0, 0.0, 0.0, 0.0, 0.0, 0.0, 0.0, 0.0, 0.0, 0.0, 1.7068829877919369E9, 0.0, 2024-02-02 15:09:47.791
20.0, 61916.58966739055, 65765.4706556166, -31808.991051792033, -2395.145880597339, 16850.130778566694, 7163.085897336709, 26817.220666077217, 4784.681473336395, 38519.87880705343, 47211.98048734433, 37239.28031197552, 46748.56176955244, 23486.22959688063, 26394.54917842736, -6828.524986329674, -617.5563475556788, -0.096, 0.98, 0.296, 192.0, 0.0, 0.0, 0.0, 0.0, 0.0, 0.0, 0.0, 0.0, 0.0, 1.706882987798833E9, 0.0, 2024-02-02 15:09:47.798
22.0, 61920.74709185924, 65767.50466436204, -31809.125162258766, -2398.5433457545455, 16847.560327954332, 7159.755487412869, 26812.683261952792, 4783.51918262472, 38525.62320537844, 47213.05337107818, 37247.88573359081, 46752.47332483212, 23491.50460857208, 26396.80670461735, -6825.216928150288, -612.1695771419498, -0.096, 0.98, 0.296, 192.0, 0.0, 0.0, 0.0, 0.0, 0.0, 0.0, 0.0, 0.0, 0.0, 1.7068829878069005E9, 0.0, 2024-02-02 15:09:47.806
24.0, 61930.00071406373, 65777.76411506702, -31799.826836565357, -2391.815470673498, 16853.036505345885, 7161.4989234803825, 26823.054471380052, 4791.141127483979, 38526.87490306794, 47214.79680714569, 37253.60778017137, 46757.4354121012, 23494.119762673352, 26396.31496623933, -6821.01480019269, -610.7614172412655, -0.097, 0.978, 0.296, 192.0, 126.0, 120.0, 15.0, 64.0, 4.5, 32.0, 0.0, 0.0, 0.0, 1.7068829878158925E9, 0.0, 2024-02-02 15:09:47.815
26.0, 61935.56629843311, 65787.59888262735, -31798.373973175763, -2391.0108078731073, 16856.09869433626, 7158.5037897233715, 26825.11083186994, 4787.922476282415, 38537.335519473025, 47232.87936841004, 37263.71076866517, 46768.85715351786, 23503.50749534458, 26404.13807679869, -6815.337457101043, -605.0393706607068, -0.097, 0.978, 0.296, 192.0, 0.0, 0.0, 0.0, 0.0, 0.0, 0.0, 0.0, 0.0, 0.0, 1.7068829878242123E9, 0.0, 2024-02-02 15:09:47.824
28.0, 61932.83938560956, 65787.21890297162, -31803.42546742266, -2395.7717294420877, 16848.90143262165, 7154.592234443693, 26817.019500377122, 4780.121717467513, 38527.72426935724, 47218.596603703096, 37256.60291392838, 46760.139973180296, 23492.532788817025, 26394.392716216174, -6824.166396160888, -618.4057138449805, -0.097, 0.978, 0.296, 192.0, 0.0, 0.0, 0.0, 0.0, 0.0, 0.0, 0.0, 0.0, 0.0, 1.7068829878308654E9, 0.0, 2024-02-02 15:09:47.830
30.0, 61944.48464447077, 65800.4287839447, -31795.66941209667, -2387.658046204811, 16854.33290652429, 7164.918740382045, 26817.891218410878, 4785.799060559161, 38531.85934208147, 47237.148551601, 37260.290951763505, 46770.28766516301, 23496.623158052345, 26407.580245444806, -6822.9817537047575, -615.7458562547989, -0.097, 0.978, 0.296, 192.0, 0.0, 0.0, 0.0, 0.0, 0.0, 0.0, 0.0, 0.0, 0.0, 1.7068829878389137E9, 0.0, 2024-02-02 15:09:47.838
32.0, 61947.300964272144, 65798.70769962165, -31795.758819074494, -2389.7367584391545, 16853.796464657364, 7166.349252027185, 26807.6764711948, 4782.960389013337, 38533.46866768225, 47241.462438280876, 37265.34244601041, 46773.88629602031, 23501.47348659915, 26413.883437381202, -6817.326762357565, -610.001457929785, -0.097, 0.978, 0.296, 192.0, 0.0, 0.0, 0.0, 0.0, 0.0, 0.0, 0.0, 0.0, 0.0, 1.7068829878480184E9, 0.0, 2024-02-02 15:09:47.848
34.0, 61947.9715166058, 65797.54540890997, -31794.887101040735, -2391.882525906864, 16851.784807656386, 7160.627205446626, 26812.34798578596, 4781.418118645921, 38527.65721412387, 47231.53826374272, 37263.509602965074, 46767.13606919481, 23497.36076561937, 26404.696870410073, -6825.015762450191, -616.0811324216286, -0.1005, 0.974, 0.296, 192.0, 126.0, 96.0, 15.0, 40.0, 4.5, 32.0, 0.0, 0.0, 0.0, 1.7068829878549252E9, 0.0, 2024-02-02 15:09:47.854
36.0, 61950.989002107264, 65800.76406011153, -31794.283603940443, -2388.4403572607466, 16851.136607067183, 7162.482400236417, 26804.569578715513, 4779.965255256326, 38531.948749059295, 47240.903644669495, 37269.79044315701, 46773.77453729803, 23500.780582521034, 26406.641472177682, -6823.49584382723, -612.3036876086817, -0.1005, 0.974, 0.296, 192.0, 0.0, 0.0, 0.0, 0.0, 0.0, 0.0, 0.0, 0.0, 0.0, 1.7068829878629866E9, 0.0, 2024-02-02 15:09:47.862
38.0, 61956.42047600991, 65807.51428693703, -31790.52851087195, -2383.6794356917662, 16851.29306927837, 7166.013975860355, 26808.838761906478, 4784.882639036494, 38532.82046709305, 47233.43816202142, 37273.41142575877, 46775.1379937098, 23503.060460455476, 26408.586073945295, -6822.020628693179, -610.1579201409722, -0.1005, 0.974, 0.296, 192.0, 0.0, 0.0, 0.0, 0.0, 0.0, 0.0, 0.0, 0.0, 0.0, 1.706882987870965E9, 0.0, 2024-02-02 15:09:47.870
40.0, 61960.39908652295, 65812.02933931701, -31787.8015980484, -2382.919476380286, 16858.24446180397, 7166.617472960648, 26818.561770744538, 4791.163479228435, 38535.033289794126, 47242.46826678137, 37275.57954497094, 46781.59764785739, 23503.619254066856, 26413.74932691447, -6817.371465846475, -603.6982659933884, -0.1005, 0.974, 0.296, 192.0, 0.0, 0.0, 0.0, 0.0, 0.0, 0.0, 0.0, 0.0, 0.0, 1.70688298787926E9, 0.0, 2024-02-02 15:09:47.879
42.0, 61961.896653401454, 65816.74555739708, -31790.573214360862, -2381.9136478797973, 16856.43397050309, 7165.902217138078, 26816.036023621087, 4789.151822227457, 38526.47257166774, 47238.44495277941, 37269.254001290086, 46772.92517100873, 23500.288844143015, 26404.294539009876, -6820.813634492592, -610.9402311969079, -0.1005, 0.974, 0.296, 192.0, 0.0, 0.0, 0.0, 0.0, 0.0, 0.0, 0.0, 0.0, 0.0, 1.706882987886994E9, 0.0, 2024-02-02 15:09:47.886
44.0, 61962.947185390854, 65816.32087425243, -31788.896833526713, -2376.236304788149, 16853.95292686855, 7164.449353748483, 26812.54915148606, 4788.593028616075, 38533.848647337996, 47246.133952872035, 37278.03823686102, 46784.41396765876, 23509.6989285587, 26414.732803670504, -6817.617335035484, -604.4805770493242, -0.10225000000000001, 0.975, 0.295, 192.0, 126.0, 96.0, 15.0, 64.0, 4.5, 24.0, 0.0, 0.0, 0.0, 1.7068829878949828E9, 0.0, 2024-02-02 15:09:47.894
46.0, 61957.985098121775, 65810.06238580494, -31793.791865562423, -2379.2537902896156, 16849.86255763323, 7160.157818813064, 26806.20125606075, 4783.541534369175, 38523.85741756647, 47246.64804299451, 37268.62815244534, 46782.558772868964, 23500.93704473222, 26408.787239645393, -6824.658134538906, -609.1073881515728, -0.10225000000000001, 0.975, 0.295, 192.0, 0.0, 0.0, 0.0, 0.0, 0.0, 0.0, 0.0, 0.0, 0.0, 1.7068829879040685E9, 0.0, 2024-02-02 15:09:47.904
48.0, 61955.10172308704, 65805.77085086952, -31795.8035225634, -2380.9078193793084, 16849.594336699767, 7156.670946678037, 26806.245959549662, 4782.401595401954, 38522.62807162143, 47231.00182187579, 37271.265658291064, 46781.41883390175, 23499.148905175796, 26405.99327158848, -6823.942878716336, -612.840129475609, -0.10225000000000001, 0.975, 0.295, 192.0, 0.0, 0.0, 0.0, 0.0, 0.0, 0.0, 0.0, 0.0, 0.0, 1.7068829879110124E9, 0.0, 2024-02-02 15:09:47.911
50.0, 61954.20765330883, 65801.14403976727, -31793.97067951807, -2382.7406624246437, 16854.3776100132, 7151.910025109056, 26809.531665984592, 4779.540572111675, 38523.65625186637, 47235.092191111115, 37269.18694605672, 46779.76480481205, 23499.104201686885, 26404.696870410073, -6823.406436849408, -616.1481876549944, -0.10225000000000001, 0.975, 0.295, 192.0, 0.0, 0.0, 0.0, 0.0, 0.0, 0.0, 0.0, 0.0, 0.0, 1.706882987918995E9, 0.0, 2024-02-02 15:09:47.918
52.0, 61953.85002539754, 65798.283016477, -31792.115484728278, -2378.2479617891267, 16857.752723425954, 7157.341499011696, 26813.800849175557, 4784.927342525404, 38524.751487344685, 47234.44399052191, 37271.33271352443, 46776.769671055044, 23506.703794801688, 26403.959262843047, -6819.1596054029, -612.8848329645197, -0.10225000000000001, 0.975, 0.295, 192.0, 0.0, 0.0, 0.0, 0.0, 0.0, 0.0, 0.0, 0.0, 0.0, 1.7068829879270608E9, 0.0, 2024-02-02 15:09:47.927
54.0, 61937.46619671181, 65780.75924882403, -31794.305955684897, -2382.9418281247413, 16854.71288618003, 7156.022746088833, 26806.894160138865, 4782.155726212946, 38520.281138453625, 47229.05722010818, 37267.845841389404, 46774.176868698225, 23506.79320177951, 26403.51222795394, -6819.941916458835, -611.744893997299, -0.104125, 0.9755, 0.2955, 192.0, 126.0, 88.0, 15.0, 64.0, 4.5, 32.0, 0.0, 0.0, 0.0, 1.7068829879351428E9, 0.0, 2024-02-02 15:09:47.935
56.0, 61927.40791170692, 65765.24713817205, -31795.49059814103, -2387.076900848973, 16851.203662300548, 7155.665118177548, 26800.121581568907, 4776.813659288127, 38510.982812760216, 47228.90075789699, 37260.2462482746, 46768.85715351786, 23503.060460455476, 26402.50639945345, -6826.893308984436, -616.3046498661816, -0.104125, 0.9755, 0.2955, 192.0, 0.0, 0.0, 0.0, 0.0, 0.0, 0.0, 0.0, 0.0, 0.0, 1.70688298794304E9, 0.0, 2024-02-02 15:09:47.943
58.0, 61910.532344643165, 65744.41531233971, -31797.09992374181, -2389.2897235500486, 16850.75662741144, 7155.665118177548, 26804.658985693335, 4778.1547639554465, 38504.45610337926, 47209.25357452078, 37260.46976571915, 46764.185638926705, 23503.30632964448, 26399.64537616317, -6824.300506627621, -618.3610103560699, -0.104125, 0.9755, 0.2955, 192.0, 0.0, 0.0, 0.0, 0.0, 0.0, 0.0, 0.0, 0.0, 0.0, 1.7068829879510424E9, 0.0, 2024-02-02 15:09:47.951
60.0, 61884.69372805283, 65710.66417821219, -31808.611072136293, -2402.209031845216, 16837.792615627364, 7145.9868128284, 26795.852398377945, 4768.811734773128, 38494.42017011883, 47205.9902198303, 37248.77980336903, 46753.076821932416, 23498.299538886495, 26396.449076706063, -6832.59300382054, -621.0432196907068, -0.104125, 0.9755, 0.2955, 192.0, 0.0, 0.0, 0.0, 0.0, 0.0, 0.0, 0.0, 0.0, 0.0, 1.7068829879603505E9, 0.0, 2024-02-02 15:09:47.960
62.0, 61860.62089927446, 65679.43879120813, -31804.364240689785, -2398.632752732367, 16846.062761075827, 7152.848798376179, 26799.093401323964, 4772.745641797262, 38476.04703617657, 47186.43244343191, 37236.19577124069, 46731.82031295542, 23486.676631769733, 26384.557948655838, -6839.365582390497, -629.1121994390726, -0.104125, 0.9755, 0.2955, 192.0, 0.0, 0.0, 0.0, 0.0, 0.0, 0.0, 0.0, 0.0, 0.0, 1.7068829879670622E9, 0.0, 2024-02-02 15:09:47.967
64.0, 61841.174881598345, 65655.45536940759, -31803.91720580068, -2399.526822510579, 16848.677915177097, 7152.89350186509, 26799.92041586881, 4774.332615653589, 38471.17435588531, 47173.155507225456, 37234.765259595544, 46726.992336153075, 23494.812666751466, 26388.60361440225, -6832.503596842718, -622.3172691246592, -0.1060625, 0.97775, 0.29474999999999996, 192.0, 126.0, 80.0, 15.0, 80.0, 4.5, 24.0, 0.0, 0.0, 0.0, 1.7068829879751227E9, 0.0, 2024-02-02 15:09:47.975
66.0, 61824.00874185667, 65635.91994475365, -31808.253444225007, -2406.165290613805, 16845.548670953354, 7150.546568697282, 26804.480171737694, 4775.718423809818, 38463.932390681795, 47176.4859171493, 37227.50094264757, 46720.93501340569, 23493.426858595238, 26387.530730668394, -6835.006992221713, -623.2113389028715, -0.1060625, 0.97775, 0.29474999999999996, 192.0, 0.0, 0.0, 0.0, 0.0, 0.0, 0.0, 0.0, 0.0, 0.0, 1.7068829879844096E9, 0.0, 2024-02-02 15:09:47.984
68.0, 61813.704587662774, 65627.82861326082, -31803.313708700385, -2402.7454737121434, 16853.729409424, 7156.9391676115, 26820.39461378987, 4786.044929748169, 38454.25408533264, 47161.554951853155, 37226.5845211249, 46714.25184181355, 23491.97399520564, 26381.428704432095, -6828.167358418389, -621.9819929578297, -0.1060625, 0.97775, 0.29474999999999996, 192.0, 0.0, 0.0, 0.0, 0.0, 0.0, 0.0, 0.0, 0.0, 0.0, 1.7068829879911067E9, 0.0, 2024-02-02 15:09:47.991
70.0, 61794.30327347556, 65610.30484560787, -31812.612034393795, -2411.820281960998, 16843.984048841485, 7145.115094794643, 26802.73673567018, 4772.589179586074, 38443.65935846083, 47161.689062319885, 37220.303680932964, 46709.66973420021, 23488.800047492987, 26379.26058521993, -6832.570652076084, -619.2774318787375, -0.1060625, 0.97775, 0.29474999999999996, 192.0, 0.0, 0.0, 0.0, 0.0, 0.0, 0.0, 0.0, 0.0, 0.0, 1.706882987999113E9, 0.0, 2024-02-02 15:09:47.999
72.0, 61790.347014706975, 65604.67220600513, -31806.48765641304, -2405.5841452579675, 16854.824644902306, 7152.781743142813, 26812.862075908433, 4779.85349653405, 38434.60690195643, 47150.26732090322, 37215.274538430516, 46702.53952771897, 23488.17419864824, 26373.292669450366, -6833.822349765582, -623.032524947229, -0.1060625, 0.97775, 0.29474999999999996, 192.0, 0.0, 0.0, 0.0, 0.0, 0.0, 0.0, 0.0, 0.0, 0.0, 1.7068829880073671E9, 0.0, 2024-02-02 15:09:48.007
74.0, 61784.28969195959, 65600.60418851426, -31803.783095333947, -2405.204165602227, 16853.28237453489, 7153.541702454294, 26809.7775351736, 4779.249999433756, 38434.562198467516, 47152.323681393114, 37218.761410565545, 46704.14885331975, 23491.482256827625, 26378.992364286467, -6825.1498729169225, -616.5952225441006, -0.10803125, 0.979875, 0.29537499999999994, 192.0, 126.0, 72.0, 15.0, 88.0, 4.5, 32.0, 0.0, 0.0, 0.0, 1.7068829880161564E9, 0.0, 2024-02-02 15:09:48.016
76.0, 61768.55406386305, 65587.77428719691, -31813.72962161656, -2413.3849040728696, 16842.128854051694, 7142.656402904559, 26795.29360476656, 4766.598912072052, 38423.20751228422, 47155.81055352814, 37208.72547730512, 46698.09153057236, 23486.430762580727, 26375.41608517362, -6835.431675366363, -625.4241616039469, -0.10803125, 0.979875, 0.29537499999999994, 192.0, 0.0, 0.0, 0.0, 0.0, 0.0, 0.0, 0.0, 0.0, 0.0, 1.706882988023202E9, 0.0, 2024-02-02 15:09:48.023
78.0, 61776.51128488914, 65593.76455471094, -31811.561502404395, -2409.2498313486376, 16841.90533660714, 7146.433847717506, 26797.64053793437, 4768.23058941729, 38414.64679415784, 47142.13128592149, 37208.61371858284, 46695.9234113602, 23480.239329366606, 26369.425817659598, -6840.684335313361, -632.0849814516284, -0.10803125, 0.979875, 0.29537499999999994, 192.0, 0.0, 0.0, 0.0, 0.0, 0.0, 0.0, 0.0, 0.0, 0.0, 1.7068829880313475E9, 0.0, 2024-02-02 15:09:48.031
80.0, 61785.36257569344, 65604.53809553839, -31804.073668011868, -2396.822261431487, 16846.75566515394, 7153.60875768766, 26802.11088682543, 4774.489077864776, 38423.47573321769, 47166.67350133342, 37219.610776854846, 46714.81063542493, 23489.26943412655, 26385.586128900784, -6834.671716054883, -619.6574115344777, -0.10803125, 0.979875, 0.29537499999999994, 192.0, 0.0, 0.0, 0.0, 0.0, 0.0, 0.0, 0.0, 0.0, 0.0, 1.7068829880393128E9, 0.0, 2024-02-02 15:09:48.039
82.0, 61790.4364216848, 65607.75674673996, -31804.49835115652, -2398.990380643652, 16843.537013952377, 7151.261824519852, 26796.16532280032, 4767.492981850264, 38421.17350353879, 47160.30325416366, 37219.00727975456, 46711.81550166792, 23487.973032948143, 26379.88643406468, -6836.839835267047, -622.8984144804972, -0.10803125, 0.979875, 0.29537499999999994, 192.0, 0.0, 0.0, 0.0, 0.0, 0.0, 0.0, 0.0, 0.0, 0.0, 1.706882988047236E9, 0.0, 2024-02-02 15:09:48.047
84.0, 61801.746404379184, 65619.87139223474, -31799.737429587538, -2395.9281916532746, 16846.778016898395, 7152.446466975984, 26800.322747269005, 4769.035252217681, 38424.705079162726, 47160.43736463039, 37225.01989901303, 46716.26349881453, 23489.805875993476, 26384.289727722375, -6834.381143376964, -620.9314609684302, -0.108015625, 0.9799375, 0.2926875, 192.0, 126.0, 80.0, 15.0, 80.0, 4.5, 8.0, 0.0, 0.0, 0.0, 1.7068829880552227E9, 0.0, 2024-02-02 15:09:48.055
86.0, 61797.052538043565, 65621.32425562433, -31807.895816313725, -2405.6735522357885, 16843.112330807726, 7146.098571550677, 26795.807694889034, 4764.810772515628, 38427.27552977509, 47173.62489385902, 37224.46110540165, 46720.286812816485, 23490.07409692694, 26385.45201843405, -6833.777646276671, -619.8585772345755, -0.108015625, 0.9799375, 0.2926875, 192.0, 0.0, 0.0, 0.0, 0.0, 0.0, 0.0, 0.0, 0.0, 0.0, 1.7068829880634606E9, 0.0, 2024-02-02 15:09:48.063
88.0, 61813.99516034069, 65636.32227615383, -31800.51974064347, -2400.823223688987, 16860.05495310485, 7154.078144321221, 26818.718232955725, 4777.908894766438, 38422.02286982809, 47160.81734428613, 37221.86830304484, 46715.23531856958, 23490.96816670515, 26377.60655613024, -6832.861224754003, -624.8653679925642, -0.108015625, 0.9799375, 0.2926875, 192.0, 0.0, 0.0, 0.0, 0.0, 0.0, 0.0, 0.0, 0.0, 0.0, 1.7068829880702374E9, 0.0, 2024-02-02 15:09:48.070
90.0, 61818.800785398584, 65644.9947530025, -31814.377822205763, -2411.8649854499085, 16847.605031443243, 7139.41539995854, 26799.741601913167, 4761.234493402779, 38428.974262353695, 47174.340149681586, 37224.6846228462, 46722.231414584094, 23496.55610281898, 26381.294593965365, -6827.54150957364, -619.4115423454693, -0.108015625, 0.9799375, 0.2926875, 192.0, 0.0, 0.0, 0.0, 0.0, 0.0, 0.0, 0.0, 0.0, 0.0, 1.7068829880783E9, 0.0, 2024-02-02 15:09:48.078
92.0, 61833.485881505716, 65664.64193637871, -31811.96383380459, -2406.9028981808306, 16849.14730181066, 7145.606833172659, 26804.815447904522, 4766.017766716214, 38422.62636692839, 47173.11080373655, 37220.61660535534, 46719.12452210481, 23487.25777712557, 26374.723181095505, -6836.996297478235, -629.134551183528, -0.108015625, 0.9799375, 0.2926875, 192.0, 0.0, 0.0, 0.0, 0.0, 0.0, 0.0, 0.0, 0.0, 0.0, 1.7068829880874565E9, 0.0, 2024-02-02 15:09:48.087
94.0, 61847.76864621266, 65683.50680869899, -31804.610109878795, -2401.538479511557, 16849.23670878848, 7148.087876807199, 26801.35092751395, 4768.364699884021, 38428.7730966536, 47178.184649727904, 37231.74777409408, 46726.4782460306, 23491.258739383073, 26379.148826497654, -6832.324782887075, -625.0441819482068, -0.1080078125, 0.9789687499999999, 0.29234375, 192.0, 126.0, 80.0, 15.0, 72.0, 4.5, 16.0, 0.0, 0.0, 0.0, 1.706882988095322E9, 0.0, 2024-02-02 15:09:48.095
96.0, 61853.98243117124, 65693.09570707032, -31803.984261034046, -2401.4267207892804, 16848.163825054628, 7143.863397105146, 26806.558883972037, 4766.822429516606, 38435.03158510108, 47192.46741443485, 37237.022785785535, 46731.90971993324, 23494.522094073545, 26383.08273352179, -6832.972983476279, -624.9547749703855, -0.1080078125, 0.9789687499999999, 0.29234375, 192.0, 0.0, 0.0, 0.0, 0.0, 0.0, 0.0, 0.0, 0.0, 0.0, 1.706882988102311E9, 0.0, 2024-02-02 15:09:48.102
98.0, 61860.91147195238, 65699.98004436256, -31808.320499458376, -2407.6852092367662, 16846.75566515394, 7139.705972636459, 26805.26248279363, 4764.251978904245, 38432.3717275109, 47181.58211488511, 37237.26865497454, 46729.227510598605, 23491.772829505546, 26374.901995051147, -6831.073085197579, -629.0898476946173, -0.1080078125, 0.9789687499999999, 0.29234375, 192.0, 0.0, 0.0, 0.0, 0.0, 0.0, 0.0, 0.0, 0.0, 0.0, 1.706882988111309E9, 0.0, 2024-02-02 15:09:48.111
100.0, 61871.19327440182, 65711.49119275704, -31807.046450024423, -2404.243040590649, 16846.375685498202, 7142.4775889489165, 26797.126447811897, 4763.626130059496, 38439.099602591945, 47194.970809813836, 37236.866323574344, 46731.887368188785, 23495.773791763044, 26378.344163697264, -6839.253823668221, -631.7944087737094, -0.1080078125, 0.9789687499999999, 0.29234375, 192.0, 0.0, 0.0, 0.0, 0.0, 0.0, 0.0, 0.0, 0.0, 0.0, 1.706882988119311E9, 0.0, 2024-02-02 15:09:48.119
102.0, 61880.82687626206, 65721.34831206183, -31800.452685410106, -2399.5715259994895, 16854.91405188013, 7150.680679164015, 26812.30328229705, 4773.2820836641895, 38442.69823344925, 47196.848356348084, 37244.622378900334, 46738.41407756974, 23499.506533087082, 26382.725105610505, -6835.87871025547, -625.2900511372151, -0.1080078125, 0.9789687499999999, 0.29234375, 192.0, 0.0, 0.0, 0.0, 0.0, 0.0, 0.0, 0.0, 0.0, 0.0, 1.7068829881267252E9, 0.0, 2024-02-02 15:09:48.126
104.0, 61886.23599842024, 65728.50087028752, -31796.71994408607, -2395.4811567641686, 16857.01511585893, 7149.764257641346, 26812.437392763783, 4773.840877275572, 38446.22980907319, 47196.17780401443, 37251.14908828129, 46743.711441005646, 23504.423916867247, 26386.25668123444, -6830.268422397187, -621.5796615576342, -0.10600390625, 0.976484375, 0.29217187499999997, 192.0, 126.0, 96.0, 15.0, 56.0, 4.5, 16.0, 0.0, 0.0, 0.0, 1.7068829881343336E9, 0.0, 2024-02-02 15:09:48.134
106.0, 61885.74426004223, 65729.79727146594, -31804.945386045623, -2400.0856161219617, 16845.436912231078, 7142.656402904559, 26794.69010766627, 4763.581426570586, 38440.82068691501, 47203.82210061814, 37247.1928295127, 46746.2371881291, 23498.813629008964, 26378.88060556419, -6836.59396607804, -627.1228941825502, -0.10600390625, 0.976484375, 0.29217187499999997, 192.0, 0.0, 0.0, 0.0, 0.0, 0.0, 0.0, 0.0, 0.0, 0.0, 1.7068829881433678E9, 0.0, 2024-02-02 15:09:48.143
108.0, 61898.842382293034, 65744.16944315069, -31797.993993520024, -2391.7707671845874, 16858.110351337236, 7153.519350709838, 26816.50541025465, 4777.372452899511, 38443.50289624964, 47201.92220233944, 37252.825469115436, 46750.66283353124, 23502.32285288845, 26381.674573621105, -6833.107093943012, -622.5631383136677, -0.10600390625, 0.976484375, 0.29217187499999997, 192.0, 0.0, 0.0, 0.0, 0.0, 0.0, 0.0, 0.0, 0.0, 0.0, 1.7068829881513643E9, 0.0, 2024-02-02 15:09:48.151
110.0, 61894.21557119079, 65739.78850123746, -31808.901644814214, -2403.7960057015425, 16848.052066332348, 7143.237548260397, 26807.654119450348, 4770.9351504963815, 38440.86539040392, 47205.163205285455, 37245.78466961201, 46746.8853887183, 23498.83598075342, 26381.138131754178, -6839.276175412676, -624.0830569366285, -0.10600390625, 0.976484375, 0.29217187499999997, 192.0, 0.0, 0.0, 0.0, 0.0, 0.0, 0.0, 0.0, 0.0, 0.0, 1.706882988158384E9, 0.0, 2024-02-02 15:09:48.158
112.0, 61910.375882431974, 65757.78165552398, -31798.843359809325, -2392.150746840328, 16856.277508291903, 7152.17824604252, 26817.243017821675, 4779.361758156033, 38433.310500778025, 47201.27400175024, 37241.82841084342, 46741.878597960305, 23494.857370240377, 26375.729009595994, -6842.695992314339, -628.7769232722429, -0.10600390625, 0.976484375, 0.29217187499999997, 192.0, 0.0, 0.0, 0.0, 0.0, 0.0, 0.0, 0.0, 0.0, 0.0, 1.706882988166758E9, 0.0, 2024-02-02 15:09:48.166
114.0, 61919.42833893637, 65768.42108588471, -31796.407019663697, -2389.0662061054954, 16860.85961590524, 7156.290967022296, 26818.204142833252, 4785.575543114608, 38451.39306204236, 47216.2943740242, 37260.626227930334, 46761.6375400588, 23512.89522801581, 26392.26930049292, -6825.731018272761, -613.0189434312515, -0.103001953125, 0.9762421875, 0.2900859375, 192.0, 126.0, 112.0, 15.0, 64.0, 4.5, 0.0, 0.0, 0.0, 0.0, 1.7068829881753547E9, 0.0, 2024-02-02 15:09:48.175
116.0, 61916.54496390164, 65766.61059458382, -31803.894854056223, -2397.0904823649507, 16854.802293157853, 7152.044135575788, 26808.905817139843, 4779.227647689301, 38442.05003286005, 47218.82012114765, 37250.791460370005, 46758.8882754908, 23506.5473325905, 26386.79312310137, -6831.318954386587, -614.5612137986677, -0.103001953125, 0.9762421875, 0.2900859375, 192.0, 0.0, 0.0, 0.0, 0.0, 0.0, 0.0, 0.0, 0.0, 0.0, 1.7068829881823945E9, 0.0, 2024-02-02 15:09:48.182
118.0, 61922.758748860215, 65771.9750132531, -31801.21264472159, -2395.458805019713, 16859.4291042601, 7153.496998965383, 26821.22162833472, 4786.290798937178, 38439.79250667006, 47206.81723437515, 37248.958617324664, 46752.5850835544, 23503.105163944383, 26378.433570675086, -6835.319916644087, -623.1889871584162, -0.103001953125, 0.9762421875, 0.2900859375, 192.0, 0.0, 0.0, 0.0, 0.0, 0.0, 0.0, 0.0, 0.0, 0.0, 1.7068829881904097E9, 0.0, 2024-02-02 15:09:48.190
120.0, 61923.250487238234, 65774.50076037656, -31800.743258088027, -2397.5375172540566, 16854.489368735478, 7145.249205261374, 26816.08072711, 4779.339406411577, 38446.74389919566, 47218.88717638102, 37254.65831216077, 46761.01169121405, 23506.636739568323, 26384.98263180049, -6828.63674505195, -618.1598446559722, -0.103001953125, 0.9762421875, 0.2900859375, 192.0, 0.0, 0.0, 0.0, 0.0, 0.0, 0.0, 0.0, 0.0, 0.0, 1.706882988199434E9, 0.0, 2024-02-02 15:09:48.199
122.0, 61925.95504831732, 65776.93710052218, -31798.86571155378, -2394.050645119029, 16857.14922632566, 7146.925586095523, 26811.073936352008, 4776.724252310307, 38440.26189330362, 47216.093208324106, 37248.42217545774, 46752.093345176385, 23500.89234124331, 26376.734838096483, -6836.616317822495, -628.6204610610558, -0.103001953125, 0.9762421875, 0.2900859375, 192.0, 0.0, 0.0, 0.0, 0.0, 0.0, 0.0, 0.0, 0.0, 0.0, 1.7068829882074337E9, 0.0, 2024-02-02 15:09:48.207
124.0, 61930.73832163076, 65785.6766326042, -31800.16211273219, -2392.821299173987, 16858.512682737433, 7147.6408419180925, 26813.175000330808, 4779.652330833952, 38450.45428877524, 47217.81429264716, 37253.31720749345, 46755.78138301151, 23509.9000942588, 26384.960280056035, -6833.0176869651905, -622.3843243580252, -0.103001953125, 0.9762421875, 0.2900859375, 192.0, 0.0, 0.0, 0.0, 0.0, 0.0, 0.0, 0.0, 0.0, 0.0, 1.7068829882144394E9, 0.0, 2024-02-02 15:09:48.214
126.0, 61935.92392634439, 65790.43755417319, -31801.257348210496, -2396.5540404980234, 16860.569043227322, 7150.010126830355, 26817.153610843852, 4782.80392680215, 38453.650588232354, 47226.26325205127, 37246.723442879134, 46752.13804866529, 23507.016719224062, 26384.26737597792, -6843.835931281559, -628.419295360958, -0.1, 0.99, 0.296, 192.0, 126.0, 112.0, 15.0, 120.0, 4.5, 32.0, 0.0, 0.0, 0.0, 1.7068829882227912E9, 0.0, 2024-02-02 15:09:48.222
128.0, 61943.72468515929, 65796.04784203146, -31795.356487674297, -2392.1283950958723, 16861.08313334979, 7156.22391178893, 26815.07489860951, 4784.882639036494, 38471.93431519679, 47224.117484583556, 37257.027597073036, 46756.16136266725, 23514.102222216396, 26386.904881823648, -6839.052657968124, -625.6029755595894, -0.1, 0.99, 0.296, 192.0, 0.0, 0.0, 0.0, 0.0, 0.0, 0.0, 0.0, 0.0, 0.0, 1.7068829882314591E9, 0.0, 2024-02-02 15:09:48.231
130.0, 61941.847138625046, 65797.09837402086, -31797.837531308836, -2392.195450329238, 16855.226976302503, 7151.5747489422265, 26807.69882293926, 4780.166420956423, 38488.04992294907, 47233.415810276965, 37257.40757672877, 46760.94463598068, 23514.571608849958, 26393.766867371425, -6837.532739345163, -621.6243650465448, -0.1, 0.99, 0.296, 192.0, 0.0, 0.0, 0.0, 0.0, 0.0, 0.0, 0.0, 0.0, 0.0, 1.7068829882386804E9, 0.0, 2024-02-02 15:09:48.238
132.0, 61949.6255456955, 65804.60856015785, -31792.696630084116, -2383.500621736124, 16855.182272813592, 7156.380374000118, 26806.849456649958, 4781.932208768393, 38496.45417886427, 47233.01347887677, 37257.295818006496, 46764.25269416007, 23504.245102911605, 26390.391753958673, -6840.2373004242545, -620.6632400349665, -0.1, 0.99, 0.296, 192.0, 0.0, 0.0, 0.0, 0.0, 0.0, 0.0, 0.0, 0.0, 0.0, 1.706882988246523E9, 0.0, 2024-02-02 15:09:48.246
134.0, 61960.10851384503, 65816.81261263044, -31787.24280443702, -2377.175078055272, 16856.657487947643, 7161.476571735928, 26814.27023580912, 4790.202354216856, 38521.01874602065, 47241.48479002533, 37272.807928658476, 46781.8435170464, 23513.834001282932, 26406.306196010853, -6825.619259550484, -608.1015596510839, -0.1, 0.99, 0.296, 192.0, 0.0, 0.0, 0.0, 0.0, 0.0, 0.0, 0.0, 0.0, 0.0, 1.70688298825559E9, 0.0, 2024-02-02 15:09:48.255
136.0, 61951.45838874083, 65808.36365322633, -31793.881272540246, -2388.574467727479, 16849.37081925521, 7151.664155920048, 26809.01757586212, 4780.747566312261, 38526.561978645565, 47241.462438280876, 37264.13545180982, 46773.77453729803, 23503.954530233685, 26399.01952731842, -6834.336439888053, -616.5952225441006, -0.106, 0.986, 0.298, 192.0, 126.0, 88.0, 15.0, 104.0, 4.5, 40.0, 0.0, 0.0, 0.0, 1.7068829882635424E9, 0.0, 2024-02-02 15:09:48.263
138.0, 61959.30385104464, 65816.87966786382, -31778.704438055094, -2378.694996678233, 16861.19489207207, 7160.828371146724, 26813.286759053084, 4787.877772793505, 38540.48711544122, 47229.52660674174, 37272.71852168066, 46776.63556058831, 23510.995329737107, 26401.70173665306, -6821.171262403877, -608.5709462846454, -0.106, 0.986, 0.298, 192.0, 0.0, 0.0, 0.0, 0.0, 0.0, 0.0, 0.0, 0.0, 0.0, 1.706882988270532E9, 0.0, 2024-02-02 15:09:48.270
140.0, 61952.59832770805, 65810.21884801613, -31781.699571812103, -2383.9253048807745, 16857.57390947031, 7151.194769286486, 26812.7279654417, 4781.999264001759, 38553.764051647675, 47239.719002213365, 37278.37351302785, 46782.51406938006, 23519.600751352402, 26405.546236699374, -6817.103244913012, -605.2405363608046, -0.106, 0.986, 0.298, 192.0, 0.0, 0.0, 0.0, 0.0, 0.0, 0.0, 0.0, 0.0, 0.0, 1.7068829882786105E9, 0.0, 2024-02-02 15:09:48.278
142.0, 61948.46325498382, 65804.29563573547, -31777.631554321237, -2377.599761199923, 16869.91207240964, 7157.922644367533, 26829.044738894077, 4789.531801883198, 38551.57358069105, 47231.58296723163, 37274.216088559166, 46779.18365945622, 23514.61631233887, 26401.791143630882, -6812.074102410567, -605.1511293829834, -0.106, 0.986, 0.298, 192.0, 0.0, 0.0, 0.0, 0.0, 0.0, 0.0, 0.0, 0.0, 0.0, 1.7068829882876613E9, 0.0, 2024-02-02 15:09:48.287
144.0, 61928.30198148513, 65777.54059762247, -31784.784112546935, -2385.914610137297, 16863.653583962154, 7152.915853609545, 26817.958273644243, 4783.049795991158, 38553.2499615252, 47221.92701362694, 37269.70103617919, 46771.517011108044, 23513.923408260755, 26401.835847119793, -6808.654285508906, -604.0335421602181, -0.106, 0.986, 0.298, 192.0, 0.0, 0.0, 0.0, 0.0, 0.0, 0.0, 0.0, 0.0, 0.0, 1.7068829882946508E9, 0.0, 2024-02-02 15:09:48.294
146.0, 61915.58383889006, 65764.53188234947, -31790.126179471754, -2388.6638747053, 16861.70898219454, 7151.060658819754, 26809.755183429144, 4777.238342432778, 38552.13237430243, 47218.14956881399, 37261.45324247518, 46764.453859860165, 23513.766946049567, 26402.260530264444, -6813.68342801135, -608.2580218622711, -0.106, 0.974, 0.294, 192.0, 126.0, 88.0, 15.0, 56.0, 4.5, 24.0, 0.0, 0.0, 0.0, 1.70688298830263E9, 0.0, 2024-02-02 15:09:48.302
148.0, 61894.7073095688, 65739.09559715934, -31789.43327539364, -2386.0934240929396, 16867.47573226401, 7157.967347856445, 26817.511238755138, 4782.066319235125, 38544.91276084337, 47199.26234474926, 37255.8429546169, 46754.6861475332, 23512.112916959875, 26399.824190118816, -6812.677599510861, -609.6661817629555, -0.106, 0.974, 0.294, 192.0, 0.0, 0.0, 0.0, 0.0, 0.0, 0.0, 0.0, 0.0, 0.0, 1.706882988310845E9, 0.0, 2024-02-02 15:09:48.310
150.0, 61865.44887607681, 65707.82550666637, -31796.652888852703, -2392.441319518247, 16855.919880380618, 7152.468818720439, 26801.529741469592, 4770.197542929357, 38539.414231707364, 47199.75408312727, 37249.15978302476, 46750.81929574243, 23511.33060590394, 26403.959262843047, -6813.906945455903, -603.005361915274, -0.106, 0.974, 0.294, 192.0, 0.0, 0.0, 0.0, 0.0, 0.0, 0.0, 0.0, 0.0, 0.0, 1.7068829883186085E9, 0.0, 2024-02-02 15:09:48.318
152.0, 61847.746294468205, 65684.13265754374, -31797.0552202529, -2388.507412494113, 16857.95388912605, 7158.481437978917, 26811.34215728547, 4776.65719707694, 38532.23932173721, 47190.16518475595, 37242.52131492154, 46741.118638648826, 23503.976881978142, 26403.691041909584, -6819.450178080819, -604.0335421602181, -0.106, 0.974, 0.294, 192.0, 0.0, 0.0, 0.0, 0.0, 0.0, 0.0, 0.0, 0.0, 0.0, 1.7068829883266156E9, 0.0, 2024-02-02 15:09:48.326
154.0, 61828.25557330318, 65659.23281422054, -31801.503217399506, -2389.6473514613335, 16853.215319301526, 7154.525179210327, 26806.849456649958, 4772.835048775083, 38527.92543505734, 47177.15646948296, 37241.11315502085, 46739.978699681604, 23502.613425566367, 26408.675480923117, -6816.008009434701, -602.2677543482488, -0.106, 0.974, 0.294, 192.0, 0.0, 0.0, 0.0, 0.0, 0.0, 0.0, 0.0, 0.0, 0.0, 1.7068829883346293E9, 0.0, 2024-02-02 15:09:48.334
156.0, 61813.056387073564, 65643.60894484627, -31804.408944178696, -2394.408273030314, 16846.688609920577, 7149.674850663526, 26795.181846044285, 4762.75441202574, 38521.890464054406, 47172.61906535853, 37228.37266068133, 46725.8300454414, 23496.55610281898, 26398.41603021813, -6825.731018272761, -612.4825015643241, -0.10200000000000001, 0.978, 0.296, 192.0, 126.0, 104.0, 15.0, 72.0, 4.5, 32.0, 0.0, 0.0, 0.0, 1.706882988343644E9, 0.0, 2024-02-02 15:09:48.343
158.0, 61805.74736663668, 65635.98699998701, -31802.39728717772, -2391.1002148509283, 16851.963621612027, 7154.74869665488, 26809.55401772905, 4770.622226074008, 38522.87394081044, 47164.43832688789, 37230.160800237754, 46722.43258028419, 23494.477390584638, 26399.08658255179, -6824.747541516726, -613.6671440204555, -0.10200000000000001, 0.978, 0.296, 192.0, 0.0, 0.0, 0.0, 0.0, 0.0, 0.0, 0.0, 0.0, 0.0, 1.706882988349814E9, 0.0, 2024-02-02 15:09:48.349
160.0, 61793.25274148617, 65621.72658702453, -31807.940519802636, -2397.5598689985122, 16846.420388987113, 7147.730248895914, 26801.216817047218, 4764.006109715237, 38522.225740221234, 47167.701681578365, 37226.383355424805, 46724.10896111834, 23496.444344096704, 26400.159466285644, -6822.691181026838, -610.5155480522571, -0.10200000000000001, 0.978, 0.296, 192.0, 0.0, 0.0, 0.0, 0.0, 0.0, 0.0, 0.0, 0.0, 0.0, 1.7068829883586612E9, 0.0, 2024-02-02 15:09:48.358
162.0, 61796.493744432184, 65624.09587193679, -31808.96870004758, -2398.364531798903, 16843.961697097027, 7144.60100467217, 26794.041907077066, 4758.105249179036, 38516.32487968503, 47157.55398959565, 37219.70018383267, 46717.67165871521, 23487.70481201468, 26390.79408535887, -6833.978811976768, -623.5019115807905, -0.10200000000000001, 0.978, 0.296, 192.0, 0.0, 0.0, 0.0, 0.0, 0.0, 0.0, 0.0, 0.0, 0.0, 1.7068829883666916E9, 0.0, 2024-02-02 15:09:48.366
164.0, 61806.55202943707, 65632.45542436307, -31804.833627323347, -2394.363569541403, 16850.44370298907, 7149.585443685704, 26799.719250168713, 4766.80007777215, 38527.92543505734, 47159.99032974128, 37227.925625792224, 46723.88544367379, 23492.532788817025, 26397.141980784178, -6825.39574210593, -618.293955122704, -0.10200000000000001, 0.978, 0.296, 192.0, 0.0, 0.0, 0.0, 0.0, 0.0, 0.0, 0.0, 0.0, 0.0, 1.7068829883746765E9, 0.0, 2024-02-02 15:09:48.374
166.0, 61806.082642803514, 65637.41751163216, -31808.879293069756, -2397.0904823649507, 16847.403865743145, 7147.663193662548, 26803.429639748294, 4767.783554528183, 38528.14895250189, 47169.62393160152, 37221.37656466682, 46720.46562677212, 23487.905977714778, 26395.9796900725, -6829.776684019171, -621.1773301574386, -0.10200000000000001, 0.978, 0.294, 192.0, 126.0, 104.0, 15.0, 72.0, 4.5, 24.0, 0.0, 0.0, 0.0, 1.7068829883828392E9, 0.0, 2024-02-02 15:09:48.382
168.0, 61822.82409940054, 65654.20367171809, -31804.230130223055, -2389.2226683166828, 16853.215319301526, 7154.771048399335, 26808.905817139843, 4774.757298798239, 38533.62512989344, 47166.53939086669, 37228.37266068133, 46725.941804163675, 23489.93998646021, 26398.818361618327, -6824.613431049995, -617.8245684891425, -0.10200000000000001, 0.978, 0.294, 192.0, 0.0, 0.0, 0.0, 0.0, 0.0, 0.0, 0.0, 0.0, 0.0, 1.7068829883907094E9, 0.0, 2024-02-02 15:09:48.390
170.0, 61838.55972749707, 65668.53113991393, -31801.279699954954, -2385.601685714923, 16853.170615812614, 7156.201560044475, 26807.58706421698, 4774.019691231214, 38545.225685265745, 47172.50730663625, 37236.50869566306, 46737.698821747166, 23496.75726851908, 26405.65799542165, -6820.63482053695, -607.7215799953437, -0.10200000000000001, 0.978, 0.294, 192.0, 0.0, 0.0, 0.0, 0.0, 0.0, 0.0, 0.0, 0.0, 0.0, 1.7068829883987312E9, 0.0, 2024-02-02 15:09:48.398
172.0, 61848.55095726859, 65684.28911975493, -31801.167941232678, -2390.47436600618, 16850.82368264481, 7156.156856555564, 26802.468514736716, 4771.248074918756, 38553.0487958251, 47182.29737070768, 37242.61072189936, 46744.29258636148, 23498.880684242333, 26408.47431522302, -6819.9866199477465, -606.6039927725784, -0.10200000000000001, 0.978, 0.294, 192.0, 0.0, 0.0, 0.0, 0.0, 0.0, 0.0, 0.0, 0.0, 0.0, 1.7068829884057305E9, 0.0, 2024-02-02 15:09:48.405
174.0, 61854.250652104696, 65690.01116633549, -31802.82197032237, -2392.731892196166, 16847.873252376707, 7155.3298420107185, 26797.662889678824, 4771.13631619648, 38553.07114756956, 47181.80563232966, 37240.21908524264, 46741.945653193674, 23497.763097019568, 26406.328547755307, -6823.942878716336, -611.744893997299, -0.10200000000000001, 0.978, 0.294, 192.0, 0.0, 0.0, 0.0, 0.0, 0.0, 0.0, 0.0, 0.0, 0.0, 1.706882988414962E9, 0.0, 2024-02-02 15:09:48.414
176.0, 61862.67725976435, 65703.60102696432, -31805.43712442364, -2392.396616029336, 16850.890737878173, 7154.279310021318, 26801.373279258405, 4769.102307451047, 38553.115851058465, 47191.52864116772, 37237.291006718995, 46742.19152238268, 23491.996346950098, 26404.60746343225, -6823.585250805051, -613.3542195980812, -0.11, 0.98, 0.296, 192.0, 126.0, 72.0, 15.0, 80.0, 4.5, 32.0, 0.0, 0.0, 0.0, 1.70688298842296E9, 0.0, 2024-02-02 15:09:48.422
178.0, 61871.640309290924, 65713.10051835782, -31806.06297326839, -2391.368435784392, 16852.85769139024, 7155.754525155369, 26803.250825792653, 4769.437583617876, 38553.09349931401, 47190.29929522268, 37239.92851256472, 46747.66769977423, 23490.7446492606, 26402.059364564346, -6824.054637438612, -613.8683097205532, -0.11, 0.98, 0.296, 192.0, 0.0, 0.0, 0.0, 0.0, 0.0, 0.0, 0.0, 0.0, 0.0, 1.7068829884308245E9, 0.0, 2024-02-02 15:09:48.430
180.0, 61868.82398948956, 65712.65348346872, -31816.68005188466, -2408.0651888925063, 16843.894641863662, 7141.337649981696, 26791.896139609355, 4755.423039844399, 38558.167345305366, 47198.032998804214, 37238.833277086414, 46751.62395854282, 23493.60567255088, 26403.869855865225, -6823.428788593864, -613.5106818092682, -0.11, 0.98, 0.296, 192.0, 0.0, 0.0, 0.0, 0.0, 0.0, 0.0, 0.0, 0.0, 0.0, 1.7068829884387617E9, 0.0, 2024-02-02 15:09:48.438
182.0, 61886.615978075984, 65732.21125986711, -31805.86180756829, -2399.1021393659285, 16856.277508291903, 7151.664155920048, 26803.250825792653, 4764.60960681553, 38555.61924643746, 47195.037865047205, 37237.24630323009, 46745.11960090633, 23490.275262627038, 26395.040916805377, -6827.273288640176, -621.6020133020894, -0.11, 0.98, 0.296, 192.0, 0.0, 0.0, 0.0, 0.0, 0.0, 0.0, 0.0, 0.0, 0.0, 1.7068829884469287E9, 0.0, 2024-02-02 15:09:48.446
184.0, 61896.20487644731, 65743.7671117505, -31800.94442378812, -2395.6823224642662, 16856.836301903284, 7150.524216952827, 26800.88154088039, 4763.357909126033, 38560.53663021763, 47199.75408312727, 37246.56698066795, 46753.702670777166, 23493.672727784244, 26401.65703316415, -6821.640649037439, -616.0140771882626, -0.11, 0.98, 0.296, 192.0, 0.0, 0.0, 0.0, 0.0, 0.0, 0.0, 0.0, 0.0, 0.0, 1.7068829884548244E9, 0.0, 2024-02-02 15:09:48.454
186.0, 61899.3117689266, 65748.50568157503, -31803.49252265603, -2396.4869852646575, 16851.29306927837, 7145.606833172659, 26794.891273366367, 4757.345289867555, 38564.939923875325, 47213.50040596729, 37252.601951670884, 46763.22451391513, 23495.863198740866, 26407.803762889358, -6820.657172281405, -613.5777370426342, -0.108, 0.974, 0.29, 192.0, 126.0, 80.0, 15.0, 56.0, 4.5, 8.0, 0.0, 0.0, 0.0, 1.7068829884618185E9, 0.0, 2024-02-02 15:09:48.461
188.0, 61915.60619063451, 65766.11885620581, -31793.836569051335, -2385.892258392842, 16861.217243816525, 7156.246263533386, 26808.034099106088, 4769.594045829063, 38562.01184535168, 47208.13598729801, 37254.837126116414, 46760.56465632495, 23493.47156208415, 26405.546236699374, -6822.3335531155535, -615.9023184659861, -0.108, 0.974, 0.29, 192.0, 0.0, 0.0, 0.0, 0.0, 0.0, 0.0, 0.0, 0.0, 0.0, 1.7068829884710295E9, 0.0, 2024-02-02 15:09:48.471
190.0, 61909.97355103178, 65759.21216716911, -31807.560540146893, -2402.0749213784843, 16845.995705842462, 7138.722495880425, 26791.896139609355, 4755.5571503111305, 38567.37626402095, 47218.596603703096, 37254.72536739414, 46763.78330752651, 23493.382155106327, 26407.244969277977, -6825.552204317118, -616.3940568440029, -0.108, 0.974, 0.29, 192.0, 0.0, 0.0, 0.0, 0.0, 0.0, 0.0, 0.0, 0.0, 0.0, 1.70688298847915E9, 0.0, 2024-02-02 15:09:48.479
192.0, 61919.58480114756, 65768.53284460698, -31802.084362755344, -2398.2304213321713, 16851.136607067183, 7144.55630118326, 26795.137142555373, 4761.502714336242, 38561.11777557347, 47216.65200193549, 37252.19962027069, 46760.274083647026, 23489.023564937543, 26400.539445941384, -6830.804864264115, -620.3279638681369, -0.108, 0.974, 0.29, 192.0, 0.0, 0.0, 0.0, 0.0, 0.0, 0.0, 0.0, 0.0, 0.0, 1.7068829884868643E9, 0.0, 2024-02-02 15:09:48.486
194.0, 61927.87729834048, 65775.37247841031, -31795.781170818947, -2392.396616029336, 16853.438836746078, 7145.830350617212, 26798.244035034662, 4766.330691138589, 38563.129432574446, 47211.48874896631, 37254.74771913859, 46762.44220285919, 23491.03522193852, 26399.64537616317, -6829.0837799410565, -618.9198039674526, -0.108, 0.974, 0.29, 192.0, 0.0, 0.0, 0.0, 0.0, 0.0, 0.0, 0.0, 0.0, 0.0, 1.7068829884938705E9, 0.0, 2024-02-02 15:09:48.493
196.0, 61934.96280133281, 65783.32969943639, -31790.43910389413, -2388.865040405398, 16858.177406570605, 7148.55726344076, 26807.25178805015, 4773.036214475181, 38569.0526448551, 47225.41388576197, 37260.82739363043, 46769.97474074063, 23490.96816670515, 26405.903864610656, -6824.881651983458, -616.6175742885559, -0.112, 0.986, 0.29, 192.0, 126.0, 64.0, 15.0, 104.0, 4.5, 8.0, 0.0, 0.0, 0.0, 1.7068829885031383E9, 0.0, 2024-02-02 15:09:48.503
198.0, 61943.031781081176, 65789.25291171705, -31786.43814163663, -2383.8135461584984, 16858.28916529288, 7150.6359756751035, 26803.183770559284, 4775.6290168319965, 38575.51229900269, 47219.91535662596, 37270.97508561314, 46774.959179754165, 23496.444344096704, 26408.27314952292, -6815.985657690247, -611.2755073637376, -0.112, 0.986, 0.29, 192.0, 0.0, 0.0, 0.0, 0.0, 0.0, 0.0, 0.0, 0.0, 0.0, 1.7068829885098927E9, 0.0, 2024-02-02 15:09:48.509
200.0, 61939.14257754596, 65783.66497560323, -31796.362316174786, -2394.788252686054, 16850.75662741144, 7137.895481335579, 26796.500598967148, 4764.408441115433, 38571.71250244528, 47221.815254904664, 37264.001341343086, 46772.3887291418, 23491.392849849803, 26399.533617440895, -6827.295640384632, -620.7973505016984, -0.112, 0.986, 0.29, 192.0, 0.0, 0.0, 0.0, 0.0, 0.0, 0.0, 0.0, 0.0, 0.0, 1.7068829885179198E9, 0.0, 2024-02-02 15:09:48.517
202.0, 61953.76061841973, 65797.56776065442, -31786.19227244762, -2387.970970627185, 16867.90041540866, 7151.172417542031, 26813.44322126427, 4778.691205822373, 38578.77565369316, 47224.72098168385, 37267.10823382238, 46775.3391594099, 23497.74074527511, 26401.053536063857, -6823.093512427034, -619.389190601014, -0.112, 0.986, 0.29, 192.0, 0.0, 0.0, 0.0, 0.0, 0.0, 0.0, 0.0, 0.0, 0.0, 1.7068829885269265E9, 0.0, 2024-02-02 15:09:48.526
204.0, 61955.25818529823, 65799.66882463322, -31787.555728859395, -2390.921400895286, 16868.995650886973, 7151.619452431137, 26811.78919217458, 4778.847668033561, 38585.03414214065, 47221.457626993375, 37271.77974841354, 46777.55198211098, 23506.703794801688, 26404.22748377651, -6813.7057797558045, -613.2201091313493, -0.112, 0.986, 0.29, 192.0, 0.0, 0.0, 0.0, 0.0, 0.0, 0.0, 0.0, 0.0, 0.0, 1.7068829885351436E9, 0.0, 2024-02-02 15:09:48.535
206.0, 61950.161987562424, 65800.11585952232, -31794.14949347371, -2396.6210957313892, 16862.312479294837, 7146.277385506319, 26809.531665984592, 4774.489077864776, 38579.759130449194, 47229.90658639748, 37266.035350088525, 46776.5908570994, 23497.673690041745, 26403.89220760968, -6821.886518226447, -618.4057138449805, -0.112, 0.98, 0.28800000000000003, 192.0, 126.0, 64.0, 15.0, 80.0, 4.5, 0.0, 0.0, 0.0, 0.0, 1.7068829885419812E9, 0.0, 2024-02-02 15:09:48.541
208.0, 61939.611964179516, 65793.94677805266, -31804.25248196751, -2403.170156856794, 16855.405790258144, 7142.544644182282, 26800.412154246827, 4767.202409172346, 38570.77372917816, 47213.29924026719, 37257.921666851245, 46768.74539479559, 23490.878759727333, 26393.252777248956, -6830.246070652732, -628.0840191941285, -0.112, 0.98, 0.28800000000000003, 192.0, 0.0, 0.0, 0.0, 0.0, 0.0, 0.0, 0.0, 0.0, 0.0, 1.706882988549958E9, 0.0, 2024-02-02 15:09:48.549
210.0, 61937.577955434084, 65802.7310136236, -31801.123237743766, -2399.7056364662217, 16854.15409256865, 7146.2326820174085, 26790.59973843095, 4768.208237672834, 38575.95933389179, 47226.553824729184, 37259.37453024084, 46774.042758231495, 23492.376326605838, 26400.293576752374, -6831.743637531238, -625.7817895152318, -0.112, 0.98, 0.28800000000000003, 192.0, 0.0, 0.0, 0.0, 0.0, 0.0, 0.0, 0.0, 0.0, 0.0, 1.7068829885591216E9, 0.0, 2024-02-02 15:09:48.559
212.0, 61941.19893803584, 65799.1323827663, -31801.57027263287, -2404.399502801836, 16852.18713905658, 7143.908100594056, 26798.512255968126, 4769.303473151144, 38573.65710421289, 47222.73167642733, 37259.15101279629, 46771.29349366349, 23489.425896337736, 26397.41020171764, -6836.25868991121, -630.6097663175782, -0.112, 0.98, 0.28800000000000003, 192.0, 0.0, 0.0, 0.0, 0.0, 0.0, 0.0, 0.0, 0.0, 0.0, 1.7068829885659592E9, 0.0, 2024-02-02 15:09:48.565
214.0, 61938.98611533477, 65803.11099327935, -31796.652888852703, -2399.884450421864, 16854.131740824192, 7147.730248895914, 26800.21098854673, 4773.170324941912, 38576.11579610298, 47215.19913854589, 37264.22485878764, 46768.11954595084, 23492.666899283755, 26395.3314894833, -6828.4355793518525, -625.2900511372151, -0.112, 0.98, 0.28800000000000003, 192.0, 0.0, 0.0, 0.0, 0.0, 0.0, 0.0, 0.0, 0.0, 0.0, 1.7068829885740073E9, 0.0, 2024-02-02 15:09:48.574
216.0, 61939.947240346344, 65803.20040025716, -31799.1562842317, -2400.1973748442383, 16852.075380334303, 7145.517426194839, 26794.198369288253, 4769.661101062429, 38575.62405772496, 47224.117484583556, 37261.11796630835, 46766.711386050156, 23489.291785871006, 26395.823227861314, -6833.218852665288, -623.4125046029693, -0.11, 0.98, 0.29, 192.0, 126.0, 72.0, 15.0, 80.0, 4.5, 8.0, 0.0, 0.0, 0.0, 1.706882988582034E9, 0.0, 2024-02-02 15:09:48.582
218.0, 61955.9734411208, 65816.65615041925, -31789.321516671363, -2390.116738094895, 16864.77117118492, 7155.7992286442795, 26808.347023528462, 4778.825316289105, 38577.56865949257, 47224.184539816924, 37268.76226291207, 46775.42856638772, 23494.365631862358, 26401.254701763955, -6821.506538570708, -614.583565543123, -0.11, 0.98, 0.29, 192.0, 0.0, 0.0, 0.0, 0.0, 0.0, 0.0, 0.0, 0.0, 0.0, 1.7068829885915627E9, 0.0, 2024-02-02 15:09:48.591
220.0, 61949.58084220658, 65803.9827113131, -31802.509045899995, -2402.879584178875, 16850.80133090035, 7141.672926148525, 26795.91945361131, 4764.855476004538, 38580.11675836048, 47231.76178118727, 37268.85166988989, 46778.15547921127, 23497.74074527511, 26404.451001221063, -6820.813634492592, -615.8129114881649, -0.11, 0.98, 0.29, 192.0, 0.0, 0.0, 0.0, 0.0, 0.0, 0.0, 0.0, 0.0, 0.0, 1.7068829885980175E9, 0.0, 2024-02-02 15:09:48.598
222.0, 61955.70522018734, 65807.84956310387, -31800.005650521, -2399.95150565523, 16859.33969728228, 7143.170493027031, 26801.68620368078, 4766.397746371955, 38568.53855473263, 47219.60243220359, 37258.72632965164, 46765.862019760854, 23491.996346950098, 26392.068134792822, -6827.228585151266, -625.5806238151341, -0.11, 0.98, 0.29, 192.0, 0.0, 0.0, 0.0, 0.0, 0.0, 0.0, 0.0, 0.0, 0.0, 1.7068829886060815E9, 0.0, 2024-02-02 15:09:48.606
224.0, 61958.23096731079, 65811.91758059473, -31798.843359809325, -2397.984552143163, 16860.010249615938, 7142.544644182282, 26805.44129674927, 4766.509505094231, 38576.58518273654, 47224.83274040613, 37268.80696640098, 46775.54032511, 23502.680480799732, 26399.377155229708, -6820.143082158934, -620.9314609684302, -0.11, 0.98, 0.29, 192.0, 0.0, 0.0, 0.0, 0.0, 0.0, 0.0, 0.0, 0.0, 0.0, 1.706882988615213E9, 0.0, 2024-02-02 15:09:48.615
226.0, 61951.23487129628, 65807.24606600357, -31804.788923834436, -2404.0418748905513, 16853.70705767954, 7136.912004579545, 26789.30333725254, 4753.903121221438, 38573.83591816854, 47230.51008349778, 37262.41436748676, 46770.6899965632, 23497.159599919272, 26397.812533117838, -6826.5580328176065, -622.227862146838, -0.109, 0.977, 0.29, 192.0, 126.0, 80.0, 15.0, 56.0, 4.5, 8.0, 0.0, 0.0, 0.0, 1.7068829886220968E9, 0.0, 2024-02-02 15:09:48.622
228.0, 61956.867510899014, 65811.73876663909, -31802.352583688807, -2399.1021393659285, 16860.77020892742, 7145.495074450383, 26800.21098854673, 4765.235455660279, 38568.091519843525, 47216.853167635585, 37260.26860001905, 46764.56561858245, 23494.544445818003, 26393.8786260937, -6829.866090996992, -625.133588926028, -0.109, 0.977, 0.29, 192.0, 0.0, 0.0, 0.0, 0.0, 0.0, 0.0, 0.0, 0.0, 0.0, 1.7068829886301389E9, 0.0, 2024-02-02 15:09:48.630
230.0, 61951.52544397419, 65812.18580152819, -31810.91330181519, -2406.52291852509, 16848.968487855018, 7138.476626691417, 26783.246014505152, 4754.573673555097, 38572.18188907884, 47232.34292654311, 37264.336617509915, 46775.96500825465, 23500.60176856539, 26403.266358764933, -6827.54150957364, -617.3328301111258, -0.109, 0.977, 0.29, 192.0, 0.0, 0.0, 0.0, 0.0, 0.0, 0.0, 0.0, 0.0, 0.0, 1.7068829886383464E9, 0.0, 2024-02-02 15:09:48.638
232.0, 61956.666345198915, 65816.03030157452, -31809.125162258766, -2404.6900754797553, 16854.064685590827, 7140.4212284590285, 26788.78924713007, 4757.591159056564, 38566.63865645393, 47236.03096437824, 37259.21806802965, 46775.54032511, 23495.170294662752, 26398.952472085057, -6835.990468977746, -624.6642022924665, -0.109, 0.977, 0.29, 192.0, 0.0, 0.0, 0.0, 0.0, 0.0, 0.0, 0.0, 0.0, 0.0, 1.7068829886472855E9, 0.0, 2024-02-02 15:09:48.647
234.0, 61956.42047600991, 65815.7844323855, -31809.371031447776, -2403.1254533678834, 16848.364990754722, 7136.710838879448, 26784.408305216828, 4753.076106676592, 38562.92826687435, 47230.331269542134, 37260.08978606341, 46773.17104019774, 23493.628024295336, 26395.26443424993, -6839.387934134953, -629.3804203725363, -0.109, 0.977, 0.29, 192.0, 0.0, 0.0, 0.0, 0.0, 0.0, 0.0, 0.0, 0.0, 0.0, 1.7068829886541543E9, 0.0, 2024-02-02 15:09:48.654
236.0, 61954.02883935319, 65815.89619110778, -31808.63342388075, -2403.460729534713, 16844.4757872195, 7134.967402811933, 26786.26350000662, 4752.98669969877, 38565.4540139978, 47242.781191203736, 37265.16363205476, 46779.854211789876, 23493.02452719504, 26400.964129086035, -6841.399591135931, -624.9100714814748, -0.10450000000000001, 0.9764999999999999, 0.28900000000000003, 192.0, 126.0, 112.0, 15.0, 64.0, 4.5, 0.0, 0.0, 0.0, 0.0, 1.70688298866215E9, 0.0, 2024-02-02 15:09:48.662
238.0, 61962.053115612645, 65823.85341213386, -31800.58679587684, -2395.011770130607, 16850.063723333325, 7142.790513371291, 26789.10217155244, 4758.8428567460605, 38558.74849066121, 47237.148551601, 37268.91872512326, 46780.54711586799, 23486.184893391717, 26397.61136741774, -6843.2324341812655, -629.0227924612514, -0.10450000000000001, 0.9764999999999999, 0.28900000000000003, 192.0, 0.0, 0.0, 0.0, 0.0, 0.0, 0.0, 0.0, 0.0, 0.0, 1.7068829886711445E9, 0.0, 2024-02-02 15:09:48.671
240.0, 61967.23872032628, 65829.95543837016, -31798.798656320414, -2394.050645119029, 16853.10356057925, 7144.980984327911, 26788.476322707695, 4762.7767637701945, 38569.47732799975, 47257.13101114405, 37280.74279794011, 46794.181679985726, 23497.159599919272, 26408.742536156482, -6835.856358511014, -619.4115423454693, -0.10450000000000001, 0.9764999999999999, 0.28900000000000003, 192.0, 0.0, 0.0, 0.0, 0.0, 0.0, 0.0, 0.0, 0.0, 0.0, 1.7068829886784568E9, 0.0, 2024-02-02 15:09:48.678
242.0, 61955.72757193179, 65817.34905449738, -31804.319537200874, -2401.8290521894755, 16850.130778566694, 7141.628222659615, 26786.330555239983, 4757.121772423002, 38560.55898196209, 47247.38565056153, 37272.539707725016, 46784.88335429232, 23494.857370240377, 26401.969957586523, -6837.063352711601, -623.0101732027738, -0.10450000000000001, 0.9764999999999999, 0.28900000000000003, 192.0, 0.0, 0.0, 0.0, 0.0, 0.0, 0.0, 0.0, 0.0, 0.0, 1.7068829886862032E9, 0.0, 2024-02-02 15:09:48.686
244.0, 61951.3242782741, 65810.21884801613, -31803.157246489198, -2402.8125289455093, 16851.47188323401, 7140.220062758931, 26783.49188369416, 4754.238397388268, 38552.11002255798, 47233.75108644379, 37266.95177161119, 46777.35081641088, 23491.638719038812, 26394.437419705086, -6840.505521357718, -627.5922808161117, -0.10450000000000001, 0.9764999999999999, 0.28900000000000003, 192.0, 0.0, 0.0, 0.0, 0.0, 0.0, 0.0, 0.0, 0.0, 0.0, 1.7068829886942017E9, 0.0, 2024-02-02 15:09:48.694
246.0, 61944.19407179285, 65798.79710659946, -31803.157246489198, -2402.1866801007604, 16851.09190357827, 7140.4212284590285, 26772.383066699873, 4750.930339208882, 38554.41225223688, 47244.99401390481, 37269.65633269028, 46782.089386235406, 23497.450172597193, 26400.539445941384, -6839.969079490791, -623.8595394920754, -0.10525000000000001, 0.98025, 0.28750000000000003, 192.0, 126.0, 88.0, 15.0, 96.0, 4.0, 120.0, 0.0, 0.0, 0.0, 1.7068829887032368E9, 0.0, 2024-02-02 15:09:48.703
248.0, 61937.242679267256, 65786.03426051549, -31790.170882960665, -2391.6366567178557, 16866.156979341147, 7153.765219898846, 26804.815447904522, 4770.42106037391, 38544.77865037664, 47229.839531164114, 37267.13058556683, 46775.42856638772, 23492.35397486138, 26397.74547788447, -6837.108056200512, -623.7030772808882, -0.10525000000000001, 0.98025, 0.28750000000000003, 192.0, 0.0, 0.0, 0.0, 0.0, 0.0, 0.0, 0.0, 0.0, 0.0, 1.706882988710399E9, 0.0, 2024-02-02 15:09:48.710
250.0, 61920.523574414685, 65763.66016431572, -31795.647060352214, -2396.017598631096, 16857.685668192586, 7149.451333218973, 26794.31012801053, 4764.028461459692, 38546.45503121079, 47234.91337715547, 37273.858460647876, 46783.98928451411, 23501.562893576967, 26409.681309423606, -6822.5123670711955, -608.9509259403856, -0.10525000000000001, 0.98025, 0.28750000000000003, 192.0, 0.0, 0.0, 0.0, 0.0, 0.0, 0.0, 0.0, 0.0, 0.0, 1.7068829887182167E9, 0.0, 2024-02-02 15:09:48.718
252.0, 61882.77147802967, 65716.38622479275, -31807.068801768877, -2409.9650871712074, 16851.270717533913, 7138.409571458051, 26784.07302905, 4754.752487510739, 38522.359850687964, 47210.92995535493, 37256.6923209062, 46760.51995283603, 23488.75534400408, 26392.358707470743, -6836.169282933389, -620.6185365460559, -0.10525000000000001, 0.98025, 0.28750000000000003, 192.0, 0.0, 0.0, 0.0, 0.0, 0.0, 0.0, 0.0, 0.0, 0.0, 1.7068829887272773E9, 0.0, 2024-02-02 15:09:48.727
254.0, 61862.94548069781, 65684.44558196612, -31807.068801768877, -2410.5909360159562, 16852.90239487915, 7139.594213914182, 26787.425790718295, 4757.3229381231, 38507.87592028092, 47184.91252480895, 37245.62820740083, 46743.554978794455, 23487.011907936565, 26386.79312310137, -6835.588137577551, -619.5009493232906, -0.10525000000000001, 0.98025, 0.28750000000000003, 192.0, 0.0, 0.0, 0.0, 0.0, 0.0, 0.0, 0.0, 0.0, 0.0, 1.70688298873427E9, 0.0, 2024-02-02 15:09:48.734
0.0, 61834.80463442858, 65650.91796528315, -31818.848171096823, -2423.6667065223105, 16843.60406918574, 7128.753617853358, 26779.222700503196, 4746.817618229105, 38497.6388213204, 47182.43148117441, 37231.88188456081, 46731.462685044135, 23483.92736720173, 26383.59682364426, -6842.83010278107, -624.7312575258323, -0.106625, 0.9801249999999999, 0.28875, 192.0, 126.0, 80.0, 15.0, 80.0, 4.5, 8.0, 0.0, 0.0, 0.0, 1.7068829887424743E9, 0.0, 2024-02-02 15:09:48.742
2.0, 61827.36150352496, 65642.46900587904, -31811.025060537468, -2416.7376657411655, 16852.500063478954, 7139.683620892003, 26787.559901185025, 4755.8477229890495, 38486.10532118146, 47163.007815242745, 37227.36683218084, 46723.214891340125, 23481.55808228947, 26378.74649509746, -6844.886463270958, -628.8886819945195, -0.106625, 0.9801249999999999, 0.28875, 192.0, 0.0, 0.0, 0.0, 0.0, 0.0, 0.0, 0.0, 0.0, 0.0, 1.706882988750272E9, 0.0, 2024-02-02 15:09:48.750
4.0, 61809.90479110537, 65628.65562780567, -31817.68588038515, -2422.504415810635, 16847.917955865618, 7134.185091755998, 26783.8718633499, 4750.483304319776, 38482.797263002074, 47170.54035312419, 37226.249244958075, 46725.27125183002, 23482.809779978965, 26384.02150678891, -6838.270346912187, -622.1608069134721, -0.106625, 0.9801249999999999, 0.28875, 192.0, 0.0, 0.0, 0.0, 0.0, 0.0, 0.0, 0.0, 0.0, 0.0, 1.7068829887583017E9, 0.0, 2024-02-02 15:09:48.758
