%OpenBCI Raw EXG Data
%Number of channels = 16
%Sample Rate = 125 Hz
%Board = OpenBCI_GUI$BoardCytonSerialDaisy
Sample Index, EXG Channel 0, EXG Channel 1, EXG Channel 2, EXG Channel 3, EXG Channel 4, EXG Channel 5, EXG Channel 6, EXG Channel 7, EXG Channel 8, EXG Channel 9, EXG Channel 10, EXG Channel 11, EXG Channel 12, EXG Channel 13, EXG Channel 14, EXG Channel 15, Accel Channel 0, Accel Channel 1, Accel Channel 2, Other, Other, Other, Other, Other, Other, Other, Analog Channel 0, Analog Channel 1, Analog Channel 2, Timestamp, Other, Timestamp (Formatted)
142.0, 62871.7914666881, 65772.26558593102, -31640.68241604357, -4047.766810389377, 16922.841003279806, 6385.446355992121, 25001.34259478362, 5942.077152976651, 41156.15530683462, 46994.52036553864, 37398.24591854166, 48600.64966686365, 23405.942130797164, 26815.49958175416, -8426.697066628583, -1767.6430067590484, 0.0, 0.0, 0.0, 192.0, 0.0, 0.0, 0.0, 0.0, 0.0, 0.0, 0.0, 0.0, 0.0, 1.7068831630458517E9, 0.0, 2024-02-02 15:12:43.045
144.0, 62873.177274844325, 65779.28403368998, -31636.07795668578, -4040.2789759968496, 16921.58930559031, 6388.061510093393, 24995.7993621587, 5942.233615187838, 41155.48475450096, 47007.79730174509, 37398.67060168631, 48604.963553543515, 23407.86438082032, 26811.54332298557, -8425.557127661363, -1766.2124951139087, 0.0, 0.0, 0.0, 192.0, 0.0, 0.0, 0.0, 0.0, 0.0, 0.0, 0.0, 0.0, 0.0, 1.7068831630458825E9, 0.0, 2024-02-02 15:12:43.045
0.0, 31492.110370649145, 32698.635184602164, -15811.355806750753, -2466.492648898679, 8465.790267680915, 3145.650404173184, 12438.343457978184, 2825.595775317642, 20578.78173336765, 23498.32189063095, 18701.905751455517, 24302.04591775488, 11702.814603187395, 13395.17693462097, -4213.057960636373, -881.5304495728552, -0.114, 0.964, 0.28200000000000003, 192.0, 126.0, 56.0, 15.0, 16.0, 4.0, 104.0, 0.0, 0.0, 0.0, 1.7068831631449516E9, 0.0, 2024-02-02 15:12:43.144
2.0, 62957.778627607666, 65338.239412097864, -31613.949729675023, -4932.448855930431, 16936.74378833101, 6293.066596158337, 24886.476980027794, 5649.895149456876, 39985.75091192137, 47130.35191659354, 37482.13201548243, 49098.91475426135, 23422.415366460726, 26974.867519720498, -8440.018706323946, -1922.0935609452201, -0.114, 0.964, 0.28200000000000003, 192.0, 0.0, 0.0, 0.0, 0.0, 0.0, 0.0, 0.0, 0.0, 0.0, 1.706883163150959E9, 0.0, 2024-02-02 15:12:43.150
4.0, 62955.34228746204, 65321.20738282292, -31612.563921518795, -4937.50035017733, 16931.267610939456, 6290.294979845879, 24866.53922397366, 5630.069152125019, 39819.319822707155, 47111.19647159534, 37482.6461056049, 49097.73011180522, 23423.331787983392, 26974.085208664565, -8435.458950455064, -1920.104255688698, -0.114, 0.964, 0.28200000000000003, 192.0, 0.0, 0.0, 0.0, 0.0, 0.0, 0.0, 0.0, 0.0, 0.0, 1.7068831631579883E9, 0.0, 2024-02-02 15:12:43.157
6.0, 62909.387100861924, 65278.64966138002, -31619.291796599842, -4947.960966582414, 16923.95859050257, 6283.567104764832, 24863.231165794274, 5617.909803141332, 39690.841995578056, 47113.78927395216, 37468.67626532033, 49094.15383269237, 23414.189924501174, 26969.927784195876, -8449.071162828346, -1931.5930523387258, -0.114, 0.964, 0.28200000000000003, 192.0, 0.0, 0.0, 0.0, 0.0, 0.0, 0.0, 0.0, 0.0, 0.0, 1.7068831631670475E9, 0.0, 2024-02-02 15:12:43.167
8.0, 62944.6581536124, 65262.66816409447, -31611.334575573754, -4945.591681670151, 16925.031474236428, 6285.332892576801, 24857.911450613912, 5612.210108305229, 39600.295078789604, 47091.25871554121, 37462.753053039676, 49089.25880065666, 23404.556322640936, 26957.321400323082, -8450.613433195762, -1935.1916831960302, -0.126, 0.964, 0.28, 192.0, 126.0, 8.0, 15.0, 16.0, 4.0, 96.0, 0.0, 0.0, 0.0, 1.7068831631749809E9, 0.0, 2024-02-02 15:12:43.174
10.0, 62957.622165396475, 65269.39603917552, -31599.35404054571, -4935.421637942986, 16935.983829019526, 6296.776985737919, 24868.841453652556, 5621.284916554084, 39524.14268543037, 47105.541480248154, 37485.529480639634, 49110.64942010039, 23418.950846070155, 26972.90056620843, -8441.382162735721, -1927.7932557813235, -0.126, 0.964, 0.28, 192.0, 0.0, 0.0, 0.0, 0.0, 0.0, 0.0, 0.0, 0.0, 0.0, 1.7068831631829913E9, 0.0, 2024-02-02 15:12:43.182
12.0, 62932.43174939534, 65253.593355845616, -31604.45023828152, -4944.40703921402, 16929.568878360853, 6290.630256012709, 24863.83466289457, 5612.925364127799, 39423.87275980387, 47118.214919354315, 37488.837538819025, 49117.08672250351, 23424.8293548619, 26980.67897327888, -8436.91181384466, -1921.71358128948, -0.126, 0.964, 0.28, 192.0, 0.0, 0.0, 0.0, 0.0, 0.0, 0.0, 0.0, 0.0, 0.0, 1.7068831631900346E9, 0.0, 2024-02-02 15:12:43.190
14.0, 62912.89632474141, 65249.68180056594, -31603.377354547665, -4947.178655526478, 16933.234564451526, 6290.473793801522, 24860.59365994855, 5608.343256514461, 39390.568660565456, 47095.81847141009, 37478.42162590285, 49104.48033863072, 23417.497982680557, 26969.413694073402, -8444.667869170651, -1933.939985506533, -0.126, 0.964, 0.28, 192.0, 0.0, 0.0, 0.0, 0.0, 0.0, 0.0, 0.0, 0.0, 0.0, 1.7068831631981633E9, 0.0, 2024-02-02 15:12:43.198
16.0, 62942.13240648895, 65289.26673999629, -31597.655307967107, -4942.976527568881, 16934.93329703013, 6290.227924612514, 24858.805520392125, 5607.136262313875, 39427.22552147216, 47093.315076031104, 37481.26029744867, 49107.20725145427, 23419.599046659358, 26973.593470286545, -8439.862244112759, -1930.3190029047732, -0.126, 0.964, 0.28, 192.0, 0.0, 0.0, 0.0, 0.0, 0.0, 0.0, 0.0, 0.0, 0.0, 1.7068831632070208E9, 0.0, 2024-02-02 15:12:43.207
18.0, 62955.83402584005, 65318.90515314403, -31609.0099941504, -4953.437143973964, 16925.411453892168, 6279.499087273966, 24847.24966850873, 5598.508488954126, 39489.9221646693, 47110.19064309486, 37487.13880624042, 49115.9914870252, 23418.05677629194, 26973.369952841993, -8446.47836047153, -1934.521130862371, -0.128, 0.972, 0.28400000000000003, 192.0, 126.0, 0.0, 15.0, 48.0, 4.0, 112.0, 0.0, 0.0, 0.0, 1.7068831632140589E9, 0.0, 2024-02-02 15:12:43.214
20.0, 62950.559014148595, 65335.512499274315, -31604.02555513687, -4950.643175917051, 16924.942067258606, 6279.923770418617, 24848.188441775852, 5600.497794210648, 39507.64709802235, 47097.74072143325, 37478.980419514235, 49106.33553342051, 23411.351252955348, 26964.161034126406, -8452.647441941195, -1942.2101309549967, -0.128, 0.972, 0.28400000000000003, 192.0, 0.0, 0.0, 0.0, 0.0, 0.0, 0.0, 0.0, 0.0, 0.0, 1.7068831632220385E9, 0.0, 2024-02-02 15:12:43.222
22.0, 62951.900118815916, 65354.667944272514, -31612.765087218893, -4957.683975420472, 16914.77202353144, 6276.4368982835895, 24841.169994016887, 5592.182945273274, 39539.766554804635, 47105.407369781424, 37470.12912870993, 49103.273344430134, 23404.310453451926, 26964.406903315416, -8463.331575790831, -1946.1440379791306, -0.128, 0.972, 0.28400000000000003, 192.0, 0.0, 0.0, 0.0, 0.0, 0.0, 0.0, 0.0, 0.0, 0.0, 1.7068831632310872E9, 0.0, 2024-02-02 15:12:43.231
24.0, 62969.870921357986, 65392.46474414644, -31605.29960457082, -4950.26319626131, 16924.137404458215, 6286.67399724412, 24847.473185953284, 5600.117814554908, 39599.28925028911, 47112.828148940585, 37474.33125666753, 49110.62706835593, 23406.63503487528, 26970.017191173698, -8464.33740429132, -1947.3957356686278, -0.128, 0.972, 0.28400000000000003, 192.0, 0.0, 0.0, 0.0, 0.0, 0.0, 0.0, 0.0, 0.0, 0.0, 1.7068831632390912E9, 0.0, 2024-02-02 15:12:43.239
26.0, 62984.22074129829, 65429.076901564236, -31604.561997003795, -4951.045507317246, 16920.762291045463, 6286.182258866103, 24844.790976618646, 5600.96718084421, 39682.54949838513, 47122.059419400626, 37476.521727624146, 49122.071161517044, 23406.657386619736, 26974.33107785357, -8464.426811269142, -1949.3403374362395, -0.128, 0.972, 0.28400000000000003, 192.0, 0.0, 0.0, 0.0, 0.0, 0.0, 0.0, 0.0, 0.0, 0.0, 1.7068831632460773E9, 0.0, 2024-02-02 15:12:43.246
28.0, 62997.117697849004, 65460.70461996849, -31604.651403981617, -4948.36329798261, 16923.6456660802, 6288.439785056089, 24844.656866151916, 5609.1479193148525, 39802.28779343222, 47130.866006716016, 37475.404140401384, 49127.41322844187, 23401.449430161647, 26972.185310385863, -8470.171209594157, -1957.2975584623289, -0.136, 0.968, 0.28200000000000003, 192.0, 125.5, 96.0, 15.0, 32.0, 4.0, 104.0, 0.0, 0.0, 0.0, 1.7068831632541728E9, 0.0, 2024-02-02 15:12:43.254
30.0, 63006.147802608946, 65480.664727767085, -31601.902139413614, -4941.657774646017, 16933.30161968489, 6295.502936303966, 24853.798729634134, 5624.2353468221845, 39943.28259745629, 47121.61238451152, 37477.70637008028, 49124.06046677357, 23403.461087162625, 26973.548766797638, -8475.24505558551, -1963.6901573765467, -0.136, 0.968, 0.28200000000000003, 192.0, 0.0, 0.0, 0.0, 0.0, 0.0, 0.0, 0.0, 0.0, 0.0, 1.7068831632631228E9, 0.0, 2024-02-02 15:12:43.263
32.0, 63011.46751778931, 65493.67344304007, -31610.753430217916, -4943.602376413629, 16933.994523763005, 6293.983017681006, 24865.68985768436, 5637.512283028636, 40098.18018653157, 47136.81157074113, 37483.31665793856, 49128.799036598095, 23408.892561065266, 26983.472941335793, -8469.277139815944, -1963.9136748210997, -0.136, 0.968, 0.28200000000000003, 192.0, 0.0, 0.0, 0.0, 0.0, 0.0, 0.0, 0.0, 0.0, 0.0, 1.7068831632721467E9, 0.0, 2024-02-02 15:12:43.272
34.0, 63025.41500632942, 65512.605370593716, -31608.652366239116, -4937.477998432875, 16944.2986779569, 6303.728378263519, 24876.73161944528, 5656.421858837826, 40260.92323791066, 47141.125457421, 37490.13393999743, 49129.82721684304, 23409.63016863229, 26986.378668114983, -8468.539532248918, -1976.1400790381526, -0.136, 0.968, 0.28200000000000003, 192.0, 0.0, 0.0, 0.0, 0.0, 0.0, 0.0, 0.0, 0.0, 0.0, 1.706883163279128E9, 0.0, 2024-02-02 15:12:43.279
36.0, 63031.04764593216, 65526.53050738937, -31615.804924464814, -4939.377896711576, 16942.130558744735, 6303.840136985796, 24873.669430454902, 5665.45196359777, 40410.59051878339, 47149.887341247486, 37490.42451267535, 49126.54151040811, 23408.53493315398, 26987.272737893196, -8470.461782272076, -1982.7561953969237, -0.136, 0.968, 0.28200000000000003, 192.0, 0.0, 0.0, 0.0, 0.0, 0.0, 0.0, 0.0, 0.0, 0.0, 1.706883163286442E9, 0.0, 2024-02-02 15:12:43.286
38.0, 63029.01363718673, 65528.475109156985, -31629.77476474938, -4944.876425847581, 16938.107244742783, 6299.615657283743, 24872.931822887876, 5668.715318288246, 40521.566930003995, 47157.17400993991, 37487.921117296355, 49124.99924004069, 23404.91395055222, 26987.272737893196, -8475.781497452439, -1986.2654192764069, -0.138, 0.968, 0.28400000000000003, 192.0, 125.5, 88.0, 15.0, 32.0, 4.0, 112.0, 0.0, 0.0, 0.0, 1.7068831632955253E9, 0.0, 2024-02-02 15:12:43.295
40.0, 63042.424683859914, 65542.42259769709, -31633.909837473613, -4942.820065357693, 16938.040189509415, 6301.403796840167, 24874.943479888854, 5675.756117791667, 40606.74942812317, 47154.76002153874, 37487.38467542943, 49126.072123774546, 23399.370717927304, 26984.724639025288, -8477.01084339748, -1985.3489977537392, -0.138, 0.968, 0.28400000000000003, 192.0, 0.0, 0.0, 0.0, 0.0, 0.0, 0.0, 0.0, 0.0, 0.0, 1.7068831633022585E9, 0.0, 2024-02-02 15:12:43.302
42.0, 63050.113683952535, 65545.3730279652, -31637.419061353095, -4939.98139381187, 16941.035323266427, 6302.923715463128, 24879.994974135756, 5681.344053905494, 40684.77936801665, 47166.60644610005, 37484.79187307261, 49123.47932141773, 23399.080145249387, 26988.680897793878, -8478.553113764896, -1983.6055616862252, -0.138, 0.968, 0.28400000000000003, 192.0, 0.0, 0.0, 0.0, 0.0, 0.0, 0.0, 0.0, 0.0, 0.0, 1.706883163310173E9, 0.0, 2024-02-02 15:12:43.310
44.0, 63048.929041496405, 65539.9192023181, -31641.196506166045, -4938.506178677819, 16946.176224491148, 6303.035474185404, 24887.30399457264, 5687.133155719418, 40754.65092118394, 47162.65018733146, 37487.6975998518, 49119.85833881597, 23403.908122051733, 26989.642022805456, -8472.004052639491, -1983.9855413419655, -0.138, 0.968, 0.28400000000000003, 192.0, 0.0, 0.0, 0.0, 0.0, 0.0, 0.0, 0.0, 0.0, 0.0, 1.706883163319188E9, 0.0, 2024-02-02 15:12:43.319
46.0, 63045.86685250603, 65538.77926335088, -31652.282971415876, -4946.865731104103, 16938.15194823169, 6290.831421712807, 24882.36425904802, 5683.489821373203, 40807.71396252084, 47158.09043146258, 37483.96485852777, 49111.92346953434, 23401.20356097264, 26984.523473325193, -8475.356814307788, -1987.6959309215465, -0.138, 0.968, 0.28400000000000003, 192.0, 0.0, 0.0, 0.0, 0.0, 0.0, 0.0, 0.0, 0.0, 0.0, 1.7068831633262153E9, 0.0, 2024-02-02 15:12:43.326
48.0, 63069.760867328754, 65564.79669389686, -31654.629904583682, -4946.284585748266, 16937.704913342586, 6291.099642646271, 24881.11256135852, 5685.613237096458, 40833.887855278, 47155.8329052726, 37473.37013165595, 49100.837004284505, 23390.944110267654, 26972.47588306378, -8490.041910414924, -2000.0787973497866, -0.14, 0.98, 0.272, 192.0, 125.5, 80.0, 15.0, 80.0, 4.0, 64.0, 0.0, 0.0, 0.0, 1.7068831633342545E9, 0.0, 2024-02-02 15:12:43.334
50.0, 63088.558684415664, 65583.9744906395, -31645.085709701267, -4938.908510078015, 16944.477491912545, 6300.353264850768, 24890.74616321876, 5697.7949378246, 40861.26874223575, 47162.82900128711, 37489.84336731951, 49115.522100391645, 23397.850799304342, 26984.881101236475, -8481.145916121712, -1988.098262321742, -0.14, 0.98, 0.272, 192.0, 0.0, 0.0, 0.0, 0.0, 0.0, 0.0, 0.0, 0.0, 0.0, 1.7068831633422616E9, 0.0, 2024-02-02 15:12:43.342
52.0, 63092.425536206436, 65590.00946164245, -31648.572581836295, -4943.848245602638, 16943.516366900967, 6296.8663927157395, 24887.43810503937, 5696.02915001263, 40874.389216231015, 47178.78814682819, 37492.21265223177, 49123.702838862286, 23404.39986042975, 26994.04531646315, -8478.687224231628, -1981.3480354962392, -0.14, 0.98, 0.272, 192.0, 0.0, 0.0, 0.0, 0.0, 0.0, 0.0, 0.0, 0.0, 0.0, 1.7068831633504276E9, 0.0, 2024-02-02 15:12:43.350
54.0, 63109.85989688157, 65610.0366246744, -31641.420023610597, -4936.203948998922, 16950.87009082676, 6305.829442242318, 24897.250520855254, 5704.723978605745, 40870.902344095986, 47171.81440255814, 37488.92694579684, 49118.383123681924, 23401.561188883923, 26987.33979312656, -8482.53172427794, -1985.6619221761134, -0.14, 0.98, 0.272, 192.0, 0.0, 0.0, 0.0, 0.0, 0.0, 0.0, 0.0, 0.0, 0.0, 1.7068831633582447E9, 0.0, 2024-02-02 15:12:43.358
56.0, 63115.201963806394, 65617.5915143003, -31651.053625470835, -4944.697611891939, 16939.4483494101, 6292.306636846857, 24886.097000372054, 5693.726920333734, 40883.821652391154, 47181.35859744056, 37498.42643719035, 49128.374353453444, 23404.131639496285, 26992.525397840192, -8481.592951010818, -1979.872820362189, -0.14, 0.98, 0.272, 192.0, 0.0, 0.0, 0.0, 0.0, 0.0, 0.0, 0.0, 0.0, 0.0, 1.7068831633662736E9, 0.0, 2024-02-02 15:12:43.366
58.0, 63120.07464409765, 65626.57691557132, -31650.226610925987, -4940.897815334537, 16942.667000611666, 6296.2181921265355, 24886.96871840581, 5696.7444058352, 40879.84304187811, 47178.36346368354, 37492.816149332066, 49123.38991443991, 23398.566055126914, 26984.61288030301, -8491.673587760162, -1991.160451312119, -0.146, 0.982, 0.268, 192.0, 125.5, 56.0, 15.0, 88.0, 4.0, 48.0, 0.0, 0.0, 0.0, 1.7068831633753176E9, 0.0, 2024-02-02 15:12:43.375
60.0, 63132.83749018163, 65641.30671516737, -31641.352968377232, -4938.6402891445505, 16949.417227437167, 6302.566087551843, 24894.88123594299, 5706.847394328999, 40890.3036582832, 47178.81049857265, 37504.215539004275, 49131.77181861065, 23409.429002932193, 26992.458342606824, -8480.251846343499, -1985.0807768202756, -0.146, 0.982, 0.268, 192.0, 0.0, 0.0, 0.0, 0.0, 0.0, 0.0, 0.0, 0.0, 0.0, 1.7068831633823843E9, 0.0, 2024-02-02 15:12:43.382
62.0, 63128.478900012844, 65634.93646799761, -31650.964218493013, -4952.520722451297, 16941.035323266427, 6288.372729822723, 24886.63344223898, 5696.833812813022, 40882.368789001564, 47178.00583577226, 37494.8501580775, 49121.57942313903, 23400.510656894527, 26983.38353435797, -8484.878657445748, -1992.1662798126079, -0.146, 0.982, 0.268, 192.0, 0.0, 0.0, 0.0, 0.0, 0.0, 0.0, 0.0, 0.0, 0.0, 1.7068831633903072E9, 0.0, 2024-02-02 15:12:43.390
64.0, 63128.143623846016, 65642.6925233236, -31644.281046900876, -4940.964870567903, 16950.31129721538, 6297.313427604846, 24898.658680755936, 5705.327475706038, 40873.897477853, 47169.22160020132, 37493.03966677662, 49115.20917596927, 23399.48247664958, 26978.399095344437, -8483.87282894526, -1997.128367081686, -0.146, 0.982, 0.268, 192.0, 0.0, 0.0, 0.0, 0.0, 0.0, 0.0, 0.0, 0.0, 0.0, 1.706883163398296E9, 0.0, 2024-02-02 15:12:43.398
66.0, 63116.99010336281, 65616.22805788853, -31652.148860949143, -4947.536283437763, 16939.49305289901, 6292.127822891214, 24879.9726223913, 5693.525754633636, 40871.41643421846, 47193.070911535135, 37500.3486872135, 49127.56969065305, 23404.779840085488, 26993.039487962662, -8482.039985899924, -1986.3771779986835, -0.146, 0.982, 0.268, 192.0, 0.0, 0.0, 0.0, 0.0, 0.0, 0.0, 0.0, 0.0, 0.0, 1.706883163406567E9, 0.0, 2024-02-02 15:12:43.406
68.0, 63077.24870172128, 65601.49825829247, -31669.0244280129, -4960.053260332735, 16928.898326027196, 6283.76827046493, 24862.11357857151, 5680.405280638371, 40848.8411723186, 47172.35084442507, 37476.70054157979, 49099.920582761835, 23391.48055213458, 26975.38160984297, -8505.218744900078, -2005.1079398522306, -0.14200000000000002, 0.98, 0.276, 192.0, 125.5, 72.0, 15.0, 80.0, 4.0, 80.0, 0.0, 0.0, 0.0, 1.7068831634143195E9, 0.0, 2024-02-02 15:12:43.414
70.0, 63128.5012517573, 65639.87620352223, -31652.685302816073, -4947.022193315291, 16941.661172111177, 6294.854735714762, 24877.73744794577, 5692.0952429884965, 40834.89368377849, 47173.80370781466, 37488.189338229815, 49115.81267306956, 23397.00143301504, 26982.467112835304, -8496.658026773695, -1995.3402275252615, -0.14200000000000002, 0.98, 0.276, 192.0, 0.0, 0.0, 0.0, 0.0, 0.0, 0.0, 0.0, 0.0, 0.0, 1.7068831634223766E9, 0.0, 2024-02-02 15:12:43.422
72.0, 63116.63247545153, 65636.16581394266, -31651.88064001568, -4946.865731104103, 16942.085855255827, 6294.072424658826, 24878.989145635267, 5692.050539499586, 40823.47194236183, 47184.398434686475, 37496.81711158957, 49121.869995816945, 23403.19286622916, 26984.925804725386, -8485.63861675723, -1984.4325762310716, -0.14200000000000002, 0.98, 0.276, 192.0, 0.0, 0.0, 0.0, 0.0, 0.0, 0.0, 0.0, 0.0, 0.0, 1.7068831634313896E9, 0.0, 2024-02-02 15:12:43.431
74.0, 63078.5898063886, 65614.95400845457, -31646.471517857495, -4940.942518823447, 16946.1985762356, 6297.358131093756, 24880.196139835854, 5691.000007510186, 40791.15131987946, 47181.112728251544, 37503.455579692796, 49123.00993478417, 23410.054851776942, 26987.29508963765, -8475.379166052242, -1973.7037388925241, -0.14200000000000002, 0.98, 0.276, 192.0, 0.0, 0.0, 0.0, 0.0, 0.0, 0.0, 0.0, 0.0, 0.0, 1.7068831634377027E9, 0.0, 2024-02-02 15:12:43.437
76.0, 63065.82696030462, 65606.70621475056, -31656.12747146219, -4951.470190461897, 16929.52417487194, 6286.271665843924, 24867.522700729693, 5674.213847424251, 40732.50034242873, 47170.94268452438, 37485.127149239444, 49110.22473695574, 23402.455258662136, 26981.640098290456, -8475.692090474617, -1972.8543726032226, -0.14200000000000002, 0.98, 0.276, 192.0, 0.0, 0.0, 0.0, 0.0, 0.0, 0.0, 0.0, 0.0, 0.0, 1.7068831634464102E9, 0.0, 2024-02-02 15:12:43.446
78.0, 63109.27875152574, 65634.0423982194, -31628.992453693445, -4929.699591362428, 16950.55716640439, 6308.891631232695, 24894.702421987346, 5693.883382544921, 40706.21469094929, 47176.86589680504, 37496.347724956, 49117.57846088153, 23401.15885748373, 26982.847092491043, -8471.48996251702, -1968.29461673434, -0.134, 0.976, 0.276, 192.0, 125.5, 104.0, 15.0, 64.0, 4.0, 80.0, 0.0, 0.0, 0.0, 1.706883163454429E9, 0.0, 2024-02-02 15:12:43.454
80.0, 63085.51884716974, 65606.28153160591, -31625.371471091687, -4930.012515784802, 16945.662134368675, 6304.488337575, 24885.82877943859, 5684.5180016181475, 40618.17116953983, 47187.93001031042, 37523.16981830238, 49139.19259776981, 23422.951808327653, 27004.796505546154, -8440.331630746321, -1938.0303547418541, -0.134, 0.976, 0.276, 192.0, 0.0, 0.0, 0.0, 0.0, 0.0, 0.0, 0.0, 0.0, 0.0, 1.7068831634629242E9, 0.0, 2024-02-02 15:12:43.462
82.0, 63018.150689381444, 65553.44200771356, -31629.752413004928, -4936.829797843671, 16940.387122677224, 6295.413529326145, 24881.224320080797, 5668.827077010522, 40442.91114126577, 47182.14090849649, 37500.68396338033, 49119.567766138054, 23416.8274303469, 26996.01226997522, -8448.646479683695, -1943.3053664333067, -0.134, 0.976, 0.276, 192.0, 0.0, 0.0, 0.0, 0.0, 0.0, 0.0, 0.0, 0.0, 0.0, 1.7068831634704444E9, 0.0, 2024-02-02 15:12:43.470
84.0, 63042.04470420417, 65561.68980141757, -31623.40451757962, -4927.754989594816, 16941.01297152197, 6302.834308485307, 24872.127160087486, 5659.037012939098, 40304.17386343168, 47167.366405411536, 37483.31665793856, 49110.60471661147, 23407.9761395426, 26993.352412385037, -8445.830159882327, -1937.1586367080972, -0.134, 0.976, 0.276, 192.0, 0.0, 0.0, 0.0, 0.0, 0.0, 0.0, 0.0, 0.0, 0.0, 1.7068831634784803E9, 0.0, 2024-02-02 15:12:43.478
86.0, 63043.542271082675, 65556.95123159305, -31619.604721022217, -4927.911451806003, 16938.21900346506, 6298.900401461173, 24866.002782106734, 5650.54335004608, 40221.83003685833, 47183.705530608364, 37502.62856514795, 49128.28494647562, 23413.854648334345, 26996.7722292867, -8446.679526171629, -1929.2461191709185, -0.134, 0.976, 0.276, 192.0, 0.0, 0.0, 0.0, 0.0, 0.0, 0.0, 0.0, 0.0, 0.0, 1.70688316348656E9, 0.0, 2024-02-02 15:12:43.486
88.0, 63015.937866680375, 65507.084489713256, -31618.64359601064, -4939.512007178308, 16936.229698208535, 6291.278456601913, 24864.8181396506, 5641.222672608218, 40049.83336327474, 47163.790126298685, 37496.21361448927, 49115.87972830293, 23415.195753001663, 26982.847092491043, -8448.601776194784, -1934.3423169067285, -0.137, 0.976, 0.277, 192.0, 125.5, 80.0, 15.0, 64.0, 4.0, 88.0, 0.0, 0.0, 0.0, 1.7068831634937987E9, 0.0, 2024-02-02 15:12:43.493
90.0, 62974.7659533937, 65462.67157348056, -31611.73690697395, -4939.199082755934, 16939.694218599107, 6297.492241560489, 24865.06400883961, 5639.166312118329, 39930.74326881686, 47141.61719579902, 37486.13297773993, 49101.2393356847, 23417.16270651373, 26975.426313331882, -8450.188750051111, -1938.455037886505, -0.137, 0.976, 0.277, 192.0, 0.0, 0.0, 0.0, 0.0, 0.0, 0.0, 0.0, 0.0, 0.0, 1.7068831635024688E9, 0.0, 2024-02-02 15:12:43.502
92.0, 63009.83584044407, 65468.57243401676, -31621.281101856366, -4949.033850316268, 16927.400759148688, 6288.797412967374, 24853.68697091186, 5626.470521267715, 39897.37211434509, 47154.26828316072, 37482.31082943807, 49111.454082900775, 23413.49702042306, 26984.143493669453, -8447.595947694295, -1932.487122116938, -0.137, 0.976, 0.277, 192.0, 0.0, 0.0, 0.0, 0.0, 0.0, 0.0, 0.0, 0.0, 0.0, 1.706883163510768E9, 0.0, 2024-02-02 15:12:43.510
94.0, 63010.685206733375, 65475.09914339771, -31617.25778785441, -4944.004707813824, 16935.06740749686, 6296.553468293366, 24865.82396815109, 5631.007925392142, 39874.14865185603, 47147.89803599096, 37482.71316083827, 49112.41520791235, 23406.769145342012, 26979.829606989577, -8455.262596042467, -1939.5949768537257, -0.137, 0.976, 0.277, 192.0, 0.0, 0.0, 0.0, 0.0, 0.0, 0.0, 0.0, 0.0, 0.0, 1.7068831635185525E9, 0.0, 2024-02-02 15:12:43.518
96.0, 63003.93497990787, 65468.61713750567, -31617.995395421436, -4945.412867714509, 16932.943991773605, 6292.418395569133, 24860.616011693004, 5626.224652078707, 39820.90679656348, 47158.828039029606, 37490.46921616426, 49123.43461792882, 23415.55338091295, 26990.33492688357, -8445.941918604603, -1926.7203720474688, -0.137, 0.976, 0.277, 192.0, 0.0, 0.0, 0.0, 0.0, 0.0, 0.0, 0.0, 0.0, 0.0, 1.706883163525823E9, 0.0, 2024-02-02 15:12:43.525
98.0, 63010.79696545565, 65485.06802142478, -31618.755354732915, -4943.892949091548, 16930.82057605035, 6292.86543045824, 24852.703494155827, 5622.0672276100195, 39791.31308690466, 47156.659919817444, 37481.1485387264, 49118.47253065974, 23408.624340131802, 26983.875272735986, -8459.53177923343, -1938.0303547418541, -0.1395, 0.969, 0.2795, 192.0, 125.5, 72.0, 15.0, 8.0, 4.0, 104.0, 0.0, 0.0, 0.0, 1.7068831635345244E9, 0.0, 2024-02-02 15:12:43.534
100.0, 63026.353779596546, 65509.34201590324, -31620.11881114469, -4947.916263093503, 16927.423110893145, 6286.428128055111, 24843.58398241806, 5615.495814740159, 39820.571520396654, 47161.756117553254, 37495.36424819997, 49135.32574597904, 23416.96154081363, 26994.447647863348, -8455.843741398305, -1933.872930273167, -0.1395, 0.969, 0.2795, 192.0, 0.0, 0.0, 0.0, 0.0, 0.0, 0.0, 0.0, 0.0, 0.0, 1.7068831635415695E9, 0.0, 2024-02-02 15:12:43.541
102.0, 63038.40136985796, 65535.38179819367, -31618.241264610442, -4950.106734050123, 16927.82544229334, 6284.170601865126, 24839.471261438284, 5616.63575370738, 39848.53355271024, 47163.18662919839, 37484.925983539346, 49131.5483011661, 23408.87020932081, 26983.24942389124, -8470.171209594157, -1948.0662880022871, -0.1395, 0.969, 0.2795, 192.0, 0.0, 0.0, 0.0, 0.0, 0.0, 0.0, 0.0, 0.0, 0.0, 1.7068831635499115E9, 0.0, 2024-02-02 15:12:43.549
104.0, 63034.892145978476, 65545.77535936539, -31619.224741366477, -4955.873484119593, 16929.434767894123, 6277.643892484176, 24838.197212004332, 5615.249945551151, 39894.64520152154, 47157.15165819546, 37484.38954167242, 49128.039077286616, 23412.178267500196, 26973.548766797638, -8476.496753275009, -1960.9185410640887, -0.1395, 0.969, 0.2795, 192.0, 0.0, 0.0, 0.0, 0.0, 0.0, 0.0, 0.0, 0.0, 0.0, 1.706883163558576E9, 0.0, 2024-02-02 15:12:43.558
106.0, 63052.550024098164, 65569.26704278792, -31613.793267463836, -4947.670393904495, 16934.754483074485, 6284.684691987597, 24847.875517353477, 5631.142035858874, 39949.02699578131, 47158.64922507396, 37487.2505649627, 49134.00699305618, 23417.050947791453, 26973.52641505318, -8474.909779418682, -1962.192590498041, -0.1395, 0.969, 0.2795, 192.0, 0.0, 0.0, 0.0, 0.0, 0.0, 0.0, 0.0, 0.0, 0.0, 1.7068831635665803E9, 0.0, 2024-02-02 15:12:43.566
108.0, 63060.14961721297, 65588.5342465084, -31613.97208141948, -4945.6810886479725, 16941.21413722207, 6292.194878124581, 24857.665581424902, 5646.967070933231, 40009.08613313272, 47159.945626252374, 37483.450768405295, 49131.10126627699, 23413.832296589888, 26972.118255152494, -8482.218799855567, -1971.4909161914488, -0.14075000000000001, 0.9684999999999999, 0.28075000000000006, 192.0, 125.5, 72.0, 15.0, 32.0, 4.0, 104.0, 0.0, 0.0, 0.0, 1.7068831635735896E9, 0.0, 2024-02-02 15:12:43.573
110.0, 63076.756963343265, 65616.5409823109, -31607.847703438725, -4931.867710574593, 16951.026553037947, 6308.86927948824, 24867.321535029598, 5669.45292585527, 40095.29681149683, 47174.80953631515, 37498.98523080173, 49145.719307150765, 23430.506697953548, 26992.972432729297, -8472.853418928793, -1963.3325294652618, -0.14075000000000001, 0.9684999999999999, 0.28075000000000006, 192.0, 0.0, 0.0, 0.0, 0.0, 0.0, 0.0, 0.0, 0.0, 0.0, 1.706883163581954E9, 0.0, 2024-02-02 15:12:43.581
112.0, 63065.67049809343, 65616.49627882199, -31622.264578612398, -4950.151437539034, 16939.537756387923, 6296.844040971285, 24854.312819756607, 5667.798896765577, 40170.77865252241, 47187.840603332595, 37498.15821625689, 49140.80192337059, 23428.338578741383, 27000.30380491064, -8477.524933519951, -1970.2168667574963, -0.14075000000000001, 0.9684999999999999, 0.28075000000000006, 192.0, 0.0, 0.0, 0.0, 0.0, 0.0, 0.0, 0.0, 0.0, 0.0, 1.7068831635907073E9, 0.0, 2024-02-02 15:12:43.590
114.0, 63063.122399225525, 65616.04924393288, -31632.993415950947, -4961.975510355891, 16941.46000641108, 6294.362997336745, 24868.59558446355, 5677.499553859181, 40239.59967370029, 47168.260475189745, 37484.344838183504, 49119.67952486033, 23416.40274720225, 26984.367011114005, -8486.666797002174, -1993.8873641356665, -0.14075000000000001, 0.9684999999999999, 0.28075000000000006, 192.0, 0.0, 0.0, 0.0, 0.0, 0.0, 0.0, 0.0, 0.0, 0.0, 1.706883163597705E9, 0.0, 2024-02-02 15:12:43.597
116.0, 63072.845408063586, 65625.01229345945, -31637.955503220026, -4962.288434778266, 16941.616468622266, 6298.073386916326, 24869.310840286118, 5685.188553951807, 40327.37497417629, 47171.30031243567, 37479.62862010344, 49116.639687614406, 23416.53685766898, 26989.664374549913, -8484.878657445748, -1996.3684077702055, -0.14075000000000001, 0.9684999999999999, 0.28075000000000006, 192.0, 0.0, 0.0, 0.0, 0.0, 0.0, 0.0, 0.0, 0.0, 0.0, 1.7068831636056943E9, 0.0, 2024-02-02 15:12:43.605
118.0, 63079.8415040781, 65630.37671212872, -31644.281046900876, -4964.255388290333, 16940.901212799694, 6299.168622394636, 24866.852148396036, 5687.848411541988, 40413.31743160694, 47177.08941424959, 37477.88518403592, 49116.773798081136, 23409.451354676647, 26989.887891994465, -8488.387881325232, -1997.3965880151497, -0.13937500000000003, 0.9682499999999999, 0.28237500000000004, 192.0, 125.5, 88.0, 15.0, 32.0, 4.0, 112.0, 0.0, 0.0, 0.0, 1.7068831636139286E9, 0.0, 2024-02-02 15:12:43.613
120.0, 63088.53633267121, 65639.47387212203, -31647.03031146888, -4963.204856300933, 16943.851643067796, 6299.9732851950275, 24876.35163978954, 5696.632647112924, 40492.44260697873, 47171.76969906923, 37488.03287601863, 49123.38991443991, 23417.54268616947, 26989.95494722783, -8483.537552778429, -1994.937896125066, -0.13937500000000003, 0.9682499999999999, 0.28237500000000004, 192.0, 0.0, 0.0, 0.0, 0.0, 0.0, 0.0, 0.0, 0.0, 0.0, 1.7068831636226883E9, 0.0, 2024-02-02 15:12:43.622
122.0, 63079.46152442235, 65629.66145630616, -31664.598782610752, -4985.288379822777, 16926.01495099246, 6278.426203540112, 24858.29143026965, 5682.036957983609, 40550.288921629064, 47174.988350270796, 37478.6451433474, 49112.90694629037, 23415.665139635224, 26981.86361573501, -8494.512259305986, -2003.0515793623424, -0.13937500000000003, 0.9682499999999999, 0.28237500000000004, 192.0, 0.0, 0.0, 0.0, 0.0, 0.0, 0.0, 0.0, 0.0, 0.0, 1.706883163629675E9, 0.0, 2024-02-02 15:12:43.629
124.0, 63135.474996027355, 65677.78476211843, -31630.02063393839, -4950.106734050123, 16957.866186841275, 6309.361017866257, 24890.410887051927, 5715.050484544097, 40606.34709672297, 47176.41886191593, 37487.67524810735, 49115.522100391645, 23416.067471035418, 26981.438932590358, -8491.897105204715, -2004.5714979853033, -0.13937500000000003, 0.9682499999999999, 0.28237500000000004, 192.0, 0.0, 0.0, 0.0, 0.0, 0.0, 0.0, 0.0, 0.0, 0.0, 1.7068831636376944E9, 0.0, 2024-02-02 15:12:43.637
126.0, 63133.150414604, 65676.75658187349, -31637.68728228656, -4956.07464981969, 16950.959497804582, 6298.00633168296, 24885.493503271762, 5710.446025186304, 40653.844553690506, 47195.97663831433, 37506.785989616634, 49135.19163551231, 23432.518354954525, 26998.090982209564, -8475.513276518974, -1988.321779766295, -0.13937500000000003, 0.9682499999999999, 0.28237500000000004, 192.0, 0.0, 0.0, 0.0, 0.0, 0.0, 0.0, 0.0, 0.0, 0.0, 1.7068831636467676E9, 0.0, 2024-02-02 15:12:43.646
128.0, 63127.76364419027, 65676.62247140676, -31639.765994520905, -4955.269987019299, 16946.44444542461, 6295.569991537332, 24882.632479981483, 5711.876536831443, 40653.30811182357, 47193.3391324686, 37499.320506968565, 49126.832083086025, 23424.985817073088, 26987.228034404285, -8484.20810511209, -1993.1050530797309, -0.14068750000000002, 0.9701249999999999, 0.28018750000000003, 192.0, 125.5, 72.0, 15.0, 48.0, 4.0, 88.0, 0.0, 0.0, 0.0, 1.7068831636537929E9, 0.0, 2024-02-02 15:12:43.653
130.0, 63126.511946500774, 65686.34548024481, -31636.323825874788, -4946.888082848559, 16952.54647166091, 6304.041302685893, 24890.008555651733, 5719.900813090899, 40657.62199850345, 47187.66178937695, 37499.2981552241, 49128.53081566463, 23425.656369406744, 26984.232900647272, -8483.314035333877, -1990.9592856120214, -0.14068750000000002, 0.9701249999999999, 0.28018750000000003, 192.0, 0.0, 0.0, 0.0, 0.0, 0.0, 0.0, 0.0, 0.0, 0.0, 1.7068831636617265E9, 0.0, 2024-02-02 15:12:43.661
132.0, 63169.941385977436, 65714.59808523633, -31628.634825782163, -4940.696649634439, 16959.430808953144, 6311.462081845055, 24899.083363900587, 5729.780284140144, 40671.88241146594, 47218.104865325084, 37512.82096061957, 49150.79315314211, 23430.819622375922, 27004.505932868236, -8473.501619517996, -1975.067195304298, -0.14068750000000002, 0.9701249999999999, 0.28018750000000003, 192.0, 0.0, 0.0, 0.0, 0.0, 0.0, 0.0, 0.0, 0.0, 0.0, 1.7068831636700993E9, 0.0, 2024-02-02 15:12:43.670
134.0, 63149.109560145094, 65703.84689615332, -31631.1158694167, -4951.827818373182, 16954.982811806538, 6305.941200964595, 24892.243730097263, 5721.733656136234, 40668.41789107536, 47197.071873792636, 37511.56926293007, 49140.53370243713, 23429.34440724187, 26990.044354205653, -8476.340291063821, -1981.39273898515, -0.14068750000000002, 0.9701249999999999, 0.28018750000000003, 192.0, 0.0, 0.0, 0.0, 0.0, 0.0, 0.0, 0.0, 0.0, 0.0, 1.7068831636787548E9, 0.0, 2024-02-02 15:12:43.678
136.0, 63099.57809443213, 65665.78187534593, -31642.805831766826, -4961.774344655793, 16942.130558744735, 6298.900401461173, 24876.709267700826, 5711.205984497784, 40657.66670199236, 47183.14673699698, 37499.16404475737, 49122.89817606189, 23429.947904342163, 26985.48459833677, -8483.470497545064, -1986.9806750989767, -0.14068750000000002, 0.9701249999999999, 0.28018750000000003, 192.0, 0.0, 0.0, 0.0, 0.0, 0.0, 0.0, 0.0, 0.0, 0.0, 1.7068831636857762E9, 0.0, 2024-02-02 15:12:43.685
138.0, 63145.8015019657, 65694.4591634821, -31629.193619393543, -4941.478960690375, 16957.93324207464, 6317.988791226005, 24887.43810503937, 5723.879423603943, 40647.876637920934, 47206.5937169306, 37496.19126274482, 49127.457931930774, 23427.600971174357, 26996.705174053335, -8485.39274756822, -1982.8903058636554, -0.14134375000000002, 0.9740624999999999, 0.27909375000000003, 192.0, 125.5, 72.0, 15.0, 72.0, 4.0, 88.0, 0.0, 0.0, 0.0, 1.7068831636937718E9, 0.0, 2024-02-02 15:12:43.693
140.0, 63140.079455385145, 65693.05100358141, -31639.676587543083, -4948.072725304691, 16951.272422226957, 6309.383369610712, 24877.245709567753, 5715.1622432663735, 40642.713384951756, 47197.65301914848, 37509.870530351465, 49138.20912101378, 23441.861384136842, 27003.05306947864, -8474.52979976294, -1973.5696284257924, -0.14134375000000002, 0.9740624999999999, 0.27909375000000003, 192.0, 0.0, 0.0, 0.0, 0.0, 0.0, 0.0, 0.0, 0.0, 0.0, 1.7068831637027776E9, 0.0, 2024-02-02 15:12:43.702
142.0, 63109.01053059227, 65680.6010819198, -31649.98074173698, -4955.247635274844, 16935.849718552796, 6294.027721169916, 24850.66948541039, 5699.001932025187, 40604.00016355517, 47194.34496096909, 37503.67909713735, 49131.68241163283, 23432.384244487792, 26989.01617396071, -8485.616265012774, -1980.1186895511973, -0.14134375000000002, 0.9740624999999999, 0.27909375000000003, 192.0, 0.0, 0.0, 0.0, 0.0, 0.0, 0.0, 0.0, 0.0, 0.0, 1.7068831637098277E9, 0.0, 2024-02-02 15:12:43.709
144.0, 63080.19913198938, 65648.97336351554, -31642.425852111086, -4949.011498571814, 16944.92452680165, 6294.67592175912, 24883.861825926524, 5706.3556559509825, 40495.77301690257, 47172.797879314174, 37491.631506875936, 49116.5949841255, 23419.777860615, 26968.34081033955, -8488.700805747605, -1982.4209192300941, -0.14134375000000002, 0.9740624999999999, 0.27909375000000003, 192.0, 0.0, 0.0, 0.0, 0.0, 0.0, 0.0, 0.0, 0.0, 0.0, 1.706883163717866E9, 0.0, 2024-02-02 15:12:43.717
146.0, 63070.69964059588, 65597.94433092407, -31620.699956500528, -4935.801617598727, 16950.713628615576, 6303.10252941877, 24881.291375314162, 5703.114653004963, 40377.062902100435, 47181.827984074116, 37511.79278037462, 49131.28008023263, 23441.39199750328, 26992.279528651183, -8449.719363417551, -1945.9875757679436, -0.14134375000000002, 0.9740624999999999, 0.27909375000000003, 192.0, 0.0, 0.0, 0.0, 0.0, 0.0, 0.0, 0.0, 0.0, 0.0, 1.706883163727126E9, 0.0, 2024-02-02 15:12:43.727
148.0, 63048.75022754076, 65559.32051650531, -31612.854494196716, -4937.969736810892, 16949.573689648354, 6300.57678229532, 24878.810331679622, 5684.875629529432, 40197.57839412432, 47178.65403636146, 37510.38462047394, 49130.2966034766, 23447.7845964175, 26991.653679806434, -8440.063409812858, -1935.8622355296893, -0.143671875, 0.97903125, 0.28054687500000003, 192.0, 125.5, 56.0, 15.0, 96.0, 4.0, 104.0, 0.0, 0.0, 0.0, 1.7068831637348168E9, 0.0, 2024-02-02 15:12:43.734
150.0, 63030.08652092058, 65496.802687263815, -31606.283081326856, -4937.366239710598, 16948.07612276985, 6298.363959594245, 24872.842415910058, 5666.524847331625, 39981.86170838615, 47152.6813093044, 37498.895823823914, 49122.495844661695, 23438.620381190824, 26978.91318546691, -8444.265537770456, -1932.5765290947593, -0.143671875, 0.97903125, 0.28054687500000003, 192.0, 0.0, 0.0, 0.0, 0.0, 0.0, 0.0, 0.0, 0.0, 0.0, 1.7068831637418585E9, 0.0, 2024-02-02 15:12:43.741
152.0, 63015.69199749136, 65388.441430144485, -31593.184959076043, -4934.684030375962, 16949.12665475925, 6300.554430550866, 24869.266136797207, 5655.3489751039715, 39803.45008414389, 47155.6317395725, 37502.49445468122, 49126.18388249682, 23451.271468552528, 26981.751857012732, -8439.258747012467, -1925.6027848247033, -0.143671875, 0.97903125, 0.28054687500000003, 192.0, 0.0, 0.0, 0.0, 0.0, 0.0, 0.0, 0.0, 0.0, 0.0, 1.7068831637498903E9, 0.0, 2024-02-02 15:12:43.749
154.0, 62975.19063653835, 65202.38550929851, -31593.319069542777, -4944.965832825403, 16943.49401515651, 6297.738110749497, 24861.934764615868, 5638.808684207044, 39623.07150638956, 47145.86402724553, 37502.0027163032, 49131.39183895491, 23455.428893021213, 26986.870406493, -8432.687334142605, -1920.9312702335442, -0.143671875, 0.97903125, 0.28054687500000003, 192.0, 0.0, 0.0, 0.0, 0.0, 0.0, 0.0, 0.0, 0.0, 0.0, 1.7068831637588542E9, 0.0, 2024-02-02 15:12:43.758
156.0, 63000.537514750664, 65057.009763361195, -31584.467778738475, -4939.847283345137, 16949.238413481526, 6309.562183566354, 24866.785093162667, 5648.866969211933, 39362.78544220751, 47140.6784225319, 37499.40991394638, 49143.32767049404, 23455.183023832207, 26990.357278628027, -8434.76604637695, -1920.774808022357, -0.143671875, 0.97903125, 0.28054687500000003, 192.0, 0.0, 0.0, 0.0, 0.0, 0.0, 0.0, 0.0, 0.0, 0.0, 1.7068831637658715E9, 0.0, 2024-02-02 15:12:43.765
158.0, 62969.155665535414, 64870.23858669265, -31586.054752594802, -4946.284585748266, 16949.797207092906, 6304.309523619357, 24858.313782014106, 5647.682326755801, 39062.37799672818, 47132.2741666167, 37506.316602983075, 49151.70957466478, 23468.392904805292, 26988.01034546022, -8427.1888050066, -1913.3987323521058, -0.1428359375, 0.974515625, 0.2802734375, 192.0, 125.5, 72.0, 15.0, 40.0, 4.0, 96.0, 0.0, 0.0, 0.0, 1.70688316377387E9, 0.0, 2024-02-02 15:12:43.773
160.0, 62897.04893792259, 64742.78893980849, -31601.745677202427, -4958.108658565123, 16937.839023809316, 6292.977189180517, 24842.44404345084, 5637.244062095173, 38828.981081125865, 47100.64644821244, 37490.53627139763, 49135.97394656825, 23468.012925149553, 26971.157130140917, -8433.022610309436, -1924.9769359799548, -0.1428359375, 0.974515625, 0.2802734375, 192.0, 0.0, 0.0, 0.0, 0.0, 0.0, 0.0, 0.0, 0.0, 0.0, 1.7068831637819967E9, 0.0, 2024-02-02 15:12:43.781
162.0, 62912.09166194101, 64748.555689877954, -31593.855511409703, -4947.804504371226, 16944.276326212446, 6299.638009028198, 24843.24870625123, 5653.762001247645, 38733.561484046164, 47103.0157331247, 37474.621829345444, 49138.27617624714, 23466.001268148575, 26977.885005221964, -8432.821444609339, -1921.5347673338376, -0.1428359375, 0.974515625, 0.2802734375, 192.0, 0.0, 0.0, 0.0, 0.0, 0.0, 0.0, 0.0, 0.0, 0.0, 1.70688316378993E9, 0.0, 2024-02-02 15:12:43.789
164.0, 62914.68446429783, 64757.80931208245, -31593.006145120402, -4949.145609038545, 16945.77389309095, 6295.458232815055, 24851.20592727732, 5670.101126444474, 38665.03103554619, 47099.0147708672, 37484.45659690578, 49150.815504886574, 23469.286974583505, 26979.069647678098, -8435.056619054869, -1926.2509854139073, -0.1428359375, 0.974515625, 0.2802734375, 192.0, 0.0, 0.0, 0.0, 0.0, 0.0, 0.0, 0.0, 0.0, 0.0, 1.7068831637979484E9, 0.0, 2024-02-02 15:12:43.797
166.0, 62910.303522384595, 64751.72963759061, -31592.894386398126, -4953.750068396338, 16940.767102332964, 6290.607904268254, 24839.493613182738, 5674.817344524544, 38506.69127782479, 47096.48902374376, 37492.324410954054, 49158.660967190386, 23481.848654967387, 26979.360220356015, -8430.273345741432, -1926.228633669452, -0.1428359375, 0.974515625, 0.2802734375, 192.0, 0.0, 0.0, 0.0, 0.0, 0.0, 0.0, 0.0, 0.0, 0.0, 1.7068831638063183E9, 0.0, 2024-02-02 15:12:43.806
168.0, 62885.06840289455, 64739.63734384029, -31592.067371853278, -4958.108658565123, 16947.047942524903, 6294.228886870013, 24851.429444721874, 5685.501478374181, 38386.34948567742, 47100.98172437927, 37490.49156790871, 49153.78828689913, 23483.949718946187, 26974.77811274268, -8439.169340034645, -1938.9691280089771, -0.14041796875, 0.9742578125, 0.28013671875, 192.0, 125.5, 88.0, 15.0, 56.0, 4.0, 96.0, 0.0, 0.0, 0.0, 1.7068831638139372E9, 0.0, 2024-02-02 15:12:43.813
170.0, 62886.521266284144, 64772.62851865632, -31590.323935785764, -4948.9667950829025, 16950.91479431567, 6302.834308485307, 24856.749159902236, 5694.241010456206, 38373.34077040444, 47105.049741870134, 37500.39339070242, 49167.244037061224, 23493.963300462165, 26991.027830961684, -8422.070255526336, -1923.3005551458068, -0.14041796875, 0.9742578125, 0.28013671875, 192.0, 0.0, 0.0, 0.0, 0.0, 0.0, 0.0, 0.0, 0.0, 0.0, 1.7068831638209524E9, 0.0, 2024-02-02 15:12:43.820
172.0, 62909.99059796222, 64825.44569080421, -31595.375430032665, -4952.096039306645, 16940.990619777516, 6294.295942103379, 24839.29244748264, 5682.3498824059825, 38424.705079162726, 47104.55800349212, 37491.65385862039, 49163.86892364847, 23486.65428002528, 26987.585662315567, -8438.118808045247, -1934.1411512066306, -0.14041796875, 0.9742578125, 0.28013671875, 192.0, 0.0, 0.0, 0.0, 0.0, 0.0, 0.0, 0.0, 0.0, 0.0, 1.7068831638303812E9, 0.0, 2024-02-02 15:12:43.830
174.0, 62913.4998218417, 64876.005336762115, -31601.4104010356, -4960.455591732931, 16934.73213133003, 6282.561276264343, 24833.928028813367, 5674.146792190885, 38492.22969916221, 47108.11193086051, 37492.99496328771, 49165.92528413836, 23486.83309398092, 26985.52930182568, -8449.428790739632, -1945.8981687901223, -0.14041796875, 0.9742578125, 0.28013671875, 192.0, 0.0, 0.0, 0.0, 0.0, 0.0, 0.0, 0.0, 0.0, 0.0, 1.7068831638380058E9, 0.0, 2024-02-02 15:12:43.838
176.0, 62911.130536929435, 64900.94988357424, -31592.82733116476, -4960.79086789976, 16942.622297122754, 6278.940293662584, 24839.314799227097, 5682.729862061723, 38571.98072337875, 47102.88162265797, 37490.46921616426, 49162.81839165907, 23488.46477132616, 26976.588604043558, -8451.351040762787, -1951.0614217592981, -0.14041796875, 0.9742578125, 0.28013671875, 192.0, 0.0, 0.0, 0.0, 0.0, 0.0, 0.0, 0.0, 0.0, 0.0, 1.706883163846033E9, 0.0, 2024-02-02 15:12:43.846
178.0, 62917.701949799295, 64941.00420963815, -31599.35404054571, -4969.820972659704, 16935.603849363786, 6276.235732583491, 24825.38966243144, 5679.846487026988, 38680.006704331245, 47097.20427956632, 37477.81812880256, 49151.84368513151, 23481.871006711845, 26966.552670783123, -8463.845665913304, -1966.4394219445494, -0.136208984375, 0.9731289062499999, 0.280068359375, 192.0, 125.5, 112.0, 15.0, 48.0, 4.0, 96.0, 0.0, 0.0, 0.0, 1.7068831638530412E9, 0.0, 2024-02-02 15:12:43.853
180.0, 62944.59109837903, 65003.76790806865, -31592.78262767585, -4960.477943477385, 16946.176224491148, 6288.417433311633, 24849.06015980961, 5700.566554137058, 38839.73227020887, 47104.714465703306, 37489.21751847476, 49164.74064168223, 23490.677594027235, 26982.91414772441, -8453.496808230497, -1958.10222126272, -0.136208984375, 0.9731289062499999, 0.280068359375, 192.0, 0.0, 0.0, 0.0, 0.0, 0.0, 0.0, 0.0, 0.0, 0.0, 1.7068831638623643E9, 0.0, 2024-02-02 15:12:43.862
182.0, 62941.88653729994, 65051.466530736274, -31606.55130226032, -4973.061975605724, 16936.855547053285, 6279.9014186741615, 24845.68504639686, 5699.717187847757, 39023.97769975397, 47116.60559375353, 37480.81326255957, 49164.56182772658, 23480.731067744622, 26982.936499468866, -8464.560921735874, -1965.5006486774266, -0.136208984375, 0.9731289062499999, 0.280068359375, 192.0, 0.0, 0.0, 0.0, 0.0, 0.0, 0.0, 0.0, 0.0, 0.0, 1.7068831638700955E9, 0.0, 2024-02-02 15:12:43.870
184.0, 62947.94386004733, 65112.93382798837, -31617.39189832114, -4975.766536684816, 16928.473642882545, 6280.393157052178, 24840.20886900531, 5707.160318751374, 39275.233659176076, 47102.92632614688, 37464.18356468482, 49150.614339186475, 23459.988648890096, 26972.498234808238, -8482.621131255763, -1984.7231489089907, -0.136208984375, 0.9731289062499999, 0.280068359375, 192.0, 0.0, 0.0, 0.0, 0.0, 0.0, 0.0, 0.0, 0.0, 0.0, 1.7068831638770957E9, 0.0, 2024-02-02 15:12:43.877
186.0, 62953.710610116796, 65177.6868316754, -31617.280139598864, -4973.978397128391, 16928.58540160482, 6283.455346042556, 24839.91829632739, 5718.090321790019, 39653.06754744858, 47111.24117508426, 37468.69861706479, 49157.655138689894, 23456.613535477347, 26976.99093544375, -8482.017634155469, -1992.456852490527, -0.136208984375, 0.9731289062499999, 0.280068359375, 192.0, 0.0, 0.0, 0.0, 0.0, 0.0, 0.0, 0.0, 0.0, 0.0, 1.7068831638862894E9, 0.0, 2024-02-02 15:12:43.886
188.0, 62948.055618769606, 65222.971465941846, -31623.73979374645, -4985.958932156436, 16926.573744603844, 6282.874200686718, 24843.69574114034, 5727.65686841689, 40067.87122105017, 47115.15273036394, 37461.05432046107, 49147.462743218275, 23446.01880860553, 26974.085208664565, -8492.522954049464, -2017.1778818580965, -0.136208984375, 0.9731289062499999, 0.280068359375, 192.0, 0.0, 0.0, 0.0, 0.0, 0.0, 0.0, 0.0, 0.0, 0.0, 1.7068831638942907E9, 0.0, 2024-02-02 15:12:43.894
190.0, 62977.00112783923, 65286.83039985066, -31615.871979698182, -4978.471097763908, 16933.614544107266, 6294.854735714762, 24852.524680200182, 5748.645156460423, 40428.60602481437, 47119.80189321064, 37473.101910722486, 49151.307243264586, 23446.287029538995, 26983.271775635694, -8484.543381278918, -2014.1380446121748, -0.14, 0.974, 0.28, 192.0, 125.5, 80.0, 15.0, 56.0, 4.0, 96.0, 0.0, 0.0, 0.0, 1.7068831639011483E9, 0.0, 2024-02-02 15:12:43.901
192.0, 62977.38110749497, 65324.9177724025, -31618.576540777274, -4977.88995240807, 16930.82057605035, 6291.546677535377, 24859.25255528123, 5752.08732510654, 40673.06705392207, 47134.88932071797, 37467.87160251995, 49141.651289659894, 23438.486270724094, 26986.937461726364, -8489.483116803542, -2009.8241579323005, -0.14, 0.974, 0.28, 192.0, 0.0, 0.0, 0.0, 0.0, 0.0, 0.0, 0.0, 0.0, 0.0, 1.7068831639091015E9, 0.0, 2024-02-02 15:12:43.909
194.0, 62984.98070060977, 65360.16647340852, -31620.96817743399, -4972.302016294243, 16932.45225339559, 6291.971360680028, 24862.605316949528, 5756.915301908887, 40825.528302851715, 47133.592919539566, 37470.41970138785, 49133.47055118925, 23434.485308466592, 26986.177502414885, -8488.834916214337, -2008.4830532649821, -0.14, 0.974, 0.28, 192.0, 0.0, 0.0, 0.0, 0.0, 0.0, 0.0, 0.0, 0.0, 0.0, 1.7068831639183097E9, 0.0, 2024-02-02 15:12:43.918
196.0, 63001.02925312868, 65397.672700604526, -31629.283026371366, -4967.183466813978, 16935.223869708047, 6291.613732768743, 24860.54895645964, 5755.864769919488, 40949.96046423441, 47142.48891383278, 37482.06496024907, 49138.522045436155, 23438.888602124287, 26990.357278628027, -8484.968064423569, -2000.1905560720631, -0.14, 0.974, 0.28, 192.0, 0.0, 0.0, 0.0, 0.0, 0.0, 0.0, 0.0, 0.0, 0.0, 1.706883163926147E9, 0.0, 2024-02-02 15:12:43.926
198.0, 63004.56082875262, 65410.59200889969, -31640.190677665556, -4972.07849884969, 16932.139328973215, 6285.779927465907, 24859.72194191479, 5748.958080882798, 41046.67646249253, 47150.3790796255, 37476.07469273504, 49131.36948721045, 23427.153936285253, 26983.137665168964, -8495.383977339743, -2001.9116403951218, -0.14, 0.974, 0.28, 192.0, 0.0, 0.0, 0.0, 0.0, 0.0, 0.0, 0.0, 0.0, 0.0, 1.7068831639331665E9, 0.0, 2024-02-02 15:12:43.933
200.0, 63028.924230208904, 65443.62788720464, -31630.802944994328, -4956.5440364532515, 16943.78458783443, 6298.319256105335, 24875.636383966972, 5762.972624656275, 41121.443047695524, 47152.70366104885, 37485.90946029538, 49136.66685064636, 23427.01982581852, 26986.311612881615, -8488.186715625134, -1998.3577130267279, -0.14200000000000002, 0.976, 0.276, 192.0, 125.5, 72.0, 15.0, 64.0, 4.0, 80.0, 0.0, 0.0, 0.0, 1.7068831639423096E9, 0.0, 2024-02-02 15:12:43.942
202.0, 63027.00198018575, 65445.88541339462, -31645.376282379188, -4968.479867992386, 16936.408512164176, 6287.165735622137, 24872.30597404313, 5755.954176897309, 41174.170812865596, 47172.86493454754, 37490.06688476406, 49142.858283860485, 23427.48921245208, 26996.72752579779, -8485.72802373505, -1992.0098176014208, -0.14200000000000002, 0.976, 0.276, 192.0, 0.0, 0.0, 0.0, 0.0, 0.0, 0.0, 0.0, 0.0, 0.0, 1.7068831639501355E9, 0.0, 2024-02-02 15:12:43.950
204.0, 63041.82118675962, 65472.752210229904, -31640.056567198822, -4961.416716744508, 16940.722398844053, 6295.882915959706, 24868.72969493028, 5759.798676943622, 41210.76061853893, 47160.794992541676, 37482.57905037154, 49132.24120524421, 23415.82160184641, 26989.373801871992, -8495.093404661824, -2003.7668351849122, -0.14200000000000002, 0.976, 0.276, 192.0, 0.0, 0.0, 0.0, 0.0, 0.0, 0.0, 0.0, 0.0, 0.0, 1.7068831639571729E9, 0.0, 2024-02-02 15:12:43.957
206.0, 63065.067000993135, 65497.62970180866, -31630.82529673878, -4955.404097486031, 16948.567861147865, 6297.648703771675, 24881.894872414457, 5765.028985146164, 41268.40576748917, 47180.33041719561, 37503.500283181704, 49152.96127235428, 23432.250134021062, 27003.813028790122, -8481.928227177648, -1989.3723117556945, -0.14200000000000002, 0.976, 0.276, 192.0, 0.0, 0.0, 0.0, 0.0, 0.0, 0.0, 0.0, 0.0, 0.0, 1.7068831639653084E9, 0.0, 2024-02-02 15:12:43.965
208.0, 63044.34693388307, 65494.03107095136, -31646.717387046505, -4972.570237227707, 16934.575669118844, 6281.667206486131, 24865.533395473172, 5749.941557638831, 41295.31726781336, 47176.8882485495, 37492.61498363197, 49141.517179193164, 23420.29195073747, 26990.111409439018, -8493.886410461237, -1999.5647072273146, -0.14200000000000002, 0.976, 0.276, 192.0, 0.0, 0.0, 0.0, 0.0, 0.0, 0.0, 0.0, 0.0, 0.0, 1.706883163974183E9, 0.0, 2024-02-02 15:12:43.974
210.0, 63045.17394842792, 65506.88332401316, -31642.090575944258, -4964.680071434984, 16942.152910489192, 6287.210439111047, 24873.624726965994, 5758.390517042937, 41320.9547187036, 47167.25464668926, 37491.16212024238, 49137.56092042458, 23413.742889612065, 26984.81404600311, -8493.43937557213, -1999.3188380383062, -0.14, 0.976, 0.276, 192.0, 125.5, 80.0, 15.0, 64.0, 4.0, 80.0, 0.0, 0.0, 0.0, 1.7068831639821973E9, 0.0, 2024-02-02 15:12:43.982
212.0, 63060.462541635345, 65527.17870797858, -31638.715462531505, -4960.299129521743, 16943.717532601062, 6288.752709478464, 24874.652907210937, 5760.782153699655, 41355.510515631504, 47178.117594494535, 37497.73353311224, 49142.34419373801, 23419.934322826186, 26989.083229194075, -8489.259599358988, -1992.2780385348844, -0.14, 0.976, 0.276, 192.0, 0.0, 0.0, 0.0, 0.0, 0.0, 0.0, 0.0, 0.0, 0.0, 1.7068831639894385E9, 0.0, 2024-02-02 15:12:43.989
214.0, 63086.83760009261, 65544.99304830945, -31634.35687236272, -4953.973585840891, 16950.06542802637, 6297.402834582667, 24881.604299736537, 5768.627616003468, 41378.62221939829, 47185.3372079536, 37502.69562038131, 49148.89325486342, 23421.74481412707, 26992.927729240386, -8486.018596412969, -1989.6181809447028, -0.14, 0.976, 0.276, 192.0, 0.0, 0.0, 0.0, 0.0, 0.0, 0.0, 0.0, 0.0, 0.0, 1.7068831639972377E9, 0.0, 2024-02-02 15:12:43.997
216.0, 63095.93476008592, 65547.45174019954, -31632.121697917188, -4952.766591640305, 16954.4016664507, 6298.475718316522, 24886.052296883143, 5774.3273108395715, 41401.57746095389, 47184.4878416643, 37507.12126578346, 49149.18382754133, 23427.26569500753, 27000.996708988754, -8482.688186489127, -1984.9243146090885, -0.14, 0.976, 0.276, 192.0, 0.0, 0.0, 0.0, 0.0, 0.0, 0.0, 0.0, 0.0, 0.0, 1.7068831640062535E9, 0.0, 2024-02-02 15:12:44.006
218.0, 63090.50328618327, 65547.78701636638, -31635.429756096575, -4956.611091686617, 16953.038210038925, 6297.29107586039, 24888.89096842897, 5773.813220717099, 41407.83594940138, 47190.634571389506, 37503.83555934853, 49147.21687402927, 23424.851706606354, 27003.187179945373, -8486.197410368612, -1985.4607564760158, -0.14, 0.976, 0.276, 192.0, 0.0, 0.0, 0.0, 0.0, 0.0, 0.0, 0.0, 0.0, 0.0, 1.706883164013258E9, 0.0, 2024-02-02 15:12:44.013
220.0, 63102.03678632221, 65565.44489448606, -31628.232494381966, -4955.381745741576, 16958.760256619484, 6302.744901507485, 24893.58483476458, 5781.7257382542775, 41414.8767489048, 47179.39164392849, 37504.103780282, 49143.95351933879, 23428.562096185935, 27001.220226433306, -8483.179924867145, -1986.7348059099684, -0.14, 0.98, 0.278, 192.0, 125.5, 80.0, 15.0, 80.0, 4.0, 88.0, 0.0, 0.0, 0.0, 1.706883164021289E9, 0.0, 2024-02-02 15:12:44.021
222.0, 63114.240838794816, 65575.34671727977, -31638.335482875766, -4964.925940623992, 16946.131521002237, 6288.640950756187, 24874.49644499975, 5765.09604037953, 41429.4277345452, 47197.74242612629, 37505.93662332733, 49150.34611825301, 23426.528087440503, 27007.746935814255, -8487.87379120276, -1989.6405326891581, -0.14, 0.98, 0.278, 192.0, 0.0, 0.0, 0.0, 0.0, 0.0, 0.0, 0.0, 0.0, 0.0, 1.706883164030269E9, 0.0, 2024-02-02 15:12:44.030
224.0, 63118.46531849686, 65582.20870282754, -31630.11004091621, -4947.31276599321, 16953.060561783383, 6299.302732861368, 24879.68204971338, 5771.868618949487, 41428.17603685571, 47197.38479821501, 37501.30981222508, 49149.72026940826, 23418.101479780853, 26999.365031643516, -8494.892238961726, -1996.971904870499, -0.14, 0.98, 0.278, 192.0, 0.0, 0.0, 0.0, 0.0, 0.0, 0.0, 0.0, 0.0, 0.0, 1.7068831640373285E9, 0.0, 2024-02-02 15:12:44.037
226.0, 63101.25447526628, 65564.17084505211, -31627.3160728593, -4951.0231555727905, 16955.429846695646, 6296.48641306, 24878.45270376834, 5771.958025927309, 41444.11283065234, 47196.82600460363, 37511.546911185615, 49153.43065898784, 23430.819622375922, 27011.926712027398, -8482.330558577843, -1983.58320994177, -0.14, 0.98, 0.278, 192.0, 0.0, 0.0, 0.0, 0.0, 0.0, 0.0, 0.0, 0.0, 0.0, 1.7068831640455613E9, 0.0, 2024-02-02 15:12:44.045
228.0, 63068.73268708381, 65543.13785351967, -31643.386977122664, -4967.5187429808075, 16940.342419188313, 6282.695386731075, 24863.34292451655, 5756.4235635308705, 41422.275176319505, 47184.77841434222, 37488.50226265219, 49137.2479960022, 23421.20837226014, 26993.464171107313, -8494.914590706181, -1997.2177740595073, -0.14, 0.98, 0.278, 192.0, 0.0, 0.0, 0.0, 0.0, 0.0, 0.0, 0.0, 0.0, 0.0, 1.7068831640533276E9, 0.0, 2024-02-02 15:12:44.053
230.0, 63128.613010479574, 65605.25335136097, -31613.12271513018, -4941.948347323936, 16961.733038632043, 6306.209421898058, 24888.980375406787, 5781.703386509823, 41420.06235361843, 47182.67735036342, 37503.54498667061, 49144.4005542279, 23420.49311643757, 26996.839284520065, -8487.382052824743, -1989.8193466448006, -0.14, 0.984, 0.28200000000000003, 192.0, 125.5, 80.0, 15.0, 96.0, 4.0, 104.0, 0.0, 0.0, 0.0, 1.7068831640623343E9, 0.0, 2024-02-02 15:12:44.062
232.0, 63121.23693480933, 65590.94823490956, -31612.63097675216, -4947.31276599321, 16961.26365199848, 6298.945104950083, 24888.39923005095, 5776.674244007379, 41421.984603641584, 47203.33036224012, 37529.40595500541, 49167.333444039046, 23437.21222129014, 27010.026813748696, -8463.86801765776, -1967.132326022664, -0.14, 0.984, 0.28200000000000003, 192.0, 0.0, 0.0, 0.0, 0.0, 0.0, 0.0, 0.0, 0.0, 0.0, 1.706883164069343E9, 0.0, 2024-02-02 15:12:44.069
234.0, 63087.88813208201, 65560.50515896144, -31613.413287808096, -4947.245710759844, 16962.537701432433, 6301.046168928882, 24884.15239860444, 5769.566389270591, 41380.611524654814, 47196.2895627367, 37526.232007292754, 49149.832028130535, 23436.273448023017, 27004.371822401503, -8461.789305423415, -1970.9768260689768, -0.14, 0.984, 0.28200000000000003, 192.0, 0.0, 0.0, 0.0, 0.0, 0.0, 0.0, 0.0, 0.0, 0.0, 1.706883164077628E9, 0.0, 2024-02-02 15:12:44.077
236.0, 63072.30896619666, 65556.9288798486, -31624.522104802385, -4949.279719505277, 16951.87591932725, 6291.591381024287, 24867.388590262963, 5750.768572183678, 41333.002308965006, 47185.605428887066, 37518.36419324448, 49143.3500222385, 23431.758395643046, 27003.745973556757, -8458.771819921949, -1963.0419567873428, -0.14, 0.984, 0.28200000000000003, 192.0, 0.0, 0.0, 0.0, 0.0, 0.0, 0.0, 0.0, 0.0, 0.0, 1.706883164085384E9, 0.0, 2024-02-02 15:12:44.085
238.0, 63080.22148373383, 65548.65873440013, -31621.68343325656, -4945.301108992232, 16950.758332104484, 6291.747843235475, 24871.83658740957, 5746.23116805925, 41287.136529342715, 47185.113690509046, 37513.04447806412, 49144.91464435037, 23416.603912902345, 26993.8217990186, -8465.857322914282, -1964.003081798921, -0.14, 0.984, 0.28200000000000003, 192.0, 0.0, 0.0, 0.0, 0.0, 0.0, 0.0, 0.0, 0.0, 0.0, 1.7068831640934193E9, 0.0, 2024-02-02 15:12:44.093
240.0, 63067.12336148303, 65511.30896941531, -31604.20436909251, -4930.459550673909, 16962.135370032236, 6303.080177674316, 24877.60333747904, 5749.449819260814, 41184.13969089266, 47179.14577473948, 37528.04249859363, 49154.324728766056, 23423.331787983392, 27004.39417414596, -8446.634822682718, -1943.3277181777619, -0.138, 0.98, 0.274, 192.0, 125.5, 88.0, 15.0, 80.0, 4.0, 72.0, 0.0, 0.0, 0.0, 1.7068831641013923E9, 0.0, 2024-02-02 15:12:44.101
242.0, 63025.54911679615, 65453.753227442896, -31613.525046530372, -4944.585853169662, 16947.919660558662, 6289.400910067668, 24858.403188991928, 5724.79584512661, 41011.15954055304, 47179.324588695126, 37524.53327471415, 49154.458839232786, 23426.528087440503, 27008.66335733692, -8444.377296492732, -1935.3034419183068, -0.138, 0.98, 0.274, 192.0, 0.0, 0.0, 0.0, 0.0, 0.0, 0.0, 0.0, 0.0, 0.0, 1.706883164109727E9, 0.0, 2024-02-02 15:12:44.109
244.0, 63050.49366360828, 65459.22940483444, -31600.941014402037, -4935.667507131995, 16955.6533641402, 6298.810994483351, 24859.833700637068, 5722.963002081276, 40883.553431457694, 47155.72114655032, 37503.38852445943, 49135.661022145876, 23407.193828486663, 26996.16873218641, -8457.631880954728, -1944.7805815673569, -0.138, 0.98, 0.274, 192.0, 0.0, 0.0, 0.0, 0.0, 0.0, 0.0, 0.0, 0.0, 0.0, 1.7068831641184244E9, 0.0, 2024-02-02 15:12:44.118
246.0, 63053.555852598656, 65457.1506926001, -31598.325860300763, -4936.941556565947, 16954.982811806538, 6294.3406455922905, 24855.7656831462, 5714.290525232616, 40833.485523877804, 47171.32266418012, 37530.09885908352, 49154.950577610805, 23424.53878218398, 27013.15605797244, -8445.316069759854, -1929.4696366154715, -0.138, 0.98, 0.274, 192.0, 0.0, 0.0, 0.0, 0.0, 0.0, 0.0, 0.0, 0.0, 0.0, 1.706883164125442E9, 0.0, 2024-02-02 15:12:44.125
248.0, 63049.08550370759, 65433.882526622125, -31588.133464829145, -4933.298222219732, 16963.655288655198, 6294.787680481396, 24870.33902053106, 5719.252612501695, 40694.032990221145, 47170.29448393518, 37522.27574852416, 49147.23922577372, 23421.856572849345, 27006.852866036043, -8448.2441482835, -1935.2810901738515, -0.138, 0.98, 0.274, 192.0, 0.0, 0.0, 0.0, 0.0, 0.0, 0.0, 0.0, 0.0, 0.0, 1.7068831641335003E9, 0.0, 2024-02-02 15:12:44.133
250.0, 63036.076788434606, 65413.385976956604, -31577.181110046044, -4931.219509985389, 16971.07606781436, 6296.955799693561, 24880.374953791495, 5718.515004934669, 40594.50067216166, 47159.297425663164, 37529.69652768332, 49150.7037461643, 23429.54557294197, 27010.92088352691, -8435.950688833082, -1926.6309650696476, -0.138, 0.972, 0.272, 192.0, 125.5, 88.0, 15.0, 48.0, 4.0, 64.0, 0.0, 0.0, 0.0, 1.7068831641415424E9, 0.0, 2024-02-02 15:12:44.141
252.0, 63023.51510805072, 65412.067224033744, -31596.135389344145, -4949.659699161017, 16951.71945711606, 6280.929598919106, 24853.91048835641, 5695.023321512142, 40540.722375002195, 47154.84942851656, 37514.11736179797, 49141.60658617099, 23426.34927348486, 27004.39417414596, -8441.04688656889, -1932.1294942056531, -0.138, 0.972, 0.272, 192.0, 0.0, 0.0, 0.0, 0.0, 0.0, 0.0, 0.0, 0.0, 0.0, 1.7068831641495E9, 0.0, 2024-02-02 15:12:44.149
254.0, 63037.77552101321, 65429.81450913126, -31599.756371945903, -4950.665527661506, 16952.747637361008, 6282.29305533088, 24855.944497101846, 5697.839641313511, 40525.411430050306, 47157.55398959565, 37505.55664367159, 49139.68433614783, 23411.977101800097, 26998.783886287678, -8455.709630931573, -1946.8816455461558, -0.138, 0.972, 0.272, 192.0, 0.0, 0.0, 0.0, 0.0, 0.0, 0.0, 0.0, 0.0, 0.0, 1.7068831641574807E9, 0.0, 2024-02-02 15:12:44.157
0.0, 63038.915459980424, 65451.18277683053, -31590.770970674872, -4944.764667125305, 16958.760256619484, 6286.808107710852, 24865.175767561886, 5710.267211230661, 40530.59703476394, 47152.726012793304, 37507.16596927238, 49144.86994086146, 23416.35804371334, 27000.90730201093, -8453.496808230497, -1946.2781484458624, -0.138, 0.972, 0.272, 192.0, 0.0, 0.0, 0.0, 0.0, 0.0, 0.0, 0.0, 0.0, 0.0, 1.7068831641657064E9, 0.0, 2024-02-02 15:12:44.165
2.0, 63028.00780868624, 65470.87466369566, -31585.004220605402, -4939.668469389495, 16961.308355487392, 6293.781851980907, 24868.148549574442, 5720.817234613566, 40535.78263947757, 47154.15652443845, 37507.94828032831, 49148.46857171877, 23425.499907195557, 27002.807200289633, -8450.993412851503, -1940.6231570986697, -0.138, 0.972, 0.272, 192.0, 0.0, 0.0, 0.0, 0.0, 0.0, 0.0, 0.0, 0.0, 0.0, 1.706883164174508E9, 0.0, 2024-02-02 15:12:44.174
4.0, 63071.77252432973, 65509.789050792344, -31586.792360161828, -4941.7471816238385, 16957.88853858573, 6293.044244413883, 24861.174805304385, 5721.2642695026725, 40531.17818011978, 47156.61521632853, 37513.647975164415, 49154.72706016625, 23416.134526268786, 27005.847037535554, -8459.420020511154, -1946.1887414680411, -0.136, 0.978, 0.274, 192.0, 125.5, 96.0, 15.0, 72.0, 4.0, 72.0, 0.0, 0.0, 0.0, 1.7068831641805208E9, 0.0, 2024-02-02 15:12:44.180
6.0, 63072.46542840784, 65525.23410621096, -31577.046999579314, -4933.8793675755705, 16966.73982939003, 6300.1520991506695, 24868.997915863743, 5728.70740040629, 40538.24133136765, 47177.983484027805, 37520.93464385685, 49165.142973082424, 23425.20933451764, 27020.889761553975, -8455.083782086824, -1939.170293709075, -0.136, 0.978, 0.274, 192.0, 0.0, 0.0, 0.0, 0.0, 0.0, 0.0, 0.0, 0.0, 0.0, 1.7068831641895447E9, 0.0, 2024-02-02 15:12:44.189
8.0, 63061.20014920237, 65522.99893176543, -31579.103360069203, -4938.260309488811, 16963.767047377474, 6291.278456601913, 24865.62280245099, 5718.336190979027, 40527.40073530683, 47174.1836874704, 37518.38654498894, 49159.17505731286, 23422.214200760627, 27014.854790551042, -8456.648404198695, -1946.4346106570497, -0.136, 0.978, 0.274, 192.0, 0.0, 0.0, 0.0, 0.0, 0.0, 0.0, 0.0, 0.0, 0.0, 1.706883164197783E9, 0.0, 2024-02-02 15:12:44.197
10.0, 63066.31869868263, 65544.1660337646, -31582.076142081758, -4944.317632236199, 16958.000297308005, 6281.62250299722, 24857.419712235896, 5710.691894375312, 40531.02171790859, 47168.17106821192, 37516.28548101014, 49158.370394512465, 23425.701072895656, 27011.7255463273, -8455.95550012058, -1947.7310118354574, -0.136, 0.978, 0.274, 192.0, 0.0, 0.0, 0.0, 0.0, 0.0, 0.0, 0.0, 0.0, 0.0, 1.7068831642055442E9, 0.0, 2024-02-02 15:12:44.205
12.0, 63090.1903617609, 65582.58868248329, -31579.684505425037, -4938.886158333559, 16963.387067721735, 6287.344549577779, 24863.45468323883, 5716.682161889335, 40536.98963367816, 47174.45190840387, 37514.698507153815, 49163.8018684151, 23423.17532577221, 27009.512723626223, -8461.72225019005, -1954.2577212164072, -0.136, 0.978, 0.274, 192.0, 0.0, 0.0, 0.0, 0.0, 0.0, 0.0, 0.0, 0.0, 0.0, 1.7068831642135537E9, 0.0, 2024-02-02 15:12:44.213
14.0, 63083.14956225748, 65581.35933653824, -31591.53092998635, -4946.664565404006, 16955.318087973366, 6280.437860541089, 24857.24089828025, 5711.585964153524, 40548.85840998393, 47173.222562458825, 37518.07362056657, 49167.08757485003, 23421.834221104888, 27011.703194582846, -8464.62797696924, -1959.420974185583, -0.136, 0.98, 0.274, 192.0, 125.5, 96.0, 15.0, 80.0, 4.0, 72.0, 0.0, 0.0, 0.0, 1.7068831642216113E9, 0.0, 2024-02-02 15:12:44.221
16.0, 63092.403184461975, 65595.84326694527, -31584.40072350511, -4943.043582802246, 16961.84479735432, 6285.377596065712, 24862.851186138534, 5716.793920611611, 40560.9730554787, 47179.05636776166, 37513.24564376422, 49163.51129573719, 23421.07426179341, 27010.630310848992, -8472.2499218285, -1968.7640033679013, -0.136, 0.98, 0.274, 192.0, 0.0, 0.0, 0.0, 0.0, 0.0, 0.0, 0.0, 0.0, 0.0, 1.706883164228871E9, 0.0, 2024-02-02 15:12:44.228
18.0, 63082.61312039055, 65590.41179304264, -31589.228700307456, -4948.631518916073, 16959.810788608884, 6280.884895430195, 24862.82883439408, 5716.257478744684, 40583.41420691183, 47177.46939390533, 37513.06682980857, 49163.86892364847, 23420.44841294866, 27008.48454338128, -8474.619206740763, -1975.4024714711277, -0.136, 0.98, 0.274, 192.0, 0.0, 0.0, 0.0, 0.0, 0.0, 0.0, 0.0, 0.0, 0.0, 1.7068831642366648E9, 0.0, 2024-02-02 15:12:44.236
20.0, 63090.793858861194, 65607.60028452877, -31597.364735289186, -4953.951234096437, 16955.69806762911, 6280.348453563268, 24859.92310761489, 5719.342019479516, 40621.99331784169, 47183.504364908265, 37514.81026587609, 49168.2051620728, 23421.72246238261, 27009.222150948306, -8471.57936949484, -1973.7707941258902, -0.136, 0.98, 0.274, 192.0, 0.0, 0.0, 0.0, 0.0, 0.0, 0.0, 0.0, 0.0, 0.0, 1.7068831642456691E9, 0.0, 2024-02-02 15:12:44.245
22.0, 63087.10582102607, 65609.6342932742, -31603.667927225582, -4960.544998710751, 16954.468721684065, 6280.3708053077235, 24865.466340239807, 5724.03588581513, 40644.70269020828, 47179.05636776166, 37498.47114067926, 49152.67069967636, 23405.271578463507, 26994.849979263545, -8488.320826091865, -1991.96511411251, -0.136, 0.98, 0.274, 192.0, 0.0, 0.0, 0.0, 0.0, 0.0, 0.0, 0.0, 0.0, 0.0, 1.706883164253948E9, 0.0, 2024-02-02 15:12:44.253
24.0, 63084.58007390262, 65614.64108403219, -31599.39874403462, -4955.515856208308, 16962.113018287782, 6290.898476946173, 24874.96583163331, 5740.7549906677, 40687.39452211792, 47178.34111193909, 37509.55760592909, 49160.78438291364, 23416.603912902345, 27005.243540435262, -8477.3014160754, -1980.096337806742, -0.138, 0.981, 0.273, 192.0, 125.5, 80.0, 15.0, 88.0, 4.0, 64.0, 0.0, 0.0, 0.0, 1.7068831642608943E9, 0.0, 2024-02-02 15:12:44.260
26.0, 63088.37987046002, 65621.86069749125, -31600.82925567976, -4956.856960875626, 16960.79426536492, 6288.7080059895525, 24872.21656706531, 5742.654888946401, 40713.27784219717, 47182.47618466332, 37500.773370358154, 49152.290720020625, 23414.189924501174, 27003.58951134557, -8479.87186668776, -1981.191573285052, -0.138, 0.981, 0.273, 192.0, 0.0, 0.0, 0.0, 0.0, 0.0, 0.0, 0.0, 0.0, 0.0, 1.706883164268674E9, 0.0, 2024-02-02 15:12:44.268
28.0, 63083.037803535204, 65617.01036894445, -31610.731078473462, -4964.210684801422, 16957.776779863452, 6288.976226923016, 24870.428427508883, 5744.644194202923, 40742.268054755696, 47183.41495793044, 37498.42643719035, 49149.4520484748, 23410.032500032485, 27001.600206089046, -8483.649311500707, -1988.0088553439207, -0.138, 0.981, 0.273, 192.0, 0.0, 0.0, 0.0, 0.0, 0.0, 0.0, 0.0, 0.0, 0.0, 1.706883164277696E9, 0.0, 2024-02-02 15:12:44.277
30.0, 63098.840486865105, 65632.85775576327, -31610.798133706827, -4961.50612372233, 16960.570747920367, 6293.5806862808095, 24872.68595369887, 5750.6121099724905, 40783.01528489772, 47186.74536785429, 37500.48279768024, 49154.99528109971, 23416.626264646802, 27006.495238124757, -8481.950578922102, -1985.3266460092839, -0.138, 0.981, 0.273, 192.0, 0.0, 0.0, 0.0, 0.0, 0.0, 0.0, 0.0, 0.0, 0.0, 1.70688316428501E9, 0.0, 2024-02-02 15:12:44.285
32.0, 63090.48093443882, 65625.10170043727, -31622.510447801407, -4970.670338949006, 16946.22092798006, 6279.789659951885, 24859.63253493697, 5737.5810429550465, 40808.45157008786, 47191.461585934354, 37492.50322490969, 49149.854379874996, 23403.528142395993, 26998.783886287678, -8497.887372718737, -1999.229431060485, -0.138, 0.981, 0.273, 192.0, 0.0, 0.0, 0.0, 0.0, 0.0, 0.0, 0.0, 0.0, 0.0, 1.706883164292734E9, 0.0, 2024-02-02 15:12:44.292
34.0, 63099.8463153656, 65631.67311330713, -31610.976947662468, -4961.729641166883, 16953.105265272294, 6285.154078621159, 24865.220471050798, 5746.208816314795, 40835.02779424522, 47179.726920095316, 37501.53332966963, 49152.15660955389, 23406.85855231983, 26993.68768855187, -8496.367454095776, -2003.5880212292698, -0.14, 0.9804999999999999, 0.2765, 192.0, 125.5, 72.0, 15.0, 80.0, 4.0, 96.0, 0.0, 0.0, 0.0, 1.706883164301705E9, 0.0, 2024-02-02 15:12:44.301
36.0, 63098.996949076296, 65630.98020922902, -31608.048869138824, -4961.282606277777, 16955.899233329204, 6288.551543778365, 24868.573232719093, 5752.71317395129, 40864.6438556485, 47192.8920975795, 37508.819998362065, 49160.113830579976, 23416.49215418007, 27001.399040388947, -8491.137145893234, -1997.351884526239, -0.14, 0.9804999999999999, 0.2765, 192.0, 0.0, 0.0, 0.0, 0.0, 0.0, 0.0, 0.0, 0.0, 0.0, 1.7068831643099177E9, 0.0, 2024-02-02 15:12:44.309
38.0, 63104.27196076774, 65633.61771507475, -31611.289872084843, -4971.072670349201, 16957.48620718553, 6283.678863487108, 24868.662639696915, 5753.204912329306, 40875.88678310952, 47185.806594587164, 37503.790855859625, 49152.33542350953, 23412.67000587821, 26993.19595017385, -8492.947637194115, -2005.934954397077, -0.14, 0.9804999999999999, 0.2765, 192.0, 0.0, 0.0, 0.0, 0.0, 0.0, 0.0, 0.0, 0.0, 0.0, 1.7068831643170087E9, 0.0, 2024-02-02 15:12:44.317
40.0, 63097.83465836462, 65629.54969758388, -31608.093572627735, -4971.5644087272185, 16963.990564822026, 6285.757575721452, 24873.624726965994, 5760.04454613263, 40892.024742606256, 47182.25266721877, 37505.1543122714, 49152.290720020625, 23418.280293736494, 26995.252310663738, -8484.029291156447, -2005.4655677635155, -0.14, 0.9804999999999999, 0.2765, 192.0, 0.0, 0.0, 0.0, 0.0, 0.0, 0.0, 0.0, 0.0, 0.0, 1.7068831643248577E9, 0.0, 2024-02-02 15:12:44.324
42.0, 63090.70445188337, 65619.44670909009, -31623.516276301896, -4980.505106509341, 16950.221890237557, 6280.057880885349, 24864.549918717137, 5753.6072437295015, 40891.77887341724, 47177.201172971865, 37488.23404171873, 49140.53370243713, 23408.73609885408, 26986.602185559535, -8496.926247707159, -2017.356695813739, -0.14, 0.9804999999999999, 0.2765, 192.0, 0.0, 0.0, 0.0, 0.0, 0.0, 0.0, 0.0, 0.0, 0.0, 1.7068831643337805E9, 0.0, 2024-02-02 15:12:44.333
44.0, 63117.705359185384, 65641.30671516737, -31612.854494196716, -4967.116411580612, 16964.45995145559, 6295.1006049037705, 24879.749104946746, 5771.779211971666, 40905.34638230162, 47181.93974279639, 37501.354515713996, 49152.04485083161, 23414.63695939028, 26996.861636264523, -8487.314997591377, -2004.9067741521328, -0.14, 0.97825, 0.27825, 192.0, 125.5, 80.0, 15.0, 64.0, 4.0, 96.0, 0.0, 0.0, 0.0, 1.7068831643408127E9, 0.0, 2024-02-02 15:12:44.340
46.0, 63098.61696942055, 65629.1473661837, -31626.73492750346, -4975.185391328978, 16953.39583795021, 6286.964569922039, 24870.294317042153, 5768.337043325549, 40900.406646776995, 47187.77354809923, 37493.28553596563, 49151.1507810534, 23408.669043620714, 26996.34754614205, -8493.68524476114, -2003.6550764626356, -0.14, 0.97825, 0.27825, 192.0, 0.0, 0.0, 0.0, 0.0, 0.0, 0.0, 0.0, 0.0, 0.0, 1.7068831643491127E9, 0.0, 2024-02-02 15:12:44.349
48.0, 63101.05330956618, 65632.07544470733, -31615.939034931547, -4969.664510448517, 16965.868111356274, 6297.514593304943, 24882.766590448213, 5782.061014421108, 40892.225908306355, 47183.839641075094, 37488.79283533011, 49144.91464435037, 23405.226874974596, 26993.039487962662, -8492.254733116, -2002.5374892398704, -0.14, 0.97825, 0.27825, 192.0, 0.0, 0.0, 0.0, 0.0, 0.0, 0.0, 0.0, 0.0, 0.0, 1.7068831643567924E9, 0.0, 2024-02-02 15:12:44.356
50.0, 63098.214638020356, 65630.6896365511, -31617.615415765697, -4978.515801252818, 16963.588233421833, 6289.24444785648, 24876.619860723004, 5778.19416263034, 40900.876033410554, 47181.67152186293, 37495.610117388984, 49146.971004840256, 23416.313340224428, 26995.408772874925, -8483.626959756251, -1997.1507188261414, -0.14, 0.97825, 0.27825, 192.0, 0.0, 0.0, 0.0, 0.0, 0.0, 0.0, 0.0, 0.0, 0.0, 1.7068831643658085E9, 0.0, 2024-02-02 15:12:44.365
52.0, 63105.59071369061, 65643.20661344608, -31619.716479744493, -4980.974493142902, 16964.16937877767, 6287.47866004451, 24882.453666025838, 5780.630502775968, 40901.85951016659, 47182.09620500758, 37487.4517306628, 49140.93603383732, 23409.40665118774, 26984.121141924996, -8494.936942450637, -2010.5617654993257, -0.14, 0.97825, 0.27825, 192.0, 0.0, 0.0, 0.0, 0.0, 0.0, 0.0, 0.0, 0.0, 0.0, 1.7068831643728256E9, 0.0, 2024-02-02 15:12:44.372
54.0, 63115.0455015952, 65649.3980466602, -31618.151857632623, -4979.678091964494, 16967.276271256957, 6287.47866004451, 24881.380782291984, 5783.849153977532, 40904.22879507885, 47181.22448697382, 37495.87833832244, 49148.44621997431, 23412.6253023893, 26990.737258283767, -8486.733852235539, -2003.1856898290744, -0.139, 0.9801249999999999, 0.278125, 192.0, 125.5, 88.0, 15.0, 88.0, 4.0, 88.0, 0.0, 0.0, 0.0, 1.7068831643810253E9, 0.0, 2024-02-02 15:12:44.381
56.0, 63102.86380086706, 65639.38446514422, -31623.762145490906, -4984.3049030667435, 16962.627108410252, 6281.7789652084075, 24882.36425904802, 5780.7646132427, 40903.78176018975, 47187.10299576557, 37494.17960574384, 49147.30628100709, 23413.45231693415, 26986.95981347082, -8489.639579014729, -2005.2420503189626, -0.139, 0.9801249999999999, 0.278125, 192.0, 0.0, 0.0, 0.0, 0.0, 0.0, 0.0, 0.0, 0.0, 0.0, 1.7068831643898358E9, 0.0, 2024-02-02 15:12:44.389
58.0, 63101.81326887766, 65643.18426170162, -31629.77476474938, -4982.740280954871, 16954.4016664507, 6280.728433219008, 24867.72386642979, 5774.260255606206, 40890.86245189458, 47184.21962073084, 37486.53530914013, 49138.656155902885, 23403.550494140447, 26980.38840060096, -8500.01078844199, -2011.5675939998143, -0.139, 0.9801249999999999, 0.278125, 192.0, 0.0, 0.0, 0.0, 0.0, 0.0, 0.0, 0.0, 0.0, 0.0, 1.7068831643968563E9, 0.0, 2024-02-02 15:12:44.396
60.0, 63111.87155388255, 65661.53504389942, -31617.414250065598, -4970.156248826534, 16964.906986344693, 6291.233753113002, 24877.379820034483, 5781.055185920619, 40890.88480363903, 47194.05438829117, 37494.626640632945, 49151.84368513151, 23410.121907010307, 26992.950080984843, -8494.646369772718, -2004.996181129954, -0.139, 0.9801249999999999, 0.278125, 192.0, 0.0, 0.0, 0.0, 0.0, 0.0, 0.0, 0.0, 0.0, 0.0, 1.7068831644048479E9, 0.0, 2024-02-02 15:12:44.404
62.0, 63104.853106123584, 65645.30767742488, -31620.49879080043, -4977.264103563321, 16960.54839617591, 6282.807145453352, 24876.39634327845, 5776.003691673719, 40892.89646064001, 47204.71617039635, 37500.505149424695, 49157.49867647871, 23416.78272685799, 27000.214397932818, -8490.354834837299, -2003.2303933179849, -0.139, 0.9801249999999999, 0.278125, 192.0, 0.0, 0.0, 0.0, 0.0, 0.0, 0.0, 0.0, 0.0, 0.0, 1.7068831644128976E9, 0.0, 2024-02-02 15:12:44.412
64.0, 63084.11068726906, 65635.33879939781, -31624.343290846744, -4980.594513487162, 16955.005163550995, 6280.750784963463, 24859.05138958113, 5768.113525880996, 40872.98105633033, 47175.4353851599, 37489.1504632414, 49137.78443786913, 23409.272540721005, 26984.05408669163, -8500.68134077565, -2018.7201522255127, -0.1365, 0.9790625, 0.2780625, 192.0, 125.5, 104.0, 15.0, 72.0, 4.0, 88.0, 0.0, 0.0, 0.0, 1.7068831644219403E9, 0.0, 2024-02-02 15:12:44.421
66.0, 63079.17095174443, 65623.8947062367, -31615.223779108976, -4971.899684894048, 16965.26461425598, 6292.016064168938, 24874.630555466483, 5778.28356960816, 40863.19099225891, 47201.251650005775, 37498.02410579015, 49153.2518450322, 23420.001378059555, 27007.21049394733, -8486.085651646335, -1997.5530502263368, -0.1365, 0.9790625, 0.2780625, 192.0, 0.0, 0.0, 0.0, 0.0, 0.0, 0.0, 0.0, 0.0, 0.0, 1.7068831644289033E9, 0.0, 2024-02-02 15:12:44.428
68.0, 63076.06405926515, 65637.95395349908, -31617.190732621046, -4973.285493050277, 16961.733038632043, 6290.630256012709, 24874.49644499975, 5774.394366072937, 40840.481619892314, 47177.51409739424, 37496.48183542274, 49143.66294666087, 23417.363872213828, 26994.134723440973, -8488.72315749206, -2000.0117421164207, -0.1365, 0.9790625, 0.2780625, 192.0, 0.0, 0.0, 0.0, 0.0, 0.0, 0.0, 0.0, 0.0, 0.0, 1.706883164436922E9, 0.0, 2024-02-02 15:12:44.436
70.0, 63070.14084698449, 65608.15907814015, -31609.792305206338, -4973.956045383936, 16965.51048344499, 6287.188087366591, 24881.91722415891, 5774.483773050759, 40789.094959389564, 47182.90086780797, 37512.37392573046, 49151.173132797856, 23423.264732750027, 27003.05306947864, -8471.780535194937, -1981.8844773631665, -0.1365, 0.9790625, 0.2780625, 192.0, 0.0, 0.0, 0.0, 0.0, 0.0, 0.0, 0.0, 0.0, 0.0, 1.706883164445921E9, 0.0, 2024-02-02 15:12:44.445
72.0, 63045.933907739396, 65567.97064160951, -31612.407459307607, -4971.519705238307, 16958.91671883067, 6285.802279210363, 24879.369125291007, 5765.833647946554, 40688.98149597424, 47171.92616128042, 37504.39435295991, 49137.29269949111, 23417.989721058577, 26992.570101329104, -8469.143029349212, -1980.453965718027, -0.1365, 0.9790625, 0.2780625, 192.0, 0.0, 0.0, 0.0, 0.0, 0.0, 0.0, 0.0, 0.0, 0.0, 1.7068831644529543E9, 0.0, 2024-02-02 15:12:44.452
74.0, 63005.857229931025, 65527.58103937877, -31603.01972663638, -4960.299129521743, 16965.756352633995, 6297.268724115936, 24876.55280548964, 5763.844342690032, 40595.77472159561, 47157.15165819546, 37497.93469881233, 49130.87774883244, 23421.610703660335, 26987.831531504577, -8456.938976876614, -1964.3830614546612, -0.13325, 0.97253125, 0.28103125, 192.0, 125.5, 120.0, 15.0, 24.0, 4.0, 112.0, 0.0, 0.0, 0.0, 1.7068831644612255E9, 0.0, 2024-02-02 15:12:44.461
76.0, 63011.51222127822, 65521.92604803158, -31605.366659804185, -4959.583873699174, 16961.509521187487, 6295.480584559511, 24883.012459637222, 5753.51783675168, 40533.83803770996, 47165.3323966661, 37491.72091385376, 49134.185807011825, 23423.667064150224, 26997.062801964617, -8448.512369216964, -1947.5969013687256, -0.13325, 0.97253125, 0.28103125, 192.0, 0.0, 0.0, 0.0, 0.0, 0.0, 0.0, 0.0, 0.0, 0.0, 1.7068831644691246E9, 0.0, 2024-02-02 15:12:44.469
78.0, 63018.70948299283, 65500.91540824359, -31598.616432978684, -4956.164056797512, 16969.198521280112, 6299.906229961662, 24889.405058551438, 5753.584891985046, 40466.268714221565, 47175.92712353791, 37500.303983724596, 49144.78053388364, 23424.672892650713, 26999.990880488265, -8444.913738359659, -1938.387982653139, -0.13325, 0.97253125, 0.28103125, 192.0, 0.0, 0.0, 0.0, 0.0, 0.0, 0.0, 0.0, 0.0, 0.0, 1.7068831644771185E9, 0.0, 2024-02-02 15:12:44.477
80.0, 63026.1749656409, 65460.77167520186, -31579.14806355811, -4947.871559604592, 16976.306376016903, 6300.777947995419, 24886.856959683533, 5748.019307615675, 40342.12712551679, 47169.378062412514, 37513.04447806412, 49152.26836827616, 23442.129605070306, 27006.137610213475, -8427.85935734026, -1918.2714126433627, -0.13325, 0.97253125, 0.28103125, 192.0, 0.0, 0.0, 0.0, 0.0, 0.0, 0.0, 0.0, 0.0, 0.0, 1.7068831644850113E9, 0.0, 2024-02-02 15:12:44.485
82.0, 62988.109944833515, 65384.75339230936, -31595.57659573276, -4970.98326337138, 16956.815654851875, 6280.259046585446, 24866.606279207026, 5722.828891614544, 40215.77271411094, 47154.87178026102, 37499.34285871302, 49142.567711182564, 23434.507660211046, 26989.95494722783, -8440.935127846615, -1927.7038488035023, -0.13325, 0.97253125, 0.28103125, 192.0, 0.0, 0.0, 0.0, 0.0, 0.0, 0.0, 0.0, 0.0, 0.0, 1.7068831644930005E9, 0.0, 2024-02-02 15:12:44.493
84.0, 62976.62114818348, 65361.7757990093, -31594.995450376926, -4970.379766271087, 16958.335573474833, 6287.098680388771, 24866.31570652911, 5721.241917758217, 40144.15772487614, 47139.449076586854, 37491.273878964654, 49137.739734380215, 23432.92068635472, 26987.026868704186, -8442.298584258388, -1934.4093721400943, -0.132625, 0.964265625, 0.28351562500000005, 192.0, 125.5, 112.0, 14.5, 112.0, 4.0, 120.0, 0.0, 0.0, 0.0, 1.7068831645022452E9, 0.0, 2024-02-02 15:12:44.502
86.0, 62986.25475004372, 65364.70387753295, -31603.44440978103, -4981.89091466557, 16947.964364047573, 6277.3756715507125, 24845.886212096957, 5703.114653004963, 40101.30943075531, 47142.01952719921, 37482.847271305, 49136.1974640128, 23425.701072895656, 26985.551653570135, -8452.446276241097, -1941.807799554801, -0.132625, 0.964265625, 0.28351562500000005, 192.0, 0.0, 0.0, 0.0, 0.0, 0.0, 0.0, 0.0, 0.0, 0.0, 1.7068831645090241E9, 0.0, 2024-02-02 15:12:44.509
88.0, 62983.03609884216, 65364.59211881067, -31593.72140094297, -4978.091118108167, 16963.543529932922, 6288.328026333813, 24864.88519488397, 5716.972734567254, 40058.416433145576, 47141.10310567655, 37484.52365213915, 49135.3480977235, 23433.077148565906, 26986.19985415934, -8449.138218061713, -1941.2490059434183, -0.132625, 0.964265625, 0.28351562500000005, 192.0, 0.0, 0.0, 0.0, 0.0, 0.0, 0.0, 0.0, 0.0, 0.0, 1.7068831645170326E9, 0.0, 2024-02-02 15:12:44.517
90.0, 62987.93113087787, 65383.4346393865, -31587.99935436241, -4978.247580319355, 16968.282099757445, 6287.635122255698, 24873.982354877277, 5722.0912840475185, 40020.99961292739, 47127.714410747816, 37489.17281498585, 49132.17415001085, 23442.50958472605, 26985.19402565885, -8440.778665635427, -1937.5609681082926, -0.132625, 0.964265625, 0.28351562500000005, 192.0, 0.0, 0.0, 0.0, 0.0, 0.0, 0.0, 0.0, 0.0, 0.0, 1.7068831645250976E9, 0.0, 2024-02-02 15:12:44.525
92.0, 62995.91070364842, 65401.025462272824, -31587.239395050932, -4972.592588972162, 16967.052753812404, 6290.540849034888, 24869.668468197404, 5720.951345080298, 40026.45343857449, 47145.126419678505, 37493.46434992127, 49140.01961231466, 23442.800157403966, 26990.670203050402, -8439.281098756921, -1935.2363866849407, -0.132625, 0.964265625, 0.28351562500000005, 192.0, 0.0, 0.0, 0.0, 0.0, 0.0, 0.0, 0.0, 0.0, 0.0, 1.7068831645330722E9, 0.0, 2024-02-02 15:12:44.533
94.0, 63007.2206863428, 65422.52784043883, -31588.40168576261, -4971.475001749397, 16960.257823497992, 6289.24444785648, 24860.146625059442, 5719.252612501695, 40040.33387188124, 47134.151713150946, 37492.63733537642, 49142.008917571184, 23437.525145712512, 26988.47973209378, -8443.14795054769, -1939.9079012761, -0.1343125, 0.9601328125, 0.28475781250000004, 192.0, 125.5, 96.0, 14.5, 112.0, 4.0, 120.0, 0.0, 0.0, 0.0, 1.7068831645410523E9, 0.0, 2024-02-02 15:12:44.541
96.0, 63018.28479984818, 65449.193471574006, -31585.76417991688, -4967.027004602791, 16959.36375371978, 6288.5291920339105, 24859.63253493697, 5724.818196871066, 40067.53594488334, 47140.499608576254, 37490.06688476406, 49146.00987982868, 23431.646636920766, 26989.552615827637, -8451.976889607537, -1941.0254884988653, -0.1343125, 0.9601328125, 0.28475781250000004, 192.0, 0.0, 0.0, 0.0, 0.0, 0.0, 0.0, 0.0, 0.0, 0.0, 1.7068831645490863E9, 0.0, 2024-02-02 15:12:44.549
98.0, 63044.25752690525, 65493.53933257334, -31570.29677275381, -4958.309824265221, 16973.534759704442, 6297.581648538309, 24872.954174632334, 5741.783170912644, 40115.7710094179, 47151.60842557054, 37500.32633546905, 49155.30820552209, 23442.464881237138, 26991.83249376208, -8446.232491282522, -1936.9798227524548, -0.1343125, 0.9601328125, 0.28475781250000004, 192.0, 0.0, 0.0, 0.0, 0.0, 0.0, 0.0, 0.0, 0.0, 0.0, 1.7068831645581777E9, 0.0, 2024-02-02 15:12:44.558
100.0, 63058.45088463437, 65531.760815591915, -31568.28511575283, -4959.427411487986, 16974.74175390503, 6298.073386916326, 24874.45174151084, 5747.192293070829, 40165.95067572006, 47157.46458261783, 37504.3049459821, 49161.14201082492, 23446.667009194734, 26996.7722292867, -8446.366601749254, -1938.5891483532369, -0.1343125, 0.9601328125, 0.28475781250000004, 192.0, 0.0, 0.0, 0.0, 0.0, 0.0, 0.0, 0.0, 0.0, 0.0, 1.7068831645641255E9, 0.0, 2024-02-02 15:12:44.564
102.0, 63060.23902419079, 65559.6781444166, -31581.986735103936, -4969.016309859313, 16969.623204424763, 6293.893610703184, 24864.88519488397, 5748.309880293594, 40235.24108353151, 47169.3333589236, 37501.354515713996, 49161.097307336015, 23444.811814404944, 26995.90051125294, -8454.949671620092, -1950.614386870192, -0.1343125, 0.9601328125, 0.28475781250000004, 192.0, 0.0, 0.0, 0.0, 0.0, 0.0, 0.0, 0.0, 0.0, 0.0, 1.7068831645733495E9, 0.0, 2024-02-02 15:12:44.573
104.0, 63074.56649238664, 65587.43901103009, -31577.78460714634, -4961.260254533321, 16983.36952726478, 6307.952857965572, 24893.718945231314, 5775.847229462533, 40334.79575333545, 47165.55591411066, 37505.91427158288, 49162.416060258874, 23449.751549929566, 26999.096810710053, -8455.664927442662, -1957.8787038181667, -0.13715625, 0.96206640625, 0.28737890625, 192.0, 125.5, 80.0, 15.0, 16.0, 4.5, 8.0, 0.0, 0.0, 0.0, 1.7068831645811253E9, 0.0, 2024-02-02 15:12:44.581
106.0, 63078.09806801058, 65594.41275530015, -31589.943956130024, -4971.966740127414, 16973.400649237712, 6300.107395661759, 24875.30110780014, 5773.612055017002, 40459.138507740325, 47177.067062505135, 37510.74224838522, 49168.562789984084, 23452.858442408855, 27006.271720680204, -8456.022555353948, -1964.740689365946, -0.13715625, 0.96206640625, 0.28737890625, 192.0, 0.0, 0.0, 0.0, 0.0, 0.0, 0.0, 0.0, 0.0, 0.0, 1.7068831645891361E9, 0.0, 2024-02-02 15:12:44.589
108.0, 63076.891073809995, 65603.42050831563, -31601.0080696354, -4975.140687840068, 16970.539625947433, 6301.046168928882, 24880.151436346943, 5782.932732454865, 40584.57649762351, 47170.8309258021, 37506.54012042763, 49159.73385092424, 23445.21414580514, 26997.688650809367, -8469.098325860301, -1983.5385064528593, -0.13715625, 0.96206640625, 0.28737890625, 192.0, 0.0, 0.0, 0.0, 0.0, 0.0, 0.0, 0.0, 0.0, 0.0, 1.706883164597155E9, 0.0, 2024-02-02 15:12:44.597
110.0, 63073.09127725259, 65606.46034556154, -31616.654290754115, -4985.109565867134, 16966.426904967655, 6297.514593304943, 24875.189349077864, 5784.340892355549, 40712.71904858578, 47172.6861205919, 37504.66257389338, 49156.67166193386, 23445.951753372166, 26998.20274093184, -8467.623110726252, -1984.2984657643399, -0.13715625, 0.96206640625, 0.28737890625, 192.0, 0.0, 0.0, 0.0, 0.0, 0.0, 0.0, 0.0, 0.0, 0.0, 1.706883164605144E9, 0.0, 2024-02-02 15:12:44.605
112.0, 63061.91540502494, 65598.90545593566, -31632.613436295207, -4999.772310229816, 16960.369582220268, 6288.953875178561, 24868.68499144137, 5782.57510454358, 40822.734334794804, 47169.26630369024, 37488.055227763085, 49140.958385581784, 23431.49017470958, 26988.658546049424, -8485.057471401391, -1999.385893271672, -0.13715625, 0.96206640625, 0.28737890625, 192.0, 0.0, 0.0, 0.0, 0.0, 0.0, 0.0, 0.0, 0.0, 0.0, 1.7068831646134765E9, 0.0, 2024-02-02 15:12:44.613
114.0, 63079.79680058918, 65614.81989798784, -31622.577503034772, -4991.390406059076, 16972.819503881874, 6293.24541011398, 24886.856959683533, 5797.595476817546, 40907.91683291398, 47158.15748669595, 37491.899727809396, 49140.64546115941, 23436.67577942321, 26983.539996569158, -8480.318901576866, -1999.9893903719653, -0.135578125, 0.967033203125, 0.289689453125, 192.0, 125.5, 104.0, 15.0, 48.0, 4.5, 16.0, 0.0, 0.0, 0.0, 1.7068831646201615E9, 0.0, 2024-02-02 15:12:44.620
116.0, 63072.21955921884, 65609.70134850757, -31639.006035209422, -4999.817013718726, 16959.40845720869, 6280.057880885349, 24883.034811381676, 5790.5323255696685, 40963.527973118784, 47164.95241701036, 37492.61498363197, 49148.17799904085, 23436.49696546757, 26983.517644824704, -8481.078860888347, -1999.3188380383062, -0.135578125, 0.967033203125, 0.289689453125, 192.0, 0.0, 0.0, 0.0, 0.0, 0.0, 0.0, 0.0, 0.0, 0.0, 1.7068831646291993E9, 0.0, 2024-02-02 15:12:44.629
118.0, 63078.7909720887, 65606.08036590581, -31642.336445133264, -4995.793699716771, 16961.26365199848, 6283.723566976019, 24885.001764893743, 5795.449709349837, 40990.84180484317, 47163.05251873166, 37485.060094006076, 49138.18676926932, 23426.326921740405, 26977.125045910485, -8493.618189527773, -2010.651172477147, -0.135578125, 0.967033203125, 0.289689453125, 192.0, 0.0, 0.0, 0.0, 0.0, 0.0, 0.0, 0.0, 0.0, 0.0, 1.706883164637212E9, 0.0, 2024-02-02 15:12:44.637
120.0, 63083.35072795758, 65604.15811588266, -31638.536648575864, -4988.976417657902, 16964.102323544303, 6289.915000190139, 24887.50516027274, 5800.970590230298, 41022.178950569505, 47169.69098683489, 37488.72578009675, 49142.075972804545, 23435.938171856185, 26986.870406493, -8488.790212725427, -2002.068102606309, -0.135578125, 0.967033203125, 0.289689453125, 192.0, 0.0, 0.0, 0.0, 0.0, 0.0, 0.0, 0.0, 0.0, 0.0, 1.70688316464544E9, 0.0, 2024-02-02 15:12:44.645
122.0, 63096.85118160858, 65614.50697356545, -31640.615360810207, -4989.110528124635, 16963.722343888563, 6288.775061222918, 24885.180578849388, 5800.478851852281, 41043.07783163522, 47185.113690509046, 37491.45269292029, 49145.74165889522, 23438.039235834985, 26996.660470564424, -8490.1536691372, -1996.1225385811972, -0.135578125, 0.967033203125, 0.289689453125, 192.0, 0.0, 0.0, 0.0, 0.0, 0.0, 0.0, 0.0, 0.0, 0.0, 1.7068831646532197E9, 0.0, 2024-02-02 15:12:44.653
124.0, 63118.82294640815, 65636.88106976522, -31634.558038062816, -4985.377786800598, 16968.952652091106, 6293.983017681006, 24895.820009210114, 5809.553660101135, 41056.80180273078, 47176.932952038405, 37493.576108643545, 49143.685298405326, 23436.407558489747, 26990.312575139116, -8492.768823238472, -2000.771701427901, -0.135578125, 0.967033203125, 0.289689453125, 192.0, 0.0, 0.0, 0.0, 0.0, 0.0, 0.0, 0.0, 0.0, 0.0, 1.7068831646613145E9, 0.0, 2024-02-02 15:12:44.661
126.0, 63127.94245814592, 65650.38152341623, -31630.53472406086, -4983.74610945536, 16968.97500383556, 6293.8712589587285, 24892.10961963053, 5812.884070024976, 41070.65988429307, 47197.67537089293, 37508.86470185098, 49157.54337996762, 23449.43862550719, 27003.008365989732, -8480.989453910524, -1991.4733757344934, -0.134, 0.974, 0.28600000000000003, 192.0, 125.5, 104.0, 15.0, 56.0, 4.0, 120.0, 0.0, 0.0, 0.0, 1.706883164669562E9, 0.0, 2024-02-02 15:12:44.669
128.0, 63120.20875456438, 65642.42430239014, -31638.35783462022, -4989.289342080277, 16963.49882644401, 6291.211401368547, 24890.433238796384, 5811.319447913104, 41066.010721446364, 47197.00481855927, 37507.635355905935, 49154.97292935526, 23448.052817350963, 26998.58272058758, -8483.001110911502, -1997.2848292928732, -0.134, 0.974, 0.28600000000000003, 192.0, 0.0, 0.0, 0.0, 0.0, 0.0, 0.0, 0.0, 0.0, 0.0, 1.706883164676496E9, 0.0, 2024-02-02 15:12:44.676
130.0, 63140.705304229894, 65663.45729392258, -31635.005072951924, -4984.371958300109, 16970.807846880896, 6297.335779349301, 24896.91524468842, 5820.617773606512, 41047.05644214826, 47185.56072539815, 37497.219442989765, 49145.920472850856, 23437.435738734694, 26988.90441523843, -8493.975817439057, -2006.4937480084598, -0.134, 0.974, 0.28600000000000003, 192.0, 0.0, 0.0, 0.0, 0.0, 0.0, 0.0, 0.0, 0.0, 0.0, 1.706883164685273E9, 0.0, 2024-02-02 15:12:44.685
132.0, 63155.03277242575, 65679.66230865268, -31638.246075897943, -4988.462327535431, 16972.68539341514, 6297.693407260586, 24897.049355155155, 5821.064808495618, 41067.17301215804, 47214.68504842342, 37519.7052979118, 49169.747432440214, 23459.07222736743, 27005.57881660209, -8476.720270719561, -1989.5958292002476, -0.134, 0.974, 0.28600000000000003, 192.0, 0.0, 0.0, 0.0, 0.0, 0.0, 0.0, 0.0, 0.0, 0.0, 1.7068831646935987E9, 0.0, 2024-02-02 15:12:44.693
134.0, 63149.78011247875, 65678.41061096318, -31641.68824454406, -4991.166888614523, 16968.93030034665, 6297.045206671382, 24893.62953825349, 5820.394256161959, 41050.38685207211, 47201.20694651687, 37512.35157398601, 49156.58225495604, 23449.46097725165, 26996.05697346413, -8488.969026681068, -2002.3139717953172, -0.134, 0.974, 0.28600000000000003, 192.0, 0.0, 0.0, 0.0, 0.0, 0.0, 0.0, 0.0, 0.0, 0.0, 1.7068831647005613E9, 0.0, 2024-02-02 15:12:44.700
136.0, 63133.48569077083, 65671.61568064877, -31648.01378822491, -4998.006522417846, 16961.39776246521, 6283.209476853547, 24881.961927647822, 5808.480776367281, 41038.11574436614, 47210.03588557671, 37506.33895472753, 49154.86117063298, 23449.43862550719, 26996.95104324234, -8495.54043955093, -2002.6939514510575, -0.132, 0.978, 0.28400000000000003, 192.0, 125.5, 112.0, 15.0, 72.0, 4.0, 112.0, 0.0, 0.0, 0.0, 1.7068831647083375E9, 0.0, 2024-02-02 15:12:44.708
138.0, 63137.19608035041, 65677.89652084072, -31648.796099280848, -4998.475909051408, 16955.27338448446, 6278.113279117737, 24870.383724019972, 5799.964761729809, 41017.708601678445, 47197.18363251491, 37492.70439060979, 49142.41124897137, 23440.140299813786, 26986.378668114983, -8510.538460080441, -2020.3071260818394, -0.132, 0.978, 0.28400000000000003, 192.0, 0.0, 0.0, 0.0, 0.0, 0.0, 0.0, 0.0, 0.0, 0.0, 1.7068831647173352E9, 0.0, 2024-02-02 15:12:44.717
140.0, 63136.72669371685, 65671.45921843758, -31643.409328867117, -5000.107586396645, 16957.776779863452, 6269.843133669274, 24872.976526376788, 5797.1037384395295, 41004.2304997719, 47199.55291742717, 37499.85694883549, 49148.69208916332, 23441.727273670112, 26987.183330915374, -8509.622038557773, -2017.9825446584875, -0.132, 0.978, 0.28400000000000003, 192.0, 0.0, 0.0, 0.0, 0.0, 0.0, 0.0, 0.0, 0.0, 0.0, 1.706883164724534E9, 0.0, 2024-02-02 15:12:44.724
142.0, 63093.029033306724, 65646.33585766982, -31644.281046900876, -5003.415644576031, 16953.97698330605, 6271.430107525601, 24866.69568618485, 5797.5731250730905, 40987.98078155289, 47196.155452269966, 37494.89486156641, 49140.28783324812, 23447.87400339532, 26984.165845413907, -8508.862079246293, -2017.1331783691858, -0.132, 0.978, 0.28400000000000003, 192.0, 0.0, 0.0, 0.0, 0.0, 0.0, 0.0, 0.0, 0.0, 0.0, 1.7068831647323508E9, 0.0, 2024-02-02 15:12:44.732
144.0, 63119.2476295528, 65666.34066895732, -31625.170305391588, -4978.26993206381, 16968.125637546258, 6292.507802546955, 24877.089247356565, 5814.560450859124, 40969.67470284399, 47187.66178937695, 37499.521672668656, 49139.349059980996, 23450.01977086303, 26985.86457799251, -8504.548192566419, -2009.5112335099261, -0.132, 0.978, 0.28400000000000003, 192.0, 0.0, 0.0, 0.0, 0.0, 0.0, 0.0, 0.0, 0.0, 0.0, 1.706883164741398E9, 0.0, 2024-02-02 15:12:44.741
146.0, 63122.30981854318, 65667.59236664682, -31618.129505888166, -4975.69948145145, 16972.350117248312, 6293.24541011398, 24886.16405560542, 5815.834500293076, 40963.77384230779, 47224.72098168385, 37521.42638223486, 49162.416060258874, 23467.387076304803, 27012.038470749674, -8477.1002503753, -1981.7280151519794, -0.128, 0.986, 0.28200000000000003, 192.0, 126.0, 0.0, 15.0, 104.0, 4.0, 104.0, 0.0, 0.0, 0.0, 1.7068831647493787E9, 0.0, 2024-02-02 15:12:44.749
148.0, 63106.06010032417, 65661.28917471041, -31613.234473852455, -4964.277740034788, 16978.11686731778, 6298.453366572066, 24897.608148766536, 5820.707180584333, 40933.01784193729, 47200.75991162776, 37521.64989967941, 49152.78245839864, 23460.659201223756, 26997.845113020554, -8474.485096274031, -1980.878648862678, -0.128, 0.986, 0.28200000000000003, 192.0, 0.0, 0.0, 0.0, 0.0, 0.0, 0.0, 0.0, 0.0, 0.0, 1.7068831647565818E9, 0.0, 2024-02-02 15:12:44.756
150.0, 63072.08544875211, 65633.93063949712, -31611.155761618113, -4966.132934824578, 16973.020669581972, 6294.273590358925, 24893.0260411532, 5809.4866048677695, 40865.314407982165, 47205.140853541, 37525.27088228117, 49157.319862523065, 23472.282108340518, 27010.764421315722, -8449.67465992864, -1958.3257387072729, -0.128, 0.986, 0.28200000000000003, 192.0, 0.0, 0.0, 0.0, 0.0, 0.0, 0.0, 0.0, 0.0, 0.0, 1.706883164764416E9, 0.0, 2024-02-02 15:12:44.764
152.0, 63062.74241956978, 65606.61680777273, -31610.39580230663, -4970.491524993364, 16964.482303200042, 6290.652607757164, 24880.084381113575, 5787.827764490577, 40787.19506111086, 47194.903754580475, 37503.500283181704, 49142.03126931564, 23454.78069243201, 26995.855807764034, -8459.688241444617, -1964.226599243474, -0.128, 0.986, 0.28200000000000003, 192.0, 0.0, 0.0, 0.0, 0.0, 0.0, 0.0, 0.0, 0.0, 0.0, 1.7068831647734125E9, 0.0, 2024-02-02 15:12:44.773
154.0, 63033.416930844425, 65551.00566756794, -31607.49007552744, -4975.878295407092, 16965.68929740063, 6290.67495950162, 24885.8734829275, 5779.289398108649, 40722.53146440166, 47184.420786430936, 37508.41766696187, 49144.244092016714, 23456.07709361042, 27001.130819455484, -8448.691183172607, -1948.9156542915887, -0.128, 0.986, 0.28200000000000003, 192.0, 0.0, 0.0, 0.0, 0.0, 0.0, 0.0, 0.0, 0.0, 0.0, 1.7068831647804546E9, 0.0, 2024-02-02 15:12:44.780
156.0, 63029.39361684247, 65505.184591434554, -31612.943901174534, -4986.160097856534, 16954.625183895252, 6278.873238429218, 24873.088285099064, 5758.23405483175, 40608.403457212866, 47171.45677464685, 37497.88999532342, 49132.5988331555, 23451.807910419455, 26996.638118819967, -8450.38991575121, -1945.6299478566586, -0.136, 0.98, 0.28400000000000003, 192.0, 125.5, 96.0, 15.0, 80.0, 4.0, 112.0, 0.0, 0.0, 0.0, 1.7068831647887733E9, 0.0, 2024-02-02 15:12:44.788
158.0, 63000.22459032829, 65439.58222145823, -31608.898235428125, -4984.84134493367, 16953.574651905856, 6283.231828598003, 24866.092189084553, 5748.600452971513, 40468.05685377799, 47142.01952719921, 37481.10383523749, 49115.030362013626, 23433.59123868838, 26980.321345367593, -8464.940901391614, -1956.7164131064908, -0.136, 0.98, 0.28400000000000003, 192.0, 0.0, 0.0, 0.0, 0.0, 0.0, 0.0, 0.0, 0.0, 0.0, 1.7068831647964833E9, 0.0, 2024-02-02 15:12:44.796
160.0, 63001.5209915067, 65388.866113289136, -31598.34821204522, -4978.649911719551, 16955.988640307027, 6293.066596158337, 24863.700552427836, 5747.795790171122, 40377.42053001172, 47150.781411025695, 37486.53530914013, 49131.324783721546, 23444.29772428247, 27000.90730201093, -8450.792247151405, -1937.4939128749268, -0.136, 0.98, 0.28400000000000003, 192.0, 0.0, 0.0, 0.0, 0.0, 0.0, 0.0, 0.0, 0.0, 0.0, 1.7068831648054757E9, 0.0, 2024-02-02 15:12:44.805
162.0, 63005.70076771984, 65326.281228814274, -31596.940052144535, -4988.283513579788, 16951.96532630507, 6285.399947810167, 24864.706380928325, 5733.580080697547, 40292.52860457046, 47153.508323849244, 37485.395370172904, 49133.22468200025, 23441.81668064793, 27003.254235178738, -8454.05560184188, -1939.9079012761, -0.136, 0.98, 0.28400000000000003, 192.0, 0.0, 0.0, 0.0, 0.0, 0.0, 0.0, 0.0, 0.0, 0.0, 1.7068831648127263E9, 0.0, 2024-02-02 15:12:44.812
164.0, 62989.74162217875, 65258.77896055925, -31588.178168318056, -4991.077481636701, 16954.580480406345, 6287.098680388771, 24856.503290713226, 5723.968830581764, 40202.58518488231, 47129.48019855979, 37481.57322187105, 49127.03324878612, 23438.061587579443, 26998.716831054313, -8452.915662874659, -1943.5959391112256, -0.136, 0.98, 0.28400000000000003, 192.0, 0.0, 0.0, 0.0, 0.0, 0.0, 0.0, 0.0, 0.0, 0.0, 1.706883164820486E9, 0.0, 2024-02-02 15:12:44.820
166.0, 62931.53767961713, 65180.726668921314, -31598.817598678783, -5005.337894599187, 16942.175262233646, 6273.665281971131, 24833.0116072907, 5699.6054291254795, 40159.06633842782, 47112.51522451821, 37469.41387288736, 49116.90790854787, 23439.290933524484, 26991.720735039802, -8460.850532156293, -1953.4754101604713, -0.14, 0.972, 0.28400000000000003, 192.0, 125.5, 80.0, 15.0, 48.0, 4.0, 112.0, 0.0, 0.0, 0.0, 1.7068831648296075E9, 0.0, 2024-02-02 15:12:44.829
168.0, 62974.63184292697, 65192.975424882825, -31587.887595640135, -4992.150365370556, 16952.12178851626, 6281.086061130293, 24848.613124920503, 5704.634571627924, 40131.86426542572, 47110.68238147288, 37469.65974207637, 49119.1430829934, 23436.385206745294, 26988.658546049424, -8459.688241444617, -1956.2470264729295, -0.14, 0.972, 0.28400000000000003, 192.0, 0.0, 0.0, 0.0, 0.0, 0.0, 0.0, 0.0, 0.0, 0.0, 1.7068831648365376E9, 0.0, 2024-02-02 15:12:44.836
170.0, 62978.5657499511, 65162.10766579005, -31581.740865914926, -4986.27185657881, 16953.5523001614, 6283.991787909483, 24852.457624966817, 5711.854185086988, 40103.87988136767, 47118.840768199065, 37487.22821321824, 49134.4987314342, 23444.11891032683, 26995.5205315972, -8454.837912897816, -1945.9652240234882, -0.14, 0.972, 0.28400000000000003, 192.0, 0.0, 0.0, 0.0, 0.0, 0.0, 0.0, 0.0, 0.0, 0.0, 1.7068831648446844E9, 0.0, 2024-02-02 15:12:44.844
172.0, 62962.18192126536, 65093.37605158998, -31587.798188662317, -4992.03860664828, 16949.417227437167, 6278.806183195852, 24849.842470865548, 5705.260420472672, 40010.15901686657, 47118.550195521144, 37482.89197479391, 49128.62022264245, 23438.799195146465, 26996.325194397592, -8451.172226807144, -1937.4045058971055, -0.14, 0.972, 0.28400000000000003, 192.0, 0.0, 0.0, 0.0, 0.0, 0.0, 0.0, 0.0, 0.0, 0.0, 1.706883164852542E9, 0.0, 2024-02-02 15:12:44.852
174.0, 62942.40062742241, 65035.57444042855, -31589.720438685472, -4997.850060206659, 16947.49497741401, 6278.113279117737, 24844.09807254053, 5699.27015295865, 39937.98523402038, 47103.88745115846, 37478.42162590285, 49121.89234756141, 23432.250134021062, 26988.569139071602, -8453.429752997132, -1939.326755920262, -0.14, 0.972, 0.28400000000000003, 192.0, 0.0, 0.0, 0.0, 0.0, 0.0, 0.0, 0.0, 0.0, 0.0, 1.7068831648617404E9, 0.0, 2024-02-02 15:12:44.861
176.0, 62928.27432492666, 65017.983617542224, -31596.02363062187, -5002.834499220193, 16935.87207029725, 6271.877142414706, 24828.317740955084, 5685.814402796555, 39905.441094093454, 47091.079901585574, 37465.07763446303, 49114.65038235788, 23421.767165871523, 26984.076438436085, -8459.62118621125, -1942.8806832886557, -0.136, 0.964, 0.28400000000000003, 192.0, 125.5, 96.0, 15.0, 16.0, 4.0, 112.0, 0.0, 0.0, 0.0, 1.7068831648686028E9, 0.0, 2024-02-02 15:12:44.868
178.0, 62959.47736018627, 64993.55316085258, -31586.14415957262, -4996.933638683991, 16944.83511982383, 6276.705119217053, 24839.068930038087, 5691.245876699195, 39910.24671915135, 47100.51233774571, 37470.17383219884, 49121.802940583584, 23418.727328625602, 26984.85874949202, -8460.224683311544, -1945.6970030900245, -0.136, 0.964, 0.28400000000000003, 192.0, 0.0, 0.0, 0.0, 0.0, 0.0, 0.0, 0.0, 0.0, 0.0, 1.706883164876886E9, 0.0, 2024-02-02 15:12:44.876
180.0, 62952.21304323829, 64957.38803832389, -31579.99742984741, -4997.291266595276, 16946.377390191246, 6274.380537793701, 24836.610238148005, 5686.328492919028, 39882.575259515674, 47098.09834934454, 37481.10383523749, 49132.93410932233, 23430.216125275627, 26989.597319316545, -8450.09934307329, -1939.6396803426362, -0.136, 0.964, 0.28400000000000003, 192.0, 0.0, 0.0, 0.0, 0.0, 0.0, 0.0, 0.0, 0.0, 0.0, 1.7068831648846636E9, 0.0, 2024-02-02 15:12:44.884
182.0, 62905.00615894869, 64917.870154126904, -31590.569804974773, -5010.3670371016315, 16936.78849181992, 6264.635177211187, 24819.24293270623, 5669.207056666262, 39850.63461668904, 47083.72617765977, 37464.45178561828, 49116.57263238104, 23421.007206560043, 26974.57694704258, -8465.67850895864, -1954.5929973832367, -0.136, 0.964, 0.28400000000000003, 192.0, 0.0, 0.0, 0.0, 0.0, 0.0, 0.0, 0.0, 0.0, 0.0, 1.7068831648916817E9, 0.0, 2024-02-02 15:12:44.891
184.0, 62936.90209828641, 64942.837052683484, -31580.690333925526, -4999.012350918335, 16947.517329158465, 6276.571008750321, 24829.81530783359, 5680.0029492381755, 39861.13993658304, 47085.04493058264, 37467.089291464006, 49120.66300161636, 23425.522258940015, 26987.831531504577, -8459.800000166893, -1947.6863083465469, -0.136, 0.964, 0.28400000000000003, 192.0, 0.0, 0.0, 0.0, 0.0, 0.0, 0.0, 0.0, 0.0, 0.0, 1.7068831649006839E9, 0.0, 2024-02-02 15:12:44.900
186.0, 62953.017706038685, 64981.48321884671, -31572.599002432707, -4989.602266502651, 16954.133445517236, 6287.322197833324, 24836.587886403548, 5692.586981366513, 39889.75016948583, 47099.93119238987, 37485.86475680647, 49138.25382450269, 23441.615514947836, 27005.77998230219, -8446.970098849548, -1935.6387180851364, -0.132, 0.972, 0.28800000000000003, 192.0, 125.5, 112.0, 15.0, 48.0, 4.5, 0.0, 0.0, 0.0, 0.0, 1.7068831649089413E9, 0.0, 2024-02-02 15:12:44.908
188.0, 62923.31223765758, 64944.89341317337, -31583.73017117145, -5000.196993374467, 16949.104303014792, 6282.33775881979, 24835.470299180783, 5690.418862154349, 39834.69782289241, 47097.80777666662, 37471.87256477744, 49129.26842323165, 23430.68551190919, 27002.91895901191, -8455.977851865036, -1942.903035033111, -0.132, 0.972, 0.28800000000000003, 192.0, 0.0, 0.0, 0.0, 0.0, 0.0, 0.0, 0.0, 0.0, 0.0, 1.7068831649166958E9, 0.0, 2024-02-02 15:12:44.916
190.0, 62921.72526380125, 64934.76807293512, -31584.020743849367, -5008.645952778573, 16942.35407618929, 6273.95585464905, 24824.115612997488, 5680.427632382826, 39798.37623815254, 47079.054663068615, 37463.110680950966, 49117.846681815, 23424.695244395167, 26991.027830961684, -8458.838875155316, -1950.904959548111, -0.132, 0.972, 0.28800000000000003, 192.0, 0.0, 0.0, 0.0, 0.0, 0.0, 0.0, 0.0, 0.0, 0.0, 1.7068831649236732E9, 0.0, 2024-02-02 15:12:44.923
192.0, 62931.69414182832, 64933.963410134726, -31586.322973528266, -5012.870432480626, 16942.26466921147, 6271.228941825502, 24825.613179875993, 5675.398489880382, 39802.71247657687, 47086.49779397223, 37468.832727531524, 49123.99341154021, 23425.030520562, 26991.34075538406, -8452.781552407927, -1945.8981687901223, -0.132, 0.972, 0.28800000000000003, 192.0, 0.0, 0.0, 0.0, 0.0, 0.0, 0.0, 0.0, 0.0, 0.0, 1.7068831649328647E9, 0.0, 2024-02-02 15:12:44.932
194.0, 62926.240316181225, 64937.874965414405, -31587.842892151224, -5009.4282638345085, 16947.02559078045, 6275.654587227654, 24835.00091254722, 5682.6404550839015, 39816.056468016686, 47063.09551752752, 37460.56258208306, 49111.56584162305, 23418.77203211451, 26977.90735696642, -8458.235378055022, -1952.9836717824546, -0.132, 0.972, 0.28800000000000003, 192.0, 0.0, 0.0, 0.0, 0.0, 0.0, 0.0, 0.0, 0.0, 0.0, 1.706883164941718E9, 0.0, 2024-02-02 15:12:44.941
196.0, 62938.1537959759, 64980.23152115721, -31582.165549059577, -5001.292228852776, 16950.199538493103, 6280.951950663562, 24845.193308018843, 5693.369292422449, 39862.83866916164, 47081.33454100306, 37472.00667524418, 49127.50263541969, 23425.611665917837, 26994.090019952062, -8449.965232606559, -1938.6338518421476, -0.138, 0.974, 0.28800000000000003, 192.0, 125.5, 88.0, 15.0, 56.0, 4.5, 0.0, 0.0, 0.0, 0.0, 1.706883164947708E9, 0.0, 2024-02-02 15:12:44.947
198.0, 62947.94386004733, 65029.315951981065, -31573.560127444285, -4987.903533924047, 16955.921585073662, 6288.8197647118295, 24849.82011912109, 5703.516984405159, 39898.33323935667, 47081.80392763662, 37467.022236230645, 49129.67075463185, 23417.92266582521, 26992.123066439995, -8453.653270441684, -1939.4832181314491, -0.138, 0.974, 0.28800000000000003, 192.0, 0.0, 0.0, 0.0, 0.0, 0.0, 0.0, 0.0, 0.0, 0.0, 1.7068831649566956E9, 0.0, 2024-02-02 15:12:44.956
200.0, 62976.08470631656, 65071.51604551269, -31570.073255309257, -4988.909362424536, 16956.21215775158, 6284.081194887304, 24848.456662709315, 5703.204059982784, 39946.88122831359, 47090.81168065211, 37478.93571602532, 49142.65711816039, 23420.180192015196, 26996.548711842148, -8454.346174519798, -1940.4666948874826, -0.138, 0.974, 0.28800000000000003, 192.0, 0.0, 0.0, 0.0, 0.0, 0.0, 0.0, 0.0, 0.0, 0.0, 1.7068831649651191E9, 0.0, 2024-02-02 15:12:44.965
202.0, 62973.73777314875, 65090.3138625996, -31576.555261201294, -4997.403025317553, 16950.668925126665, 6278.560314006843, 24844.075720796078, 5699.896001803399, 39969.88117335811, 47099.2159365673, 37481.55087012659, 49145.76401063967, 23420.783689115488, 26999.25327292124, -8456.558997220875, -1941.0701919877758, -0.138, 0.974, 0.28800000000000003, 192.0, 0.0, 0.0, 0.0, 0.0, 0.0, 0.0, 0.0, 0.0, 0.0, 1.7068831649727056E9, 0.0, 2024-02-02 15:12:44.972
204.0, 62983.840761642554, 65131.75399681974, -31572.77781638835, -4995.078443894201, 16956.033343795938, 6285.087023387793, 24844.746273129735, 5702.533507649125, 39980.34178976319, 47094.65618069842, 37479.539213125616, 49143.59589142751, 23414.279331478996, 26995.7216972973, -8460.045869355901, -1946.3005001903177, -0.138, 0.974, 0.28800000000000003, 192.0, 0.0, 0.0, 0.0, 0.0, 0.0, 0.0, 0.0, 0.0, 0.0, 1.70688316497976E9, 0.0, 2024-02-02 15:12:44.979
206.0, 62974.43067722687, 65161.66063090094, -31588.82636890726, -5015.127958670611, 16943.426959923145, 6268.323215046313, 24829.81530783359, 5684.965036507254, 40007.27564183183, 47099.14888133394, 37472.43135838883, 49141.09249604851, 23410.323072710406, 26991.698383295345, -8469.277139815944, -1957.7669450958904, -0.138, 0.964, 0.28400000000000003, 192.0, 125.5, 88.0, 15.0, 16.0, 4.0, 112.0, 0.0, 0.0, 0.0, 1.7068831649887533E9, 0.0, 2024-02-02 15:12:44.988
208.0, 63004.046738630146, 65227.441814832906, -31570.609697176184, -4989.870487436115, 16962.940032832626, 6291.501974046466, 24856.83856688006, 5708.389664696416, 40065.747805326915, 47107.39667503795, 37477.54990786909, 49149.429696730345, 23411.977101800097, 27000.23674967727, -8461.945767634603, -1953.6542241161137, -0.138, 0.964, 0.28400000000000003, 192.0, 0.0, 0.0, 0.0, 0.0, 0.0, 0.0, 0.0, 0.0, 0.0, 1.7068831649970229E9, 0.0, 2024-02-02 15:12:44.997
210.0, 63017.16721262541, 65280.706021869904, -31569.49210995342, -4987.724719968405, 16964.012916566484, 6291.747843235475, 24853.128177300478, 5713.754083365689, 40160.6309605397, 47118.192567609854, 37492.61498363197, 49168.227513817255, 23420.06843329292, 27011.09969748255, -8455.597872209295, -1947.8874740466447, -0.138, 0.964, 0.28400000000000003, 192.0, 0.0, 0.0, 0.0, 0.0, 0.0, 0.0, 0.0, 0.0, 0.0, 1.7068831650037608E9, 0.0, 2024-02-02 15:12:45.003
212.0, 63016.94369518086, 65314.904190886526, -31584.646592694116, -5002.342760842176, 16962.135370032236, 6285.5340582768995, 24859.29725877014, 5721.130159035941, 40273.507270038994, 47124.428704312886, 37484.45659690578, 49158.34804276801, 23414.860476834834, 27003.58951134557, -8468.226607826544, -1966.193552755541, -0.138, 0.964, 0.28400000000000003, 192.0, 0.0, 0.0, 0.0, 0.0, 0.0, 0.0, 0.0, 0.0, 0.0, 1.706883165012794E9, 0.0, 2024-02-02 15:12:45.012
214.0, 63049.17491068541, 65373.979851481905, -31577.67284842406, -4988.75290021335, 16976.17226555017, 6300.889706717695, 24872.238918809762, 5746.454685503803, 40406.12016989233, 47127.20032062535, 37490.55862314208, 49160.046775346615, 23415.95571231314, 27008.529246870192, -8464.225645569044, -1970.48508769096, -0.138, 0.964, 0.28400000000000003, 192.0, 0.0, 0.0, 0.0, 0.0, 0.0, 0.0, 0.0, 0.0, 0.0, 1.7068831650210025E9, 0.0, 2024-02-02 15:12:45.021
216.0, 63043.45286410485, 65394.878732547615, -31592.71557244248, -4999.057054407246, 16968.483265457544, 6286.249314099469, 24860.325439015083, 5739.27977553365, 40535.15679063282, 47134.285823617676, 37489.35162894149, 49158.59391195702, 23410.34542445486, 27005.064726479617, -8474.77566895195, -1991.3616170122168, -0.138, 0.968, 0.28200000000000003, 192.0, 125.5, 88.0, 15.0, 32.0, 4.0, 104.0, 0.0, 0.0, 0.0, 1.706883165027806E9, 0.0, 2024-02-02 15:12:45.027
218.0, 63048.21378567383, 65412.7377763674, -31598.996412634424, -5001.292228852776, 16967.4550852126, 6284.416471054134, 24867.455645496328, 5746.119409336974, 40642.60162622948, 47145.95343422335, 37491.56445164257, 49159.1527055684, 23411.932398311186, 27007.948101514354, -8475.937959663624, -1994.4461577470493, -0.138, 0.968, 0.28200000000000003, 192.0, 0.0, 0.0, 0.0, 0.0, 0.0, 0.0, 0.0, 0.0, 0.0, 1.7068831650358655E9, 0.0, 2024-02-02 15:12:45.035
220.0, 63060.0825619796, 65436.2965150233, -31593.140255587132, -4993.849097949159, 16974.83116088285, 6291.926657191117, 24869.10967458602, 5755.730659452755, 40743.7656216342, 47147.45100110186, 37496.034800533635, 49155.509371222186, 23414.9275320682, 27011.434973649382, -8476.228532341544, -1992.255686790429, -0.138, 0.968, 0.28200000000000003, 192.0, 0.0, 0.0, 0.0, 0.0, 0.0, 0.0, 0.0, 0.0, 0.0, 1.7068831650448515E9, 0.0, 2024-02-02 15:12:45.044
222.0, 63059.61317534604, 65446.734779683924, -31605.858398182205, -5004.935563198992, 16971.4560474701, 6287.5904187667875, 24882.140741603464, 5761.2962438221275, 40822.309651650154, 47152.54719883767, 37490.37980918644, 49151.01667058667, 23411.083032021885, 27009.31155792613, -8478.843686442815, -1992.456852490527, -0.138, 0.968, 0.28200000000000003, 192.0, 0.0, 0.0, 0.0, 0.0, 0.0, 0.0, 0.0, 0.0, 0.0, 1.7068831650531597E9, 0.0, 2024-02-02 15:12:45.053
224.0, 63058.853216034564, 65453.37324778715, -31610.68637498455, -5008.0201039338235, 16971.67956491465, 6288.596247267276, 24880.084381113575, 5762.838514189543, 40886.43680649243, 47138.823227742105, 37489.68690510833, 49143.752353638694, 23409.29489246546, 27006.070554980106, -8474.954482907591, -1995.2508205474403, -0.138, 0.968, 0.28200000000000003, 192.0, 0.0, 0.0, 0.0, 0.0, 0.0, 0.0, 0.0, 0.0, 0.0, 1.7068831650598874E9, 0.0, 2024-02-02 15:12:45.059
226.0, 63062.630660847506, 65467.499550282904, -31611.87101744068, -5004.935563198992, 16970.137294547236, 6286.986921666494, 24877.804503179133, 5763.486714778747, 40959.01292073881, 47148.81445751363, 37494.22430923275, 49147.038060073624, 23411.083032021885, 27010.473848637805, -8474.216875340566, -1992.8591838907223, -0.137, 0.972, 0.281, 192.0, 125.5, 96.0, 15.0, 64.0, 4.0, 96.0, 0.0, 0.0, 0.0, 1.7068831650679634E9, 0.0, 2024-02-02 15:12:45.067
228.0, 63050.62777407501, 65468.19245436102, -31622.577503034772, -5015.865566237637, 16960.481340942544, 6276.168677350125, 24867.813273407613, 5754.814237930088, 41001.414179970525, 47143.87472198901, 37488.055227763085, 49142.16537978237, 23402.187037728672, 26999.476790365792, -8489.304302847899, -2006.583154986281, -0.137, 0.972, 0.281, 192.0, 0.0, 0.0, 0.0, 0.0, 0.0, 0.0, 0.0, 0.0, 0.0, 1.7068831650768795E9, 0.0, 2024-02-02 15:12:45.076
230.0, 63068.24094870579, 65492.80172500631, -31607.847703438725, -5000.50991779684, 16977.178094050658, 6288.417433311633, 24887.84043643957, 5775.131973639962, 41049.872761949635, 47145.08171618959, 37495.56541390007, 49144.26644376117, 23407.9761395426, 27005.86938928001, -8479.648349243207, -1995.384931014172, -0.137, 0.972, 0.281, 192.0, 0.0, 0.0, 0.0, 0.0, 0.0, 0.0, 0.0, 0.0, 0.0, 1.7068831650841415E9, 0.0, 2024-02-02 15:12:45.084
232.0, 63053.51114910974, 65496.13213493016, -31628.97010194899, -5016.80433950476, 16962.31418398788, 6268.770249935419, 24870.428427508883, 5758.546979254124, 41086.37316064515, 47151.831943015095, 37492.27970746514, 49138.47734194724, 23406.50092440855, 27002.226054933795, -8485.973892924058, -2003.96800088501, -0.137, 0.972, 0.281, 192.0, 0.0, 0.0, 0.0, 0.0, 0.0, 0.0, 0.0, 0.0, 0.0, 1.7068831650919087E9, 0.0, 2024-02-02 15:12:45.091
234.0, 63060.61900384653, 65512.42655663807, -31629.663006027105, -5008.7800632453045, 16972.350117248312, 6278.426203540112, 24880.48671251377, 5768.806429959111, 41084.16033794407, 47143.89707373346, 37482.37788467144, 49129.0449057871, 23395.14623822525, 26994.96173798582, -8494.601666283806, -2013.288678322873, -0.137, 0.972, 0.281, 192.0, 0.0, 0.0, 0.0, 0.0, 0.0, 0.0, 0.0, 0.0, 0.0, 1.7068831651009655E9, 0.0, 2024-02-02 15:12:45.100
236.0, 63041.21768965932, 65494.25458839591, -31652.327674904787, -5031.310621656254, 16950.35600070429, 6260.164828320126, 24854.96102034581, 5752.266139062183, 41085.99318098941, 47150.5802453256, 37474.644181089905, 49127.122655763946, 23390.161799211717, 26994.760572285722, -8506.179869911655, -2018.9883731589764, -0.1405, 0.978, 0.2805, 192.0, 125.5, 64.0, 15.0, 96.0, 4.0, 96.0, 0.0, 0.0, 0.0, 1.7068831651089382E9, 0.0, 2024-02-02 15:12:45.108
238.0, 63035.58505005659, 65491.214751149986, -31650.405424881632, -5030.595365833684, 16956.659192640687, 6268.546732490866, 24871.098979842543, 5766.258331091205, 41075.13023318413, 47137.795047497166, 37459.17677392683, 49108.81657705505, 23378.9188717507, 26980.813083745612, -8520.239117174044, -2030.0524866643534, -0.1405, 0.978, 0.2805, 192.0, 0.0, 0.0, 0.0, 0.0, 0.0, 0.0, 0.0, 0.0, 0.0, 1.7068831651162083E9, 0.0, 2024-02-02 15:12:45.116
240.0, 63061.513073624745, 65516.49457412894, -31645.80096552384, -5030.729476300416, 16956.368619962766, 6268.367918535223, 24870.361372275518, 5769.320520081583, 41086.82019553425, 47141.75130626575, 37470.151480454384, 49114.404513168876, 23383.165703197206, 26989.19498791635, -8513.131262437257, -2024.6657162506244, -0.1405, 0.978, 0.2805, 192.0, 0.0, 0.0, 0.0, 0.0, 0.0, 0.0, 0.0, 0.0, 0.0, 1.706883165123964E9, 0.0, 2024-02-02 15:12:45.123
242.0, 63072.711297596856, 65526.06112075581, -31635.74268051895, -5023.979249474914, 16960.995431065017, 6269.329043546802, 24876.195177578353, 5775.064918406596, 41090.910564769576, 47155.36351863903, 37478.622791602946, 49122.62995512843, 23390.9217585232, 26993.73239204078, -8507.275105389966, -2020.9106231821327, -0.1405, 0.978, 0.2805, 192.0, 0.0, 0.0, 0.0, 0.0, 0.0, 0.0, 0.0, 0.0, 0.0, 1.7068831651330028E9, 0.0, 2024-02-02 15:12:45.133
244.0, 63072.979518530316, 65528.20688822352, -31635.653273541127, -5021.453502351464, 16960.503692686998, 6272.52534300391, 24876.418695022905, 5776.271912607183, 41077.99125647441, 47151.94370173737, 37477.46050089127, 49122.20527198378, 23390.63118584528, 26991.18429317287, -8504.816413499882, -2022.7881697163787, -0.1405, 0.978, 0.2805, 192.0, 0.0, 0.0, 0.0, 0.0, 0.0, 0.0, 0.0, 0.0, 0.0, 1.706883165140258E9, 0.0, 2024-02-02 15:12:45.140
246.0, 63054.04759097667, 65523.580077121274, -31643.565791078305, -5027.37671463212, 16956.234509496036, 6270.133706347193, 24862.694723927347, 5768.337043325549, 41077.2983523963, 47166.96407401134, 37476.99111425771, 49130.4977691767, 23396.219121959108, 27007.25519743624, -8500.524878564464, -2014.6968382235575, -0.14025, 0.979, 0.27725, 192.0, 125.5, 80.0, 15.0, 80.0, 4.0, 72.0, 0.0, 0.0, 0.0, 1.7068831651479988E9, 0.0, 2024-02-02 15:12:45.147
248.0, 63092.2914257397, 65556.99593508196, -31633.46280258451, -5008.645952778573, 16969.377335235757, 6281.7789652084075, 24877.871558412502, 5778.842363219544, 41070.771643015345, 47172.84258280308, 37480.52268988165, 49134.90106283439, 23396.64380510376, 27008.283377681182, -8499.63080878625, -2010.5394137548703, -0.14025, 0.979, 0.27725, 192.0, 0.0, 0.0, 0.0, 0.0, 0.0, 0.0, 0.0, 0.0, 0.0, 1.7068831651560347E9, 0.0, 2024-02-02 15:12:45.156
250.0, 63087.57520765963, 65560.05812407233, -31629.394785093642, -5009.025932434312, 16978.608605695797, 6282.941255920084, 24897.027003410698, 5786.017273189696, 41062.27798012233, 47173.96017002585, 37489.35162894149, 49141.20425477079, 23399.05779350493, 27008.573950359103, -8492.96998893857, -2005.0408846188648, -0.14025, 0.979, 0.27725, 192.0, 0.0, 0.0, 0.0, 0.0, 0.0, 0.0, 0.0, 0.0, 0.0, 1.7068831651639957E9, 0.0, 2024-02-02 15:12:45.163
252.0, 63061.40131490247, 65536.27586797188, -31642.157631177623, -5026.840272765193, 16965.68929740063, 6267.205627823548, 24880.777285191692, 5770.460459048803, 41045.71533748094, 47177.134117738504, 37482.22142246025, 49134.96811806776, 23400.91298829472, 27002.427220633894, -8495.965122695581, -2008.1030736092418, -0.14025, 0.979, 0.27725, 192.0, 0.0, 0.0, 0.0, 0.0, 0.0, 0.0, 0.0, 0.0, 0.0, 1.7068831651720629E9, 0.0, 2024-02-02 15:12:45.172
254.0, 63040.748303025764, 65530.91144930261, -31639.20720090952, -5024.269822152833, 16970.27140501397, 6274.402889538156, 24880.844340425057, 5772.494467794236, 41013.662935932036, 47159.54329485218, 37479.33804742552, 49125.06629527406, 23391.72642132359, 26993.955909485332, -8498.423814585663, -2012.640477733669, -0.14025, 0.979, 0.27725, 192.0, 0.0, 0.0, 0.0, 0.0, 0.0, 0.0, 0.0, 0.0, 0.0, 1.7068831651800823E9, 0.0, 2024-02-02 15:12:45.180
0.0, 63083.86481808005, 65581.51579874943, -31628.143087404143, -5013.56333655874, 16977.915701617683, 6284.237657098492, 24888.89096842897, 5781.010482431708, 40981.67758961649, 47157.19636168437, 37477.147576468895, 49124.68631561832, 23399.571883627403, 26998.24744442075, -8490.600704026307, -2000.2352595609736, -0.136125, 0.9784999999999999, 0.272625, 192.0, 125.5, 112.0, 15.0, 72.0, 4.0, 48.0, 0.0, 0.0, 0.0, 1.7068831651890552E9, 0.0, 2024-02-02 15:12:45.189
2.0, 63063.81530330364, 65552.97262108, -31628.835991482258, -5010.121167912623, 16972.55128294841, 6286.137555377192, 24883.951232904343, 5777.52361029668, 40936.50471407232, 47179.07871950611, 37499.454617435294, 49145.18286528384, 23402.745831340057, 27006.6740520804, -8477.256712586488, -1983.5608581973147, -0.136125, 0.9784999999999999, 0.272625, 192.0, 0.0, 0.0, 0.0, 0.0, 0.0, 0.0, 0.0, 0.0, 0.0, 1.70688316519604E9, 0.0, 2024-02-02 15:12:45.196
4.0, 63021.05641616064, 65512.91829501609, -31625.617340280696, -5010.679961524005, 16966.672774156665, 6285.914037932639, 24873.982354877277, 5765.654833990912, 40774.007531882235, 47156.034070972695, 37484.70246609479, 49124.86512957396, 23399.01309001602, 27005.511761368725, -8477.770802708961, -1975.6706924045914, -0.136125, 0.9784999999999999, 0.272625, 192.0, 0.0, 0.0, 0.0, 0.0, 0.0, 0.0, 0.0, 0.0, 0.0, 1.706883165204288E9, 0.0, 2024-02-02 15:12:45.204
