%OpenBCI Raw EXG Data
%Number of channels = 16
%Sample Rate = 125 Hz
%Board = OpenBCI_GUI$BoardCytonSerialDaisy
Sample Index, EXG Channel 0, EXG Channel 1, EXG Channel 2, EXG Channel 3, EXG Channel 4, EXG Channel 5, EXG Channel 6, EXG Channel 7, EXG Channel 8, EXG Channel 9, EXG Channel 10, EXG Channel 11, EXG Channel 12, EXG Channel 13, EXG Channel 14, EXG Channel 15, Accel Channel 0, Accel Channel 1, Accel Channel 2, Other, Other, Other, Other, Other, Other, Other, Analog Channel 0, Analog Channel 1, Analog Channel 2, Timestamp, Other, Timestamp (Formatted)
90.0, 60966.90874897347, 64074.2706148947, -25267.440112524047, -1301.7208935881727, 16884.686575494597, 7953.689450465376, 28016.794087504637, 4693.173431536368, 35579.551527446696, 45542.19341781061, 36465.37351195497, 45489.2868386849, 23748.974352952762, 25358.903450835165, -5018.167795916534, 323.00505912364235, 0.0, 0.0, 0.0, 192.0, 0.0, 0.0, 0.0, 0.0, 0.0, 0.0, 0.0, 0.0, 0.0, 1.706882853704085E9, 0.0, 2024-02-02 15:07:33.704
92.0, 60964.651222783476, 64066.29104212416, -25291.065906413307, -1294.3224661734662, 16873.980089900506, 7946.559243984133, 28015.520038070685, 4692.368768735978, 35568.46506219686, 45514.16433026366, 36498.31998328209, 45492.125510230726, 23781.116161479495, 25342.027883771407, -4998.431205562497, 335.8126086965333, 0.0, 0.0, 0.0, 192.0, 0.0, 0.0, 0.0, 0.0, 0.0, 0.0, 0.0, 0.0, 0.0, 1.7068828537041173E9, 0.0, 2024-02-02 15:07:33.704
0.0, 30625.48853462798, 32251.935571662852, -14585.586140821713, -361.80768749805543, 8338.74295219695, 3911.287058745272, 13821.938791506147, 2285.5105740440576, 17777.772876950847, 22750.812500812113, 18229.7027980927, 22738.429634383876, 11839.942555420705, 12666.778286311423, -2507.038713340606, 158.58562691040362, -0.05, 0.496, 0.133, 192.0, 126.0, 112.0, 15.5, 0.0, 4.0, 40.0, 0.0, 0.0, 0.0, 1.7068828538030727E9, 0.0, 2024-02-02 15:07:33.803
2.0, 61250.77590355586, 64502.552390402845, -29174.837967734096, -727.3928198090578, 16676.033041004306, 7820.964791889763, 27635.965065475117, 4566.819020130518, 37252.110213292865, 46144.68468960341, 36725.346651714644, 45717.431094340216, 23907.4929246298, 25778.892729150382, -5510.755540222591, -287.7787098620784, -0.05, 0.496, 0.133, 192.0, 0.0, 0.0, 0.0, 0.0, 0.0, 0.0, 0.0, 0.0, 0.0, 1.7068828538098493E9, 0.0, 2024-02-02 15:07:33.809
4.0, 61244.919746508574, 64499.04316652336, -29175.016781689737, -726.5434535197561, 16680.659852106553, 7821.3224198010475, 27652.99709475006, 4572.697528922264, 37241.627245143325, 46131.83243654161, 36719.35638420062, 45708.400989580274, 23902.50848561627, 25772.857758147453, -5513.035418157032, -292.4949279421482, -0.05, 0.496, 0.133, 192.0, 0.0, 0.0, 0.0, 0.0, 0.0, 0.0, 0.0, 0.0, 0.0, 1.7068828538171692E9, 0.0, 2024-02-02 15:07:33.817
6.0, 61238.23657491644, 64492.76232633142, -29178.168377657938, -728.4880552873678, 16678.49173289439, 7817.410864521368, 27653.444129639167, 4569.277712020602, 37236.93337880771, 46133.8887970315, 36717.389430688556, 45709.183300636214, 23904.96717750635, 25775.607022715452, -5505.32406631995, -286.86228833941084, -0.05, 0.496, 0.133, 192.0, 0.0, 0.0, 0.0, 0.0, 0.0, 0.0, 0.0, 0.0, 0.0, 1.7068828538248234E9, 0.0, 2024-02-02 15:07:33.824
8.0, 61239.398865628114, 64495.64570136616, -29172.759255499754, -723.6377267405661, 16684.884331808607, 7822.574117490544, 27659.99319076457, 4574.396261500867, 37234.005300284065, 46130.2901661742, 36714.371945187086, 45705.115283145344, 23905.34715716209, 25771.583708713497, -5506.70987447618, -291.31028548601694, -0.098, 0.986, 0.272, 192.0, 126.0, 120.0, 15.0, 104.0, 4.0, 64.0, 0.0, 0.0, 0.0, 1.7068828538328683E9, 0.0, 2024-02-02 15:07:33.832
10.0, 61236.73900803793, 64494.796335076855, -29175.217947389836, -721.8719389285969, 16681.06218350675, 7823.155262846382, 27647.677379569697, 4571.33407251049, 37232.954768294665, 46126.55742485016, 36718.37290744459, 45708.289230858, 23910.465706642357, 25774.62354595942, -5505.3687698088615, -286.1023290279304, -0.098, 0.986, 0.272, 192.0, 0.0, 0.0, 0.0, 0.0, 0.0, 0.0, 0.0, 0.0, 0.0, 1.7068828538421464E9, 0.0, 2024-02-02 15:07:33.842
12.0, 61230.368760868165, 64491.44357340856, -29185.67856379492, -728.4210000540019, 16677.038869504795, 7821.814158179064, 27653.444129639167, 4572.76458415563, 37225.9363205357, 46132.39123015299, 36709.27574745128, 45702.81305346645, 23905.503619373278, 25772.366019769433, -5513.907136190789, -286.3258464724835, -0.098, 0.986, 0.272, 192.0, 0.0, 0.0, 0.0, 0.0, 0.0, 0.0, 0.0, 0.0, 0.0, 1.7068828538488824E9, 0.0, 2024-02-02 15:07:33.848
14.0, 61240.33763889523, 64498.43966942307, -29177.25195613527, -718.2956598157477, 16688.102983010172, 7836.186329863826, 27667.391618179277, 4585.482726750699, 37226.56216938045, 46130.401924896476, 36714.573110887184, 45706.299925601474, 23910.376299664535, 25778.11041809445, -5510.353208822395, -280.24617198063993, -0.098, 0.986, 0.272, 192.0, 0.0, 0.0, 0.0, 0.0, 0.0, 0.0, 0.0, 0.0, 0.0, 1.706882853856915E9, 0.0, 2024-02-02 15:07:33.856
16.0, 61226.59131605522, 64486.83911405077, -29182.795188760185, -723.4365610404684, 16674.379011914614, 7825.770416947654, 27647.69973131415, 4568.875380620406, 37230.00433802656, 46140.4378581569, 36717.724706855384, 45709.250355869575, 23914.332558433125, 25785.53119725361, -5510.397912311306, -279.5085644136148, -0.098, 0.986, 0.272, 192.0, 0.0, 0.0, 0.0, 0.0, 0.0, 0.0, 0.0, 0.0, 0.0, 1.7068828538649049E9, 0.0, 2024-02-02 15:07:33.864
18.0, 61222.612705542175, 64482.3687651597, -29180.023572447728, -720.7990551947422, 16672.747334569376, 7825.1445681029045, 27638.75903353203, 4564.248569518158, 37219.45431464366, 46132.637099342006, 36711.019183518794, 45698.499166786576, 23904.028404239227, 25773.95299362576, -5523.563089795482, -295.17713727678506, -0.1, 0.99, 0.268, 192.0, 126.0, 112.0, 15.0, 120.0, 4.0, 48.0, 0.0, 0.0, 0.0, 1.7068828538732276E9, 0.0, 2024-02-02 15:07:33.873
20.0, 61218.32117060676, 64476.24438717895, -29178.973040458328, -722.609546495622, 16670.847436290675, 7820.02601862264, 27638.2225916651, 4564.4944387071655, 37224.39405016828, 46127.94323300639, 36721.88213132407, 45707.48456805761, 23912.522067132246, 25778.91508089484, -5513.61656351287, -286.4823086836706, -0.1, 0.99, 0.268, 192.0, 0.0, 0.0, 0.0, 0.0, 0.0, 0.0, 0.0, 0.0, 0.0, 1.7068828538819268E9, 0.0, 2024-02-02 15:07:33.881
22.0, 61194.33774880621, 64452.149206656126, -29193.479322609823, -740.803866482242, 16662.35377339766, 7801.541125958101, 27630.51123982802, 4549.80934260003, 37208.54666334947, 46115.64977355597, 36704.581881115664, 45693.71589347314, 23900.25095942628, 25760.34078125248, -5528.23460438664, -305.0119048371202, -0.1, 0.99, 0.268, 192.0, 0.0, 0.0, 0.0, 0.0, 0.0, 0.0, 0.0, 0.0, 0.0, 1.7068828538889277E9, 0.0, 2024-02-02 15:07:33.888
24.0, 61179.74205967689, 64431.4067878016, -29189.25484290777, -736.7582007358315, 16670.467456634935, 7809.811271406565, 27633.394614862755, 4555.66549964732, 37200.50003534556, 46096.270811113216, 36700.64797409153, 45686.96566664764, 23900.02744198173, 25756.496281206168, -5529.419246842772, -309.1916810502626, -0.1, 0.99, 0.268, 192.0, 0.0, 0.0, 0.0, 0.0, 0.0, 0.0, 0.0, 0.0, 0.0, 1.7068828538969386E9, 0.0, 2024-02-02 15:07:33.896
26.0, 61158.8878821001, 64410.70907243599, -29190.48418885281, -738.5239885478006, 16667.53937811129, 7809.610105706466, 27627.00201594854, 4557.52069443711, 37196.946107977165, 46096.94136344688, 36699.73155256886, 45683.83642242389, 23906.934131018417, 25761.81599638653, -5522.71372350618, -301.36857049090514, -0.1, 0.99, 0.268, 192.0, 0.0, 0.0, 0.0, 0.0, 0.0, 0.0, 0.0, 0.0, 0.0, 1.7068828539059792E9, 0.0, 2024-02-02 15:07:33.905
28.0, 61133.80922482124, 64380.66832788805, -29191.57942433112, -738.3675263366135, 16668.29933742277, 7808.40311150588, 27639.027254465494, 4558.124191537403, 37181.232831625086, 46088.090072642575, 36690.09795070862, 45671.2300385511, 23898.663985569954, 25753.23292651569, -5529.821578242967, -307.403541493838, -0.106, 0.984, 0.274, 192.0, 126.0, 88.0, 15.0, 96.0, 4.0, 72.0, 0.0, 0.0, 0.0, 1.7068828539129906E9, 0.0, 2024-02-02 15:07:33.912
30.0, 61118.29711416926, 64359.41181891106, -29187.533758584712, -733.673660000999, 16671.5850438577, 7814.862765653464, 27643.452899867643, 4565.030880574093, 37176.65072401175, 46075.81896493661, 36692.73545655435, 45668.72664317211, 23904.87777052853, 25758.61969692942, -5518.712761248679, -296.45118671073755, -0.106, 0.984, 0.274, 192.0, 0.0, 0.0, 0.0, 0.0, 0.0, 0.0, 0.0, 0.0, 0.0, 1.7068828539209747E9, 0.0, 2024-02-02 15:07:33.920
32.0, 61092.100869667636, 64329.952219718965, -29195.647441821988, -737.8310844696862, 16663.91839550953, 7815.086283098017, 27630.779460761485, 4558.079488048493, 37166.68184598468, 46079.32818881609, 36683.92886923896, 45661.81995413542, 23900.80975303766, 25761.704237664253, -5524.367752595872, -296.49589019964816, -0.106, 0.984, 0.274, 192.0, 0.0, 0.0, 0.0, 0.0, 0.0, 0.0, 0.0, 0.0, 0.0, 1.7068828539291568E9, 0.0, 2024-02-02 15:07:33.929
34.0, 61073.19129385845, 64307.220495607915, -29199.558997101667, -741.4520670714459, 16664.410133887548, 7817.544974988101, 27624.297454869447, 4555.441982202767, 37155.1706975902, 46062.47497349679, 36677.804491258205, 45652.007538319536, 23899.20042743688, 25761.212499286237, -5525.217118885174, -299.8263001234889, -0.106, 0.984, 0.274, 192.0, 0.0, 0.0, 0.0, 0.0, 0.0, 0.0, 0.0, 0.0, 0.0, 1.7068828539380074E9, 0.0, 2024-02-02 15:07:33.938
36.0, 61054.4605320049, 64285.561655230726, -29211.606587363076, -754.4607823444346, 16658.64338381808, 7806.97259986074, 27616.340233843355, 4545.338993708968, 37145.514743985506, 46061.78206941868, 36666.06982541917, 45642.32923297039, 23899.468648370344, 25761.301906264056, -5527.698162519713, -303.2014135362403, -0.106, 0.984, 0.274, 192.0, 0.0, 0.0, 0.0, 0.0, 0.0, 0.0, 0.0, 0.0, 0.0, 1.7068828539450407E9, 0.0, 2024-02-02 15:07:33.945
38.0, 61046.27979353426, 64274.60930044762, -29213.5958926196, -754.416078855524, 16663.046677475773, 7805.586791704512, 27637.41792886471, 4552.603310656942, 37126.02402282048, 46043.78891513216, 36646.556752509685, 45619.70926758162, 23887.152837175472, 25742.817013599517, -5540.684526048247, -316.12072183140776, -0.108, 0.982, 0.274, 192.0, 126.0, 80.0, 15.0, 88.0, 4.0, 72.0, 0.0, 0.0, 0.0, 1.7068828539533617E9, 0.0, 2024-02-02 15:07:33.953
40.0, 61047.82206390167, 64272.8211608912, -29208.96908151735, -746.0788781736944, 16664.6336513321, 7807.173765560838, 27635.070995696904, 4553.229159501691, 37130.15909554471, 46044.057136065625, 36658.62669451555, 45627.30886069642, 23896.942901246894, 25751.33302823699, -5527.765217753079, -305.0119048371202, -0.108, 0.982, 0.274, 192.0, 0.0, 0.0, 0.0, 0.0, 0.0, 0.0, 0.0, 0.0, 0.0, 1.706882853961014E9, 0.0, 2024-02-02 15:07:33.961
42.0, 61036.579136440654, 64263.9698700869, -29216.054584509682, -755.4889625893787, 16655.33532563869, 7795.662617166355, 27619.871809467295, 4541.740362851663, 37123.99001407505, 46044.1688947879, 36652.74818572381, 45625.63247986227, 23892.852532011573, 25744.359283966936, -5537.510578335593, -314.6678584418128, -0.108, 0.982, 0.274, 192.0, 0.0, 0.0, 0.0, 0.0, 0.0, 0.0, 0.0, 0.0, 0.0, 1.7068828539690528E9, 0.0, 2024-02-02 15:07:33.969
44.0, 61041.78709289874, 64269.42369573399, -29218.043889766206, -756.3383288786804, 16655.737657038888, 7797.338998000503, 27628.030196193482, 4547.28359547658, 37117.64211864974, 46029.46144693631, 36654.35751132459, 45625.02898276198, 23888.896273242986, 25737.966685052717, -5538.561110324992, -319.0040968661424, -0.108, 0.982, 0.274, 192.0, 0.0, 0.0, 0.0, 0.0, 0.0, 0.0, 0.0, 0.0, 0.0, 1.7068828539772377E9, 0.0, 2024-02-02 15:07:33.977
46.0, 61045.251613289314, 64275.078687081186, -29217.038061265717, -752.4714770879123, 16657.168168684027, 7801.228201535726, 27629.41600434971, 4550.502246678144, 37118.5585401724, 46041.28551975316, 36655.653912502996, 45628.4711514081, 23892.070220955637, 25740.89476357636, -5535.208348656696, -316.1877770647737, -0.108, 0.982, 0.274, 192.0, 0.0, 0.0, 0.0, 0.0, 0.0, 0.0, 0.0, 0.0, 0.0, 1.7068828539853158E9, 0.0, 2024-02-02 15:07:33.985
48.0, 61059.69084020744, 64291.90955065603, -29213.17120947495, -746.5482648072559, 16662.15260769756, 7809.520698728646, 27633.774594518494, 4556.3360519809785, 37116.16690351569, 46049.645072179446, 36656.1009473921, 45630.99689853155, 23892.360793633557, 25744.76161536713, -5532.995525955621, -313.0138293521201, -0.108, 0.98, 0.272, 192.0, 126.0, 80.0, 15.0, 80.0, 4.0, 64.0, 0.0, 0.0, 0.0, 1.7068828539941144E9, 0.0, 2024-02-02 15:07:33.994
50.0, 61066.731639710866, 64301.073765882706, -29222.268369468256, -759.1099451911384, 16654.10597969365, 7794.3215124990365, 27626.689091526165, 4542.969708796705, 37121.19604601813, 46057.24466529425, 36661.62182827256, 45637.36714570131, 23894.81948552364, 25749.76840612512, -5531.386200354838, -314.3102305305279, -0.108, 0.98, 0.272, 192.0, 0.0, 0.0, 0.0, 0.0, 0.0, 0.0, 0.0, 0.0, 0.0, 1.7068828540001192E9, 0.0, 2024-02-02 15:07:34.000
52.0, 61075.22530260388, 64313.00959742184, -29222.089555512615, -762.574465581711, 16657.81636927323, 7795.059120066062, 27632.053510195437, 4547.171836754303, 37116.278662237964, 46061.73736592977, 36649.59658975561, 45628.225282219086, 23889.209197665357, 25736.826746085495, -5540.840988259433, -328.2577190706395, -0.108, 0.98, 0.272, 192.0, 0.0, 0.0, 0.0, 0.0, 0.0, 0.0, 0.0, 0.0, 0.0, 1.7068828540094404E9, 0.0, 2024-02-02 15:07:34.009
54.0, 61102.650893050544, 64340.435187868505, -29215.65225310949, -752.3373666211804, 16663.516064109335, 7808.82779465053, 27623.872771724797, 4556.246645003158, 37123.8112001194, 46063.03376710818, 36660.9512759389, 45637.1212765123, 23898.52987510322, 25742.19116475477, -5532.2579183885955, -317.6853439432793, -0.108, 0.98, 0.272, 192.0, 0.0, 0.0, 0.0, 0.0, 0.0, 0.0, 0.0, 0.0, 0.0, 1.706882854017118E9, 0.0, 2024-02-02 15:07:34.017
56.0, 61109.95991348743, 64349.95703100647, -29221.664872367965, -755.7124800339318, 16663.314898409237, 7804.290390526104, 27648.99613249256, 4562.818057873018, 37133.31069151291, 46083.17268886241, 36666.96389519738, 45648.990052818066, 23902.709651316363, 25750.75188288115, -5527.340534608428, -309.68341942827936, -0.108, 0.98, 0.272, 192.0, 0.0, 0.0, 0.0, 0.0, 0.0, 0.0, 0.0, 0.0, 0.0, 1.706882854025122E9, 0.0, 2024-02-02 15:07:34.025
58.0, 61122.923925271505, 64366.787894581306, -29218.155648488482, -748.7834392527866, 16668.09817172267, 7809.945381873296, 27652.728873816595, 4566.640206174875, 37129.0638600664, 46089.65469475445, 36664.01346492928, 45648.364203973324, 23897.881674514018, 25746.505051434644, -5528.23460438664, -308.43172173878213, -0.1, 0.98, 0.266, 192.0, 126.0, 112.0, 15.0, 80.0, 4.0, 40.0, 0.0, 0.0, 0.0, 1.7068828540332704E9, 0.0, 2024-02-02 15:07:34.033
60.0, 61148.159044761545, 64394.21348502797, -29202.86705528105, -732.1313896335828, 16678.648195105576, 7823.289373313114, 27655.94752501816, 4573.278674278102, 37142.564313717405, 46097.63426752499, 36680.3078866372, 45661.439974479676, 23912.656177598976, 25761.726589408707, -5517.103435647898, -294.84186110995546, -0.1, 0.98, 0.266, 192.0, 0.0, 0.0, 0.0, 0.0, 0.0, 0.0, 0.0, 0.0, 0.0, 1.7068828540411794E9, 0.0, 2024-02-02 15:07:34.041
62.0, 61152.13765527459, 64402.729499665445, -29206.73390707182, -735.6629652575214, 16669.685145579, 7816.539146487612, 27639.384882376777, 4561.812229372529, 37147.97343587559, 46120.50010210277, 36684.68882855044, 45669.84423039487, 23917.50650614578, 25765.81695864403, -5520.1656246382745, -294.7077506432236, -0.1, 0.98, 0.266, 192.0, 0.0, 0.0, 0.0, 0.0, 0.0, 0.0, 0.0, 0.0, 0.0, 1.706882854048155E9, 0.0, 2024-02-02 15:07:34.048
64.0, 61157.56912917723, 64412.20663931449, -29206.622148349543, -733.1372181340716, 16670.91449152404, 7819.243707566704, 27643.743472545564, 4565.410860229834, 37143.59249396235, 46114.19691016638, 36690.053247219716, 45673.42050950772, 23917.215933467858, 25766.599269699964, -5520.1656246382745, -293.6125151649136, -0.1, 0.98, 0.266, 192.0, 0.0, 0.0, 0.0, 0.0, 0.0, 0.0, 0.0, 0.0, 0.0, 1.7068828540562208E9, 0.0, 2024-02-02 15:07:34.056
66.0, 61165.14637054758, 64422.644903975124, -29207.985604761318, -734.0759914011945, 16669.931014768008, 7815.734483687221, 27647.52091735851, 4565.612025929931, 37137.35635725932, 46115.73918053379, 36683.01244771629, 45670.13480307279, 23912.745584576798, 25761.592478941977, -5528.413418342283, -300.8544803684331, -0.1, 0.98, 0.266, 192.0, 0.0, 0.0, 0.0, 0.0, 0.0, 0.0, 0.0, 0.0, 0.0, 1.7068828540652924E9, 0.0, 2024-02-02 15:07:34.065
68.0, 61166.84510312619, 64428.098729622216, -29215.048756009193, -741.2061978824376, 16662.95727049795, 7808.40311150588, 27638.379053876288, 4559.71116539373, 37139.993863105046, 46126.669183572434, 36690.36617164209, 45678.56141073244, 23915.092517744604, 25764.162929554335, -5529.039267187031, -301.8826606133772, -0.1, 0.982, 0.266, 192.0, 126.0, 112.0, 15.0, 88.0, 4.0, 40.0, 0.0, 0.0, 0.0, 1.7068828540732207E9, 0.0, 2024-02-02 15:07:34.073
70.0, 61178.289196287304, 64439.74398848343, -29212.075973996638, -742.4131920830241, 16663.180787942503, 7807.039655094106, 27639.809565521427, 4563.019223573116, 37136.015252592, 46115.135683433495, 36686.476968106865, 45673.733433930094, 23906.889427529506, 25754.05994106054, -5538.650517302814, -313.39380900786034, -0.1, 0.982, 0.266, 192.0, 0.0, 0.0, 0.0, 0.0, 0.0, 0.0, 0.0, 0.0, 0.0, 1.7068828540802495E9, 0.0, 2024-02-02 15:07:34.080
72.0, 61190.98498713792, 64452.39507584514, -29207.65032859449, -737.2499391138482, 16666.555901355256, 7811.778224918631, 27645.866888268818, 4571.222313788213, 37145.93942713016, 46132.771209808736, 36693.31660191019, 45679.92486714421, 23911.851514798585, 25759.267897518625, -5532.57084281097, -303.71550365871235, -0.1, 0.982, 0.266, 192.0, 0.0, 0.0, 0.0, 0.0, 0.0, 0.0, 0.0, 0.0, 0.0, 1.706882854088264E9, 0.0, 2024-02-02 15:07:34.088
74.0, 61199.70216747549, 64457.13364566966, -29206.10805822707, -733.964232678918, 16670.15453221256, 7815.645076709399, 27648.1244144588, 4576.631435946398, 37149.985092876566, 46124.232843426806, 36699.2621659353, 45679.254314810554, 23912.767936321252, 25759.737284152186, -5530.358020109895, -299.98276233467607, -0.1, 0.982, 0.266, 192.0, 0.0, 0.0, 0.0, 0.0, 0.0, 0.0, 0.0, 0.0, 0.0, 1.706882854097422E9, 0.0, 2024-02-02 15:07:34.097
76.0, 61202.92081867705, 64461.782808516364, -29206.15276171598, -734.8806542015856, 16669.819256045732, 7812.269963296648, 27646.693902813662, 4577.279636535602, 37164.64783723925, 46131.81008479716, 36701.47498863638, 45683.590553234884, 23917.774727079242, 25765.70519992175, -5527.653459030803, -294.8865645988661, -0.1, 0.982, 0.266, 192.0, 0.0, 0.0, 0.0, 0.0, 0.0, 0.0, 0.0, 0.0, 0.0, 1.7068828541042805E9, 0.0, 2024-02-02 15:07:34.104
78.0, 61208.82167921325, 64466.14139868515, -29204.856360537575, -734.8806542015856, 16673.127314225116, 7816.8073674210755, 27645.956295246637, 4580.4535842482555, 37174.95199143315, 46128.636137084504, 36698.05517173471, 45679.969570633126, 23913.63965435501, 25760.653705674853, -5531.050924188009, -302.2179367802068, -0.10500000000000001, 0.982, 0.267, 192.0, 126.0, 72.0, 15.0, 88.0, 4.0, 48.0, 0.0, 0.0, 0.0, 1.7068828541122632E9, 0.0, 2024-02-02 15:07:34.112
80.0, 61215.549554294295, 64473.7186400555, -29202.39766864749, -731.1479128775493, 16674.803695059265, 7821.456530267779, 27649.13024295929, 4582.934627882794, 37190.30763987394, 46114.33102063311, 36699.910366524506, 45680.237791566586, 23912.902046787985, 25761.167795797326, -5531.3191451214725, -302.68732341376824, -0.10500000000000001, 0.982, 0.267, 192.0, 0.0, 0.0, 0.0, 0.0, 0.0, 0.0, 0.0, 0.0, 0.0, 1.706882854121581E9, 0.0, 2024-02-02 15:07:34.121
82.0, 61220.533993307836, 64483.17342796009, -29204.454029137378, -732.1090378891275, 16669.685145579, 7819.578983733533, 27649.264353426024, 4580.81121215954, 37209.88776801679, 46126.13274170551, 36703.86662529309, 45689.267896326535, 23911.717404331852, 25765.459330732745, -5533.062581188987, -297.54642218904763, -0.10500000000000001, 0.982, 0.267, 192.0, 0.0, 0.0, 0.0, 0.0, 0.0, 0.0, 0.0, 0.0, 0.0, 1.706882854129272E9, 0.0, 2024-02-02 15:07:34.129
84.0, 61224.713769520975, 64487.39790766215, -29202.196502947394, -727.6610407425214, 16678.067049749738, 7826.26215532567, 27664.62000186682, 4589.863668663939, 37227.27742520302, 46115.917994489435, 36709.968651529394, 45691.346608560874, 23911.851514798585, 25769.035609845592, -5527.653459030803, -290.5056226856259, -0.10500000000000001, 0.982, 0.267, 192.0, 0.0, 0.0, 0.0, 0.0, 0.0, 0.0, 0.0, 0.0, 0.0, 1.7068828541365333E9, 0.0, 2024-02-02 15:07:34.136
86.0, 61226.21133639948, 64491.354166430734, -29203.023517492238, -724.9117761745186, 16672.747334569376, 7823.35642854648, 27651.834804038383, 4580.520639481621, 37244.287102733506, 46123.56229109315, 36709.74513408484, 45696.77808246352, 23912.142087476503, 25773.19303431428, -5527.988735197632, -287.21991625069575, -0.10500000000000001, 0.982, 0.267, 192.0, 0.0, 0.0, 0.0, 0.0, 0.0, 0.0, 0.0, 0.0, 0.0, 1.7068828541443455E9, 0.0, 2024-02-02 15:07:34.144
88.0, 61223.7526445094, 64487.50966638442, -29207.292700683203, -725.5823285081779, 16667.025287988818, 7823.267021568659, 27640.99420797756, 4574.0609853340375, 37256.51350695056, 46126.62448008353, 36711.82384631918, 45700.53317553201, 23910.30924443117, 25777.730438438706, -5530.469778832171, -288.67277964029074, -0.10650000000000001, 0.983, 0.2695, 192.0, 126.0, 80.0, 15.0, 96.0, 4.0, 64.0, 0.0, 0.0, 0.0, 1.7068828541534972E9, 0.0, 2024-02-02 15:07:34.153
90.0, 61221.226897385946, 64482.25700643742, -29210.48900014031, -729.8962151880521, 16664.186616442992, 7819.869556411452, 27639.56369633242, 4571.267017277124, 37264.13545180982, 46108.296049630175, 36708.135808484054, 45690.54194576049, 23904.92247401744, 25772.14250232488, -5533.688430033735, -295.6241721658912, -0.10650000000000001, 0.983, 0.2695, 192.0, 0.0, 0.0, 0.0, 0.0, 0.0, 0.0, 0.0, 0.0, 0.0, 1.7068828541603625E9, 0.0, 2024-02-02 15:07:34.160
92.0, 61216.42127232806, 64477.451381379535, -29208.477343139333, -726.2081773529264, 16667.91935776703, 7820.987143634217, 27647.14093770277, 4574.306854523045, 37273.724350181146, 46118.9354799909, 36706.057096249715, 45690.49724227157, 23904.654253083976, 25777.23870006069, -5530.872110232367, -292.7184453867013, -0.10650000000000001, 0.983, 0.2695, 192.0, 0.0, 0.0, 0.0, 0.0, 0.0, 0.0, 0.0, 0.0, 0.0, 1.7068828541683755E9, 0.0, 2024-02-02 15:07:34.168
94.0, 61219.326999107245, 64481.25117793694, -29197.636747078508, -716.7533894483316, 16679.363450928147, 7829.279640827137, 27654.382902906287, 4583.739290683186, 37279.245231061606, 46113.72752353281, 36709.54396838474, 45691.36896030533, 23908.521104874744, 25780.01031637315, -5524.971249696166, -290.9303058302767, -0.10650000000000001, 0.983, 0.2695, 192.0, 0.0, 0.0, 0.0, 0.0, 0.0, 0.0, 0.0, 0.0, 0.0, 1.706882854176667E9, 0.0, 2024-02-02 15:07:34.176
96.0, 61199.903333175585, 64455.926651469075, -29200.698936068886, -722.3189738177031, 16675.764820070843, 7819.400169777891, 27650.6278098378, 4575.446793490266, 37287.13539685433, 46119.56132883565, 36713.29906145323, 45697.47098654163, 23915.24897995579, 25783.407781530357, -5510.979057667143, -279.97795104717625, -0.10650000000000001, 0.983, 0.2695, 192.0, 0.0, 0.0, 0.0, 0.0, 0.0, 0.0, 0.0, 0.0, 0.0, 1.706882854185521E9, 0.0, 2024-02-02 15:07:34.185
98.0, 61175.070545085735, 64426.779976699356, -29205.750430315788, -725.1129418746165, 16672.30029968027, 7816.203870320782, 27645.21868767961, 4569.791802143073, 37280.54163224001, 46104.49625307277, 36699.195110701934, 45684.23875382409, 23906.77766880723, 25772.209557558246, -5517.975153681655, -285.6776458832796, -0.10725000000000001, 0.9835, 0.27175000000000005, 192.0, 126.0, 80.0, 15.0, 96.0, 4.0, 72.0, 0.0, 0.0, 0.0, 1.7068828541923835E9, 0.0, 2024-02-02 15:07:34.192
100.0, 61147.08616102769, 64395.576941439744, -29205.68337508242, -723.414209296013, 16676.010689259852, 7821.612992478967, 27650.918382515716, 4576.609084201942, 37279.75932118408, 46090.03467441019, 36698.725724068376, 45679.76840493303, 23911.851514798585, 25776.501092493665, -5510.777891967045, -283.2189539931958, -0.10725000000000001, 0.9835, 0.27175000000000005, 192.0, 0.0, 0.0, 0.0, 0.0, 0.0, 0.0, 0.0, 0.0, 0.0, 1.706882854200382E9, 0.0, 2024-02-02 15:07:34.200
102.0, 61112.39625363306, 64355.16498746455, -29215.83106706513, -733.6066047676331, 16669.081648478706, 7817.768492432653, 27645.33044640189, 4569.300063765057, 37268.829318145436, 46085.296104585665, 36683.77240702777, 45664.099832069856, 23905.21304669536, 25775.80818841555, -5516.388179825328, -288.49396568464823, -0.10725000000000001, 0.9835, 0.27175000000000005, 192.0, 0.0, 0.0, 0.0, 0.0, 0.0, 0.0, 0.0, 0.0, 0.0, 1.706882854209401E9, 0.0, 2024-02-02 15:07:34.209
104.0, 61090.4691923224, 64326.44299583948, -29221.5978171346, -732.8466454561527, 16663.806636787253, 7821.702399456787, 27635.741548030564, 4566.95313059725, 37260.26860001905, 46060.21744730681, 36677.513918580284, 45650.666433652215, 23898.261654169757, 25773.77417967012, -5519.875051960355, -298.0158088226091, -0.10725000000000001, 0.9835, 0.27175000000000005, 192.0, 0.0, 0.0, 0.0, 0.0, 0.0, 0.0, 0.0, 0.0, 0.0, 1.706882854216426E9, 0.0, 2024-02-02 15:07:34.216
106.0, 61065.2117210879, 64299.86677168212, -29229.286817227225, -738.4569333144348, 16656.00587797235, 7813.0522743525835, 27631.4723648396, 4559.420592715811, 37253.89835284929, 46053.24370303675, 36670.11549116558, 45642.70921262613, 23892.316090144646, 25772.991868614183, -5525.9770781966545, -300.1392245458632, -0.10725000000000001, 0.9835, 0.27175000000000005, 192.0, 0.0, 0.0, 0.0, 0.0, 0.0, 0.0, 0.0, 0.0, 0.0, 1.7068828542244327E9, 0.0, 2024-02-02 15:07:34.224
108.0, 61057.925052395476, 64295.552885002246, -29226.55990440368, -734.6124332681219, 16665.81829378823, 7819.6236872224445, 27646.80566153594, 4565.656729418842, 37249.07037604694, 46049.73447915727, 36663.78994748473, 45635.89193056726, 23890.907930243964, 25770.644935446377, -5520.009162427087, -298.1946227782515, -0.10362500000000001, 0.98275, 0.27287500000000003, 192.0, 126.0, 112.0, 15.0, 88.0, 4.0, 72.0, 0.0, 0.0, 0.0, 1.7068828542330537E9, 0.0, 2024-02-02 15:07:34.233
110.0, 61045.92216562297, 64280.91249238402, -29232.103137028593, -737.2499391138482, 16659.895081507573, 7815.600373220489, 27633.640484051764, 4561.387546227878, 37248.355120224376, 46035.85404585052, 36659.9007439495, 45631.80156133194, 23889.030383709716, 25766.666324933332, -5521.260860116585, -299.64748616784647, -0.10362500000000001, 0.98275, 0.27287500000000003, 192.0, 0.0, 0.0, 0.0, 0.0, 0.0, 0.0, 0.0, 0.0, 0.0, 1.7068828542414632E9, 0.0, 2024-02-02 15:07:34.241
112.0, 61044.53635746674, 64282.03007960678, -29230.560866661177, -729.6056425101332, 16661.415000130535, 7822.596469235, 27633.5734288184, 4563.578017184498, 37244.19769575568, 46039.27386275218, 36652.45761304589, 45626.79477057395, 23884.515331329745, 25767.3815807559, -5525.418284585272, -298.0158088226091, -0.10362500000000001, 0.98275, 0.27287500000000003, 192.0, 0.0, 0.0, 0.0, 0.0, 0.0, 0.0, 0.0, 0.0, 0.0, 1.7068828542484772E9, 0.0, 2024-02-02 15:07:34.248
114.0, 61056.874520406076, 64293.29535881226, -29227.051642781695, -724.1965203519488, 16669.215758945436, 7827.446797781801, 27650.4266441377, 4571.110555065937, 37256.78172788402, 46045.42059247739, 36662.51589805078, 45636.80835208992, 23891.01968896624, 25776.366982026935, -5518.243374615118, -286.7505296171343, -0.10362500000000001, 0.98275, 0.27287500000000003, 192.0, 0.0, 0.0, 0.0, 0.0, 0.0, 0.0, 0.0, 0.0, 0.0, 1.7068828542566602E9, 0.0, 2024-02-02 15:07:34.256
116.0, 61053.74527618233, 64290.25552156634, -29231.790212606218, -737.2946426027588, 16657.838721017688, 7811.9346871298185, 27632.433489851177, 4556.067831047515, 37260.358006996874, 46043.16306628741, 36660.77246198326, 45637.34479395686, 23889.72328778783, 25772.90246163636, -5522.825482228456, -296.2276692661845, -0.10362500000000001, 0.98275, 0.27287500000000003, 192.0, 0.0, 0.0, 0.0, 0.0, 0.0, 0.0, 0.0, 0.0, 0.0, 1.7068828542655487E9, 0.0, 2024-02-02 15:07:34.265
118.0, 61059.55672974071, 64292.98243438989, -29230.538514916723, -740.9379769489739, 16659.20217742946, 7810.705341184776, 27633.439318351666, 4557.878322348395, 37261.900277364286, 46036.30108073963, 36657.93379043744, 45631.376878187286, 23887.510465086754, 25761.43601673079, -5523.071351417465, -302.4638059692152, -0.1018125, 0.985375, 0.2744375, 192.0, 126.0, 112.0, 15.0, 112.0, 4.0, 80.0, 0.0, 0.0, 0.0, 1.7068828542724955E9, 0.0, 2024-02-02 15:07:34.272
120.0, 61077.974567171885, 64313.948370688966, -29223.609474135577, -731.5949477666554, 16664.857168776653, 7815.108634842472, 27647.677379569697, 4566.729613152696, 37269.723387923645, 46029.77437135868, 36663.11939515107, 45633.41088693272, 23888.896273242986, 25761.43601673079, -5518.489243804127, -298.32873324498337, -0.1018125, 0.985375, 0.2744375, 192.0, 0.0, 0.0, 0.0, 0.0, 0.0, 0.0, 0.0, 0.0, 0.0, 1.7068828542805188E9, 0.0, 2024-02-02 15:07:34.280
122.0, 61087.965796943405, 64330.77923426381, -29227.029291037237, -734.1430466345605, 16660.610337330145, 7812.091149341006, 27638.33435038738, 4559.398240971356, 37280.072245606454, 46052.237874536266, 36672.708293522395, 45648.855942351336, 23894.26069191226, 25769.460292990243, -5512.141348378819, -289.1868697627628, -0.1018125, 0.985375, 0.2744375, 192.0, 0.0, 0.0, 0.0, 0.0, 0.0, 0.0, 0.0, 0.0, 0.0, 1.7068828542887938E9, 0.0, 2024-02-02 15:07:34.288
124.0, 61111.122204199106, 64352.99686825238, -29223.78828809122, -733.159569878527, 16664.186616442992, 7814.482785997723, 27639.04960620995, 4560.4264212163, 37282.039199118524, 46047.56635994511, 36673.24473538932, 45648.54301792896, 23886.571691819634, 25763.022990587117, -5522.266688617074, -305.12366355939673, -0.1018125, 0.985375, 0.2744375, 192.0, 0.0, 0.0, 0.0, 0.0, 0.0, 0.0, 0.0, 0.0, 0.0, 1.7068828542965684E9, 0.0, 2024-02-02 15:07:34.296
126.0, 61118.25241068035, 64368.8442550712, -29224.5482474027, -732.9137006895186, 16661.4820553639, 7813.678123197333, 27642.55883008943, 4558.682985148786, 37292.96920215717, 46065.55951423163, 36682.34189538263, 45662.781079147, 23894.327747145624, 25775.517615737634, -5512.342514078917, -295.9818000771761, -0.1018125, 0.985375, 0.2744375, 192.0, 0.0, 0.0, 0.0, 0.0, 0.0, 0.0, 0.0, 0.0, 0.0, 1.7068828543045835E9, 0.0, 2024-02-02 15:07:34.304
128.0, 61133.31748644322, 64383.216426755964, -29221.73192760133, -729.5385872767672, 16665.326555410214, 7819.556631989078, 27640.18954517717, 4558.839447359973, 37294.198548102206, 46070.94628464535, 36681.60428781561, 45661.3282157574, 23888.650404053977, 25772.455426747256, -5517.036380414532, -300.4521489682375, -0.10490625, 0.9836875, 0.27621875, 192.0, 126.0, 80.0, 15.0, 88.0, 4.0, 88.0, 0.0, 0.0, 0.0, 1.70688285431263E9, 0.0, 2024-02-02 15:07:34.312
130.0, 61147.24262323888, 64396.918046107065, -29220.79315433421, -723.3918575515578, 16674.02138400333, 7825.993934392207, 27650.76192030453, 4567.668386419819, 37302.75926622859, 46069.35931078903, 36688.376866385566, 45664.88214312579, 23893.612491323056, 25777.4845692497, -5510.37556056685, -292.85255585343316, -0.10490625, 0.9836875, 0.27621875, 192.0, 0.0, 0.0, 0.0, 0.0, 0.0, 0.0, 0.0, 0.0, 0.0, 1.7068828543218794E9, 0.0, 2024-02-02 15:07:34.321
132.0, 61147.95787906145, 64398.30385426329, -29233.824221351653, -736.4452763134572, 16664.8348170322, 7816.9861813767175, 27642.75999578953, 4558.727688637697, 37307.8554639644, 46083.35150281805, 36684.532366339256, 45662.624616935806, 23891.913758744453, 25779.004487872662, -5513.862432701878, -288.51631742910354, -0.10490625, 0.9836875, 0.27621875, 192.0, 0.0, 0.0, 0.0, 0.0, 0.0, 0.0, 0.0, 0.0, 0.0, 1.706882854327603E9, 0.0, 2024-02-02 15:07:34.327
134.0, 61152.696448885974, 64405.63522644463, -29232.997206806805, -735.9535379354403, 16665.460665876944, 7816.405036020879, 27644.212859179122, 4557.297176992557, 37303.45217030671, 46068.085261355074, 36681.53723258224, 45656.32142499941, 23884.82825575212, 25768.119188322926, -5518.086912403931, -293.3889977203605, -0.10490625, 0.9836875, 0.27621875, 192.0, 0.0, 0.0, 0.0, 0.0, 0.0, 0.0, 0.0, 0.0, 0.0, 1.7068828543365967E9, 0.0, 2024-02-02 15:07:34.336
136.0, 61163.268824013336, 64416.98991262793, -29232.43841319542, -736.4229245690018, 16661.415000130535, 7813.096977841495, 27635.94271373066, 4553.407973457333, 37304.99444067412, 46074.29904631365, 36685.51584309529, 45662.64696868026, 23886.348174375078, 25770.48847323519, -5519.80799672699, -294.7301023876789, -0.10490625, 0.9836875, 0.27621875, 192.0, 0.0, 0.0, 0.0, 0.0, 0.0, 0.0, 0.0, 0.0, 0.0, 1.7068828543446095E9, 0.0, 2024-02-02 15:07:34.344
138.0, 61186.22406556894, 64440.52629953937, -29218.73679384432, -722.2295668398818, 16673.663756092043, 7826.642134981411, 27641.240077166567, 4563.443906717766, 37312.594033788926, 46091.107558144045, 36696.73641881185, 45675.25335255305, 23892.673718055932, 25778.780970428106, -5515.784682725034, -288.73983487365666, -0.10845312500000001, 0.98084375, 0.276109375, 192.0, 126.0, 64.0, 15.0, 72.0, 4.0, 80.0, 0.0, 0.0, 0.0, 1.7068828543530269E9, 0.0, 2024-02-02 15:07:34.353
140.0, 61191.499077260385, 64446.18129088656, -29220.97196828985, -728.7562762208315, 16673.172017714027, 7817.7461406881985, 27646.962123747126, 4560.873456105406, 37321.42297284877, 46091.26402035523, 36709.02987826227, 45686.45157652516, 23899.06631697015, 25783.25131931917, -5504.877031430845, -285.3200179719947, -0.10845312500000001, 0.98084375, 0.276109375, 192.0, 0.0, 0.0, 0.0, 0.0, 0.0, 0.0, 0.0, 0.0, 0.0, 1.7068828543606462E9, 0.0, 2024-02-02 15:07:34.360
142.0, 61194.91889416205, 64449.15407289912, -29225.665834625466, -735.0147646683174, 16668.232282189405, 7806.056178338073, 27635.920361986206, 4550.122267022403, 37314.896263467825, 46099.53416580369, 36700.670325835985, 45681.44478576718, 23892.271386655735, 25774.19886281477, -5515.874089702856, -298.95458208973196, -0.10845312500000001, 0.98084375, 0.276109375, 192.0, 0.0, 0.0, 0.0, 0.0, 0.0, 0.0, 0.0, 0.0, 0.0, 1.7068828543686416E9, 0.0, 2024-02-02 15:07:34.368
144.0, 61202.71965297695, 64458.74297127044, -29221.754279345787, -734.0759914011945, 16670.020421745827, 7806.5926202050005, 27633.819298007405, 4549.317604222012, 37310.694135510224, 46095.53320354619, 36700.08918048014, 45675.633332208796, 23887.86809299804, 25765.4816824772, -5519.562127537982, -305.52599495959225, -0.10845312500000001, 0.98084375, 0.276109375, 192.0, 0.0, 0.0, 0.0, 0.0, 0.0, 0.0, 0.0, 0.0, 0.0, 1.706882854376656E9, 0.0, 2024-02-02 15:07:34.376
146.0, 61212.66617925956, 64470.745858042945, -29217.88742755502, -728.7562762208315, 16670.869788035132, 7808.40311150588, 27629.326597371888, 4551.686889134275, 37318.69606002523, 46107.737256018794, 36708.001698017324, 45684.775195691014, 23895.333575646113, 25773.707124436754, -5517.550470537004, -301.65914316882413, -0.10845312500000001, 0.98084375, 0.276109375, 192.0, 0.0, 0.0, 0.0, 0.0, 0.0, 0.0, 0.0, 0.0, 0.0, 1.706882854383956E9, 0.0, 2024-02-02 15:07:34.383
148.0, 61220.06460667427, 64477.92076801309, -29215.54049438721, -723.2800988292812, 16673.887273536595, 7814.21456506426, 27646.2245161801, 4562.080450305993, 37319.299557125516, 46110.62063105353, 36711.086238752156, 45687.25623932556, 23892.20433142237, 25774.95882212625, -5518.444540315216, -301.9050123578325, -0.11122656250000001, 0.982421875, 0.2730546875, 192.0, 126.0, 56.0, 15.0, 96.0, 4.0, 56.0, 0.0, 0.0, 0.0, 1.706882854392732E9, 0.0, 2024-02-02 15:07:34.392
150.0, 61230.90520273509, 64486.72735532849, -29213.953520530886, -718.0497906267394, 16678.469381149935, 7820.853033167486, 27648.638504581275, 4568.115421308926, 37324.820438005976, 46108.20664265235, 36718.909349311514, 45693.47002428413, 23895.132409946014, 25779.54092973959, -5513.504804790593, -293.81368086501135, -0.11122656250000001, 0.982421875, 0.2730546875, 192.0, 0.0, 0.0, 0.0, 0.0, 0.0, 0.0, 0.0, 0.0, 0.0, 1.706882854400949E9, 0.0, 2024-02-02 15:07:34.400
152.0, 61226.83718524423, 64484.939215772065, -29221.530761901235, -728.0857238871722, 16671.33917466869, 7813.3428470305025, 27638.557867831933, 4560.672290405309, 37325.33452812845, 46116.36502937854, 36712.24852946383, 45690.92192541622, 23892.740773289297, 25775.62937445991, -5519.562127537982, -299.4239687232934, -0.11122656250000001, 0.982421875, 0.2730546875, 192.0, 0.0, 0.0, 0.0, 0.0, 0.0, 0.0, 0.0, 0.0, 0.0, 1.7068828544088597E9, 0.0, 2024-02-02 15:07:34.408
154.0, 61240.27058366187, 64500.808954335334, -29211.718346085352, -717.9156801600076, 16683.409116674557, 7827.826777437542, 27652.080673227392, 4576.027938846104, 37326.76503977359, 46107.3349246186, 36717.03180277727, 45696.21928885213, 23895.24416866829, 25777.261051805148, -5513.437749557227, -296.0041518216314, -0.11122656250000001, 0.982421875, 0.2730546875, 192.0, 0.0, 0.0, 0.0, 0.0, 0.0, 0.0, 0.0, 0.0, 0.0, 1.706882854416711E9, 0.0, 2024-02-02 15:07:34.416
156.0, 61231.419292857565, 64492.538808886864, -29225.151744502993, -728.9574419209292, 16671.473285135424, 7816.06975985405, 27633.729891029587, 4561.9686915837165, 37331.8612375094, 46119.069590457635, 36717.94822429994, 45702.16485287724, 23898.462819869856, 25782.02197337413, -5510.4202640557605, -289.1868697627628, -0.11122656250000001, 0.982421875, 0.2730546875, 192.0, 0.0, 0.0, 0.0, 0.0, 0.0, 0.0, 0.0, 0.0, 0.0, 1.7068828544247105E9, 0.0, 2024-02-02 15:07:34.424
158.0, 61233.43094985854, 64493.76815483191, -29225.084689269628, -728.063372142717, 16670.936843268497, 7816.695608698798, 27633.99811196305, 4560.694642149763, 37321.132400170856, 46112.498177587775, 36702.704334581416, 45687.52446025902, 23883.800075507173, 25768.968554612227, -5527.407589841794, -306.9118031158213, -0.11061328125, 0.9852109375, 0.27252734375, 192.0, 126.0, 72.0, 15.0, 112.0, 4.0, 64.0, 0.0, 0.0, 0.0, 1.7068828544327452E9, 0.0, 2024-02-02 15:07:34.432
160.0, 61242.684572063044, 64503.55821890333, -29218.35681418858, -718.09449411565, 16670.758029312852, 7819.69074245581, 27621.86111472382, 4559.286482249079, 37332.28592065405, 46116.16386367844, 36716.808285332714, 45699.50499528706, 23895.467686112846, 25779.54092973959, -5520.1656246382745, -302.2179367802068, -0.11061328125, 0.9852109375, 0.27252734375, 192.0, 0.0, 0.0, 0.0, 0.0, 0.0, 0.0, 0.0, 0.0, 0.0, 1.7068828544400537E9, 0.0, 2024-02-02 15:07:34.440
162.0, 61241.74579879592, 64503.40175669215, -29226.045814281206, -722.3636773066137, 16663.314898409237, 7811.107672584972, 27625.88442872577, 4552.133924023381, 37335.14694394433, 46123.7858085377, 36716.3165469547, 45704.064751155944, 23894.148933189983, 25780.278537306614, -5528.458121831193, -307.6047071939358, -0.11061328125, 0.9852109375, 0.27252734375, 192.0, 0.0, 0.0, 0.0, 0.0, 0.0, 0.0, 0.0, 0.0, 0.0, 1.7068828544487379E9, 0.0, 2024-02-02 15:07:34.448
164.0, 61246.84199653173, 64508.94498931706, -29226.87282882605, -723.7047819739321, 16665.371258899126, 7814.035751108618, 27622.062280423914, 4555.2184647582135, 37335.12459219988, 46114.75570377776, 36719.51284641181, 45704.288268600496, 23892.271386655735, 25776.746961682675, -5532.168511410775, -313.952602619243, -0.11061328125, 0.9852109375, 0.27252734375, 192.0, 0.0, 0.0, 0.0, 0.0, 0.0, 0.0, 0.0, 0.0, 0.0, 1.7068828544567797E9, 0.0, 2024-02-02 15:07:34.456
166.0, 61248.36191515469, 64514.39881496416, -29225.174096247447, -724.3976860520465, 16671.674450835522, 7815.801538920587, 27638.89314399876, 4562.23691251718, 37338.43265037926, 46123.20466318187, 36722.37386970209, 45710.792626236995, 23897.63580532501, 25783.1842640858, -5525.127711907353, -309.30343977253915, -0.11061328125, 0.9852109375, 0.27252734375, 192.0, 0.0, 0.0, 0.0, 0.0, 0.0, 0.0, 0.0, 0.0, 0.0, 1.706882854464972E9, 0.0, 2024-02-02 15:07:34.464
168.0, 61246.730237809454, 64508.52030617241, -29223.385956691025, -729.2480145988483, 16674.088439236693, 7811.733521429721, 27638.51316434302, 4557.699508392752, 37332.97882473216, 46120.61186082505, 36716.94239579945, 45705.65172501227, 23893.098401200583, 25776.143464582383, -5524.837139229434, -312.1421113183631, -0.11061328125, 0.9852109375, 0.27252734375, 192.0, 0.0, 0.0, 0.0, 0.0, 0.0, 0.0, 0.0, 0.0, 0.0, 1.7068828544729035E9, 0.0, 2024-02-02 15:07:34.472
170.0, 61254.88862453564, 64514.89055334217, -29214.244093208803, -719.1673778495048, 16678.983471272408, 7817.2767540546365, 27642.447071367154, 4562.683947406286, 37340.33254865796, 46115.40390436696, 36727.98415756037, 45707.86454771335, 23901.904988515973, 25778.982136128205, -5512.923659434755, -304.40840773682686, -0.108, 0.99, 0.268, 192.0, 126.0, 80.0, 15.0, 120.0, 4.0, 48.0, 0.0, 0.0, 0.0, 1.7068828544808657E9, 0.0, 2024-02-02 15:07:34.480
172.0, 61254.016906501885, 64517.41630046562, -29217.462744410368, -717.9380319044628, 16677.15062822707, 7817.254402310182, 27642.536478344977, 4562.795706128562, 37343.0147579926, 46125.216320182844, 36730.46520119491, 45712.42430358223, 23904.5424943617, 25786.08999086499, -5511.403740811795, -298.0381605670644, -0.108, 0.99, 0.268, 192.0, 0.0, 0.0, 0.0, 0.0, 0.0, 0.0, 0.0, 0.0, 0.0, 1.70688285448883E9, 0.0, 2024-02-02 15:07:34.488
174.0, 61251.58056635626, 64515.02466380891, -29224.727061358342, -720.1732063499935, 16671.272119435325, 7819.176652333338, 27636.009768964028, 4559.554703182543, 37337.15860094531, 46117.50496834576, 36726.97832905988, 45708.400989580274, 23899.558055348167, 25785.888825164897, -5516.544642036515, -298.1275675448856, -0.108, 0.99, 0.268, 192.0, 0.0, 0.0, 0.0, 0.0, 0.0, 0.0, 0.0, 0.0, 0.0, 1.7068828544961095E9, 0.0, 2024-02-02 15:07:34.496
176.0, 61248.45132213251, 64511.090756784775, -29228.16923000446, -719.3238400606919, 16667.24880543337, 7816.9861813767175, 27637.015597464517, 4558.012432815127, 37329.067269452484, 46118.82372126862, 36719.87047432309, 45706.50109130157, 23893.83600876761, 25787.229929832214, -5523.42897932875, -299.5133757011146, -0.108, 0.99, 0.268, 192.0, 0.0, 0.0, 0.0, 0.0, 0.0, 0.0, 0.0, 0.0, 0.0, 1.7068828545048532E9, 0.0, 2024-02-02 15:07:34.504
178.0, 61249.77007505537, 64508.4756026835, -29228.5492096602, -715.9934301368511, 16668.09817172267, 7820.137777344916, 27633.036986951472, 4557.341880481467, 37324.95454847271, 46125.618651583034, 36716.07067776569, 45705.897594201284, 23890.97498547733, 25786.71583970974, -5523.384275839839, -299.22280302319564, -0.108, 0.99, 0.268, 192.0, 0.0, 0.0, 0.0, 0.0, 0.0, 0.0, 0.0, 0.0, 0.0, 1.7068828545129251E9, 0.0, 2024-02-02 15:07:34.512
180.0, 61256.520301880875, 64514.801146364356, -29224.59295089161, -712.99829637984, 16670.378049657113, 7823.870518668952, 27633.908704985228, 4560.180552027292, 37326.67563279577, 46127.27268067273, 36724.25141623634, 45711.10555065937, 23896.607625080065, 25791.20854034526, -5518.511595548582, -291.6008581639359, -0.106, 0.984, 0.272, 192.0, 126.0, 88.0, 15.0, 96.0, 4.0, 64.0, 0.0, 0.0, 0.0, 1.7068828545209568E9, 0.0, 2024-02-02 15:07:34.520
182.0, 61255.492121635936, 64513.460041697035, -29225.107041014082, -714.5852702361668, 16669.30516592326, 7822.372951790447, 27626.80085024844, 4554.61496765792, 37325.312176383995, 46135.766343565745, 36721.94918655744, 45711.507882059566, 23896.49586635779, 25789.710973466754, -5521.66319151678, -292.6737418977907, -0.106, 0.984, 0.272, 192.0, 0.0, 0.0, 0.0, 0.0, 0.0, 0.0, 0.0, 0.0, 0.0, 1.7068828545279064E9, 0.0, 2024-02-02 15:07:34.527
184.0, 61259.49308389343, 64516.52223068741, -29216.143991487505, -706.7174561878987, 16680.123410239627, 7829.927841416341, 27641.41889112221, 4563.33214799549, 37328.44142060774, 46133.79939005368, 36729.83935235016, 45715.397085594785, 23904.564846106154, 25792.147313612382, -5513.460101301683, -287.95752381772087, -0.106, 0.984, 0.272, 192.0, 0.0, 0.0, 0.0, 0.0, 0.0, 0.0, 0.0, 0.0, 0.0, 1.706882854536899E9, 0.0, 2024-02-02 15:07:34.536
186.0, 61261.23651996095, 64518.91386734413, -29214.73583158682, -705.8010346652311, 16679.095229994684, 7830.173710605349, 27640.99420797756, 4562.661595661831, 37328.9108072413, 46140.01317501225, 36731.51573318431, 45720.13565541931, 23908.67756708593, 25798.651671248874, -5506.553412264992, -279.68737836925726, -0.106, 0.984, 0.272, 192.0, 0.0, 0.0, 0.0, 0.0, 0.0, 0.0, 0.0, 0.0, 0.0, 1.7068828545439308E9, 0.0, 2024-02-02 15:07:34.543
188.0, 61258.59901411522, 64517.39394872117, -29216.92630254344, -706.4715869988903, 16677.97764277192, 7825.502196014189, 27640.927152744192, 4558.772392126607, 37319.67953678126, 46136.34748892159, 36723.9161400695, 45715.79941699498, 23902.620244338545, 25797.288214837103, -5512.18605186773, -284.2024307492293, -0.106, 0.984, 0.272, 192.0, 0.0, 0.0, 0.0, 0.0, 0.0, 0.0, 0.0, 0.0, 0.0, 1.706882854552257E9, 0.0, 2024-02-02 15:07:34.552
190.0, 61260.007174015904, 64516.455175454044, -29210.421944906946, -702.0459415967396, 16681.330404440214, 7822.64117272391, 27644.123452201304, 4558.526522937599, 37319.299557125516, 46131.02777374122, 36732.1192302846, 45721.767332764546, 23907.62703509653, 25794.829522947017, -5506.262839587073, -283.5542301600254, -0.106, 0.978, 0.268, 192.0, 126.0, 88.0, 15.0, 72.0, 4.0, 48.0, 0.0, 0.0, 0.0, 1.7068828545599327E9, 0.0, 2024-02-02 15:07:34.559
192.0, 61251.17823495606, 64509.0790997838, -29213.461782152866, -702.224755552382, 16677.329442182712, 7820.830681423031, 27634.57925731889, 4553.586787412976, 37315.879740223856, 46142.047183757684, 36733.035651807266, 45726.14827467779, 23908.409346152468, 25797.981118915217, -5508.028627399043, -285.23061099417345, -0.106, 0.978, 0.268, 192.0, 0.0, 0.0, 0.0, 0.0, 0.0, 0.0, 0.0, 0.0, 0.0, 1.7068828545689647E9, 0.0, 2024-02-02 15:07:34.568
194.0, 61239.01888597237, 64498.05968976733, -29221.530761901235, -707.9244503884853, 16674.781343314808, 7823.177614590838, 27635.875658497294, 4556.134886280881, 37301.50756853909, 46128.23380568431, 36725.19018950345, 45717.006411195565, 23898.932206503418, 25787.67696472132, -5516.097607147409, -294.3277709874834, -0.106, 0.978, 0.268, 192.0, 0.0, 0.0, 0.0, 0.0, 0.0, 0.0, 0.0, 0.0, 0.0, 1.706882854576126E9, 0.0, 2024-02-02 15:07:34.576
196.0, 61229.541746323324, 64486.23561695047, -29224.5482474027, -711.836005668164, 16674.893102037084, 7826.016286136662, 27636.523859086497, 4560.716993894219, 37297.216033603676, 46132.39123015299, 36719.66930862299, 45713.96657394965, 23900.40742163747, 25791.85674093446, -5515.449406558205, -289.05275929603096, -0.106, 0.978, 0.268, 192.0, 0.0, 0.0, 0.0, 0.0, 0.0, 0.0, 0.0, 0.0, 0.0, 1.7068828545839665E9, 0.0, 2024-02-02 15:07:34.583
198.0, 61203.07728088824, 64453.959697957005, -29232.50546842879, -722.5871947511667, 16673.462590391944, 7822.171786090349, 27633.52872532949, 4558.660633404331, 37279.89343165081, 46118.86842475754, 36704.246604948836, 45695.72755047412, 23891.57848257762, 25783.273671063624, -5523.630145028847, -296.0041518216314, -0.106, 0.978, 0.268, 192.0, 0.0, 0.0, 0.0, 0.0, 0.0, 0.0, 0.0, 0.0, 0.0, 1.7068828545929725E9, 0.0, 2024-02-02 15:07:34.592
200.0, 61184.43592601251, 64428.14343311113, -29232.59487540661, -726.1634738640158, 16675.384840415103, 7821.233012823226, 27636.345045130856, 4557.721860137208, 37267.17528905574, 46094.90735470145, 36697.20580544541, 45681.154213089256, 23892.696069800386, 25779.09389485048, -5519.450368815705, -297.4123117223158, -0.112, 0.986, 0.268, 192.0, 126.0, 64.0, 15.0, 104.0, 4.0, 48.0, 0.0, 0.0, 0.0, 1.7068828546001716E9, 0.0, 2024-02-02 15:07:34.600
202.0, 61160.474855956425, 64403.422403743556, -29237.534610931234, -729.0021454098398, 16673.283776436303, 7818.282582555125, 27631.13708867277, 4555.062002547026, 37259.6427511743, 46094.88500295699, 36690.14265419754, 45675.52157348652, 23890.796171521684, 25778.333935539, -5524.457159573693, -299.4239687232934, -0.112, 0.986, 0.268, 192.0, 0.0, 0.0, 0.0, 0.0, 0.0, 0.0, 0.0, 0.0, 0.0, 1.7068828546079895E9, 0.0, 2024-02-02 15:07:34.607
204.0, 61126.65666659554, 64360.95408927847, -29244.620113923564, -733.7854187232756, 16671.719154324433, 7815.2203935647485, 27634.959236974628, 4557.990081070671, 37240.35319570937, 46071.92976140139, 36681.73839828234, 45660.16592504572, 23885.96819471934, 25770.264955790637, -5526.513520063582, -301.34621874644984, -0.112, 0.986, 0.268, 192.0, 0.0, 0.0, 0.0, 0.0, 0.0, 0.0, 0.0, 0.0, 0.0, 1.7068828546160715E9, 0.0, 2024-02-02 15:07:34.616
206.0, 61099.5216488268, 64330.91334473054, -29249.761015148288, -738.5239885478006, 16664.34307865418, 7811.711169685265, 27623.336329857866, 4551.418668200811, 37226.740983336094, 46052.03670883617, 36672.35066561111, 45645.61493940532, 23880.983755705805, 25764.185281298793, -5531.7885317550345, -303.5366897030699, -0.112, 0.986, 0.268, 192.0, 0.0, 0.0, 0.0, 0.0, 0.0, 0.0, 0.0, 0.0, 0.0, 1.7068828546250856E9, 0.0, 2024-02-02 15:07:34.625
208.0, 61084.970663186396, 64310.61796076512, -29250.230401781846, -739.5298170482895, 16668.612261845145, 7811.30883828507, 27624.878600225282, 4550.770467611607, 37215.766276808536, 46044.97355758829, 36665.3545695966, 45639.356450957835, 23876.75927600375, 25762.28538302009, -5535.655383545803, -307.0235618380978, -0.112, 0.986, 0.268, 192.0, 0.0, 0.0, 0.0, 0.0, 0.0, 0.0, 0.0, 0.0, 0.0, 1.7068828546320684E9, 0.0, 2024-02-02 15:07:34.632
210.0, 61081.34968058464, 64304.426527551004, -29251.03506458224, -741.1614943935269, 16668.209930444948, 7809.855974895475, 27623.001053691038, 4552.022165301105, 37212.39116339578, 46043.52069419869, 36666.49450856382, 45638.909416068724, 23879.463837082843, 25761.592478941977, -5533.420209100272, -312.5444427185587, -0.114, 0.982, 0.27, 192.0, 126.0, 56.0, 15.0, 88.0, 4.0, 56.0, 0.0, 0.0, 0.0, 1.706882854640056E9, 0.0, 2024-02-02 15:07:34.640
212.0, 61059.69084020744, 64281.76185867332, -29252.510279716287, -741.1614943935269, 16668.746372311874, 7809.274829539637, 27631.382957861777, 4556.4254589588, 37203.942203991675, 46049.06392682361, 36662.0018079283, 45634.90845381123, 23878.480360326812, 25759.80433938555, -5532.503787577604, -311.0915793289637, -0.114, 0.982, 0.27, 192.0, 0.0, 0.0, 0.0, 0.0, 0.0, 0.0, 0.0, 0.0, 0.0, 1.7068828546490755E9, 0.0, 2024-02-02 15:07:34.649
214.0, 61053.63351746005, 64276.64330919306, -29253.27023902777, -739.3062996037364, 16667.785247300297, 7810.526527229134, 27629.84068749436, 4555.844313602962, 37197.303735888454, 46038.13392378497, 36662.851174217605, 45633.947328799644, 23877.094552170583, 25761.01133358614, -5530.492130576627, -311.404503751338, -0.114, 0.982, 0.27, 192.0, 0.0, 0.0, 0.0, 0.0, 0.0, 0.0, 0.0, 0.0, 0.0, 1.706882854656429E9, 0.0, 2024-02-02 15:07:34.656
216.0, 61050.81719765869, 64275.45866673692, -29259.17109956397, -742.703764760943, 16659.24688091837, 7805.050349837584, 27618.240132122057, 4549.4070111998335, 37195.44854109866, 46035.809342361616, 36658.82786021565, 45627.68884035216, 23876.44635158138, 25757.747978895663, -5535.14129342333, -315.78544566457816, -0.114, 0.982, 0.27, 192.0, 0.0, 0.0, 0.0, 0.0, 0.0, 0.0, 0.0, 0.0, 0.0, 1.7068828546640856E9, 0.0, 2024-02-02 15:07:34.664
218.0, 61051.21952905888, 64276.397440004046, -29260.713369931385, -739.6639275150213, 16655.804712272253, 7803.239858536704, 27603.599739503832, 4541.807418085029, 37187.26780262802, 46038.469199951796, 36654.15634562449, 45630.192235731156, 23873.607680035555, 25758.351475995958, -5542.629127815858, -317.48417824318153, -0.114, 0.982, 0.27, 192.0, 0.0, 0.0, 0.0, 0.0, 0.0, 0.0, 0.0, 0.0, 0.0, 1.70688285467211E9, 0.0, 2024-02-02 15:07:34.672
220.0, 61062.238939075345, 64283.10296334064, -29255.371303006566, -734.4112675680242, 16668.92518626752, 7804.737425415209, 27639.027254465494, 4554.302043235546, 37188.921831717715, 46033.082429538066, 36660.25837186079, 45632.09213400986, 23877.943918459885, 25754.261106760634, -5537.152950424308, -315.40546600883795, -0.10400000000000001, 0.984, 0.266, 192.0, 126.0, 96.0, 15.0, 96.0, 4.0, 40.0, 0.0, 0.0, 0.0, 1.7068828546812823E9, 0.0, 2024-02-02 15:07:34.681
222.0, 61060.920186152485, 64279.70549818343, -29265.966029878382, -746.9282444629961, 16661.191482685983, 7796.959018344763, 27629.393652605257, 4546.657746631831, 37194.018029453524, 46042.023127320186, 36658.6043427711, 45628.73937234156, 23882.14604641748, 25755.892784105872, -5534.068409689476, -311.91859387381004, -0.10400000000000001, 0.984, 0.266, 192.0, 0.0, 0.0, 0.0, 0.0, 0.0, 0.0, 0.0, 0.0, 0.0, 1.706882854688229E9, 0.0, 2024-02-02 15:07:34.688
224.0, 61067.066915877695, 64286.031041864284, -29271.17398633647, -756.3159771342251, 16658.68808730699, 7793.807422376564, 27626.689091526165, 4542.23210122968, 37183.535061303985, 46024.25349047822, 36647.62963624354, 45615.19421520164, 23872.311278857145, 25742.749958366152, -5546.786552284545, -328.4588847707373, -0.10400000000000001, 0.984, 0.266, 192.0, 0.0, 0.0, 0.0, 0.0, 0.0, 0.0, 0.0, 0.0, 0.0, 1.7068828546961377E9, 0.0, 2024-02-02 15:07:34.696
226.0, 61077.549884027234, 64300.06793738222, -29271.576317736664, -752.9408637214738, 16659.24688091837, 7793.941532843296, 27625.415042092212, 4544.0649442750155, 37189.950011962654, 46036.32343248409, 36650.91534267847, 45620.98331701557, 23877.228662637313, 25747.48852819068, -5543.679659805258, -324.34616379096076, -0.10400000000000001, 0.984, 0.266, 192.0, 0.0, 0.0, 0.0, 0.0, 0.0, 0.0, 0.0, 0.0, 0.0, 1.7068828547051573E9, 0.0, 2024-02-02 15:07:34.705
228.0, 61088.9716254439, 64313.657798011045, -29271.97864913686, -749.9233782200073, 16657.63755531759, 7797.294294511592, 27615.6696815097, 4540.153388995336, 37189.65943928474, 46041.330223242076, 36648.00961589928, 45622.72675308309, 23876.82633123712, 25745.76744386762, -5549.021726730076, -324.74849519115634, -0.10400000000000001, 0.984, 0.266, 192.0, 0.0, 0.0, 0.0, 0.0, 0.0, 0.0, 0.0, 0.0, 0.0, 1.7068828547121644E9, 0.0, 2024-02-02 15:07:34.712
230.0, 61104.72960528488, 64332.679132542515, -29265.966029878382, -746.4588578294347, 16659.783322785297, 7801.809346891564, 27620.43060307868, 4546.076601275993, 37194.84504399837, 46040.838484864056, 36657.7996799707, 45628.225282219086, 23879.285023127202, 25747.779100868596, -5546.495979606626, -323.4744457572038, -0.10200000000000001, 0.976, 0.266, 192.0, 126.0, 104.0, 15.0, 64.0, 4.0, 40.0, 0.0, 0.0, 0.0, 1.7068828547201617E9, 0.0, 2024-02-02 15:07:34.720
232.0, 61126.18727996198, 64358.964784021955, -29261.562736220687, -738.8816164590855, 16662.644346075576, 7807.0620068385615, 27621.19056239016, 4548.892921077361, 37205.17154993672, 46061.60325546304, 36667.90266846451, 45638.909416068724, 23885.63291855251, 25757.52446145111, -5544.394915627828, -316.43364625378206, -0.10200000000000001, 0.976, 0.266, 192.0, 0.0, 0.0, 0.0, 0.0, 0.0, 0.0, 0.0, 0.0, 0.0, 1.7068828547285068E9, 0.0, 2024-02-02 15:07:34.728
234.0, 61146.683829627495, 64382.232949999925, -29253.560811705687, -730.5667675217113, 16669.439276389992, 7808.78309116162, 27634.065167196415, 4554.682022891286, 37214.156951207755, 46067.57117123261, 36683.21361341639, 45650.57702667439, 23891.95846223336, 25762.84417663147, -5537.108246935398, -315.02548635309773, -0.10200000000000001, 0.976, 0.266, 192.0, 0.0, 0.0, 0.0, 0.0, 0.0, 0.0, 0.0, 0.0, 0.0, 1.7068828547372477E9, 0.0, 2024-02-02 15:07:34.737
236.0, 61147.309678472244, 64386.21156051297, -29261.629791454056, -738.4569333144348, 16656.788189028288, 7798.501288712179, 27620.251789123035, 4544.266109975113, 37213.88873027429, 46079.55170626065, 36683.951220983414, 45655.8743901103, 23888.87392149853, 25760.6313539304, -5541.645651059825, -319.83111141098874, -0.10200000000000001, 0.976, 0.266, 192.0, 0.0, 0.0, 0.0, 0.0, 0.0, 0.0, 0.0, 0.0, 0.0, 1.7068828547442024E9, 0.0, 2024-02-02 15:07:34.744
238.0, 61152.96466981944, 64396.96274959597, -29261.585087965144, -740.9379769489739, 16656.475264605913, 7797.093128811494, 27616.85432396583, 4541.315679707012, 37206.87028251532, 46084.26792434072, 36676.9551249689, 45652.56633193092, 23882.928357473418, 25754.886955605383, -5547.725325551668, -325.2625853136284, -0.10200000000000001, 0.976, 0.266, 192.0, 0.0, 0.0, 0.0, 0.0, 0.0, 0.0, 0.0, 0.0, 0.0, 1.7068828547522132E9, 0.0, 2024-02-02 15:07:34.752
240.0, 61164.49816995838, 64410.99964511391, -29255.572468706665, -734.4559710569348, 16659.82802627421, 7799.596524190489, 27613.1662861307, 4541.449790173744, 37211.96648025113, 46089.699398243356, 36686.87929950706, 45659.6294831788, 23887.66692729794, 25759.357304496447, -5543.187921427241, -322.4909690011703, -0.10200000000000001, 0.976, 0.268, 192.0, 126.0, 104.0, 15.0, 64.0, 4.0, 48.0, 0.0, 0.0, 0.0, 1.7068828547602372E9, 0.0, 2024-02-02 15:07:34.760
242.0, 61168.074449071224, 64416.565229483276, -29257.673532685465, -738.7922094812643, 16660.520930352322, 7794.455622965768, 27622.554018801933, 4542.008583785127, 37214.49222737458, 46105.39032285098, 36689.53915709724, 45665.46328848163, 23891.60083432208, 25762.643010931377, -5543.500845849615, -319.9875736221759, -0.10200000000000001, 0.976, 0.268, 192.0, 0.0, 0.0, 0.0, 0.0, 0.0, 0.0, 0.0, 0.0, 0.0, 1.7068828547672439E9, 0.0, 2024-02-02 15:07:34.767
244.0, 61187.095783602694, 64435.005418658904, -29247.436433724935, -729.5609390212226, 16673.127314225116, 7807.039655094106, 27639.071957954402, 4556.112534536425, 37212.2347011846, 46092.60512502255, 36689.11447395259, 45663.92101811421, 23889.11979068754, 25756.652743417355, -5541.958575482199, -323.02741086809766, -0.10200000000000001, 0.976, 0.268, 192.0, 0.0, 0.0, 0.0, 0.0, 0.0, 0.0, 0.0, 0.0, 0.0, 1.7068828547762449E9, 0.0, 2024-02-02 15:07:34.776
246.0, 61183.00541436737, 64430.13273836765, -29257.807643152195, -737.2275873693928, 16667.852302533665, 7800.647056179889, 27627.739623515565, 4551.485723434177, 37220.66130884425, 46104.853880984054, 36695.73059031136, 45673.398157763266, 23898.284005914215, 25766.3310487665, -5533.554319567003, -314.6008032084469, -0.10200000000000001, 0.976, 0.268, 192.0, 0.0, 0.0, 0.0, 0.0, 0.0, 0.0, 0.0, 0.0, 0.0, 1.706882854784544E9, 0.0, 2024-02-02 15:07:34.784
248.0, 61190.940283649004, 64437.0617791488, -29258.187622807938, -737.1381803915716, 16675.898930537573, 7808.604277205977, 27647.632676080786, 4562.728650895197, 37209.2842709165, 46101.6799332714, 36682.81128201619, 45665.060957081434, 23890.282081399215, 25760.6313539304, -5538.516406836082, -313.5279194745922, -0.10200000000000001, 0.976, 0.268, 192.0, 0.0, 0.0, 0.0, 0.0, 0.0, 0.0, 0.0, 0.0, 0.0, 1.706882854792276E9, 0.0, 2024-02-02 15:07:34.792
250.0, 61192.01316738286, 64441.174500128574, -29263.149710077014, -742.9496339499515, 16672.143837469084, 7806.279695782626, 27642.268257411513, 4560.3817177273895, 37211.25122442856, 46094.728540745804, 36687.12516869607, 45667.586704204885, 23895.24416866829, 25761.4807202197, -5530.38037185435, -307.11296881591903, -0.106, 0.978, 0.27, 192.0, 126.0, 88.0, 15.0, 72.0, 4.0, 56.0, 0.0, 0.0, 0.0, 1.706882854800308E9, 0.0, 2024-02-02 15:07:34.800
252.0, 61195.61179824016, 64444.259040863406, -29262.210936809894, -744.8495322286526, 16668.791075800786, 7802.479899225224, 27631.159440417225, 4555.2184647582135, 37203.875148758314, 46101.41171233794, 36680.821976759675, 45663.65279718075, 23890.215026165846, 25756.071598061517, -5538.784627769545, -314.42198925280445, -0.106, 0.978, 0.27, 192.0, 0.0, 0.0, 0.0, 0.0, 0.0, 0.0, 0.0, 0.0, 0.0, 1.7068828548085785E9, 0.0, 2024-02-02 15:07:34.808
254.0, 61202.67494948804, 64452.842110734244, -29259.260506541792, -735.3500408351471, 16673.373183414125, 7809.096015583995, 27640.61422832182, 4560.135848538381, 37206.64676507077, 46098.77420649221, 36688.17570068547, 45665.88797162628, 23893.925415745427, 25755.512804450133, -5535.878900990356, -317.1041985874413, -0.106, 0.978, 0.27, 192.0, 0.0, 0.0, 0.0, 0.0, 0.0, 0.0, 0.0, 0.0, 0.0, 1.7068828548163223E9, 0.0, 2024-02-02 15:07:34.816
0.0, 61208.10642339068, 64459.45822709301, -29260.84748039812, -728.0857238871722, 16667.20410194446, 7809.654809195377, 27630.28772238347, 4556.179589769792, 37206.467951115126, 46108.139587418984, 36690.477930364366, 45670.35832051734, 23895.44533436839, 25762.754769653653, -5536.728267279657, -312.1644630628184, -0.106, 0.978, 0.27, 192.0, 0.0, 0.0, 0.0, 0.0, 0.0, 0.0, 0.0, 0.0, 0.0, 1.7068828548233335E9, 0.0, 2024-02-02 15:07:34.823
2.0, 61218.81290898477, 64470.812913276306, -29259.707541430897, -725.4258662969908, 16668.031116489306, 7812.180556318826, 27636.65796955323, 4558.481819448688, 37205.64093657028, 46120.05306721367, 36694.43418913295, 45676.281532798, 23892.740773289297, 25763.71589466523, -5542.0032789711095, -308.20820429422906, -0.106, 0.978, 0.27, 192.0, 0.0, 0.0, 0.0, 0.0, 0.0, 0.0, 0.0, 0.0, 0.0, 1.7068828548326235E9, 0.0, 2024-02-02 15:07:34.832
4.0, 61224.1996793985, 64477.83136103528, -29259.864003642084, -728.1974826094488, 16667.49467462238, 7806.346751015992, 27636.725024786596, 4555.844313602962, 37213.21817794063, 46120.544805591686, 36706.347668927636, 45687.792681192484, 23900.094497215094, 25769.281479034602, -5534.403685856305, -304.00607633663134, -0.108, 0.98, 0.272, 192.0, 126.0, 80.0, 15.0, 80.0, 4.0, 64.0, 0.0, 0.0, 0.0, 1.706882854840338E9, 0.0, 2024-02-02 15:07:34.840
6.0, 61234.90616499259, 64490.90713154163, -29254.27606752826, -725.5376250192672, 16668.34404091168, 7807.30787602757, 27633.305207884936, 4555.151409524848, 37211.69825931767, 46129.194930695885, 36703.330183426166, 45687.435053281195, 23897.501694858278, 25764.319391765523, -5542.517369093582, -316.83597765397764, -0.108, 0.98, 0.272, 192.0, 0.0, 0.0, 0.0, 0.0, 0.0, 0.0, 0.0, 0.0, 0.0, 1.7068828548473651E9, 0.0, 2024-02-02 15:07:34.847
8.0, 61241.298763906816, 64500.20545723504, -29248.88929711453, -719.3014883162366, 16668.72402056742, 7808.514870228157, 27624.744489758552, 4551.999813556649, 37217.9343960207, 46125.84216902759, 36715.19895973193, 45696.21928885213, 23904.140162961503, 25770.019086601627, -5535.588328312437, -313.5055677301369, -0.108, 0.98, 0.272, 192.0, 0.0, 0.0, 0.0, 0.0, 0.0, 0.0, 0.0, 0.0, 0.0, 1.706882854855522E9, 0.0, 2024-02-02 15:07:34.855
10.0, 61239.62238307267, 64502.7759078474, -29249.157518047992, -717.9603836489182, 16664.231319931903, 7804.960942859762, 27623.917475213704, 4551.373964711901, 37215.65451808626, 46129.01611674024, 36719.37873594508, 45702.14250113279, 23903.44725888339, 25770.823749402018, -5535.163645167786, -312.1868148072737, -0.108, 0.98, 0.272, 192.0, 0.0, 0.0, 0.0, 0.0, 0.0, 0.0, 0.0, 0.0, 0.0, 1.7068828548643947E9, 0.0, 2024-02-02 15:07:34.864
12.0, 61243.42217963007, 64505.81574509332, -29245.44712846841, -709.9137556450077, 16669.416924645535, 7811.4653004962565, 27624.431565336177, 4555.464333947222, 37211.81001803995, 46139.56614012315, 36718.12703825558, 45703.34949533338, 23902.2402646828, 25771.069618591027, -5534.180168411752, -308.7893496500671, -0.108, 0.98, 0.272, 192.0, 0.0, 0.0, 0.0, 0.0, 0.0, 0.0, 0.0, 0.0, 0.0, 1.70688285487238E9, 0.0, 2024-02-02 15:07:34.872
14.0, 61247.289031420834, 64510.26374223993, -29242.69786390041, -704.4152265090021, 16675.20602645946, 7814.326323786537, 27634.735719530076, 4560.068793305015, 37216.101552975364, 46142.65068085798, 36726.28542498177, 45711.485530315105, 23909.772802564243, 25778.28923205009, -5523.004296184099, -297.3899599778605, -0.10600000000000001, 0.98, 0.273, 192.0, 126.0, 96.0, 15.0, 80.0, 4.0, 72.0, 0.0, 0.0, 0.0, 1.7068828548794024E9, 0.0, 2024-02-02 15:07:34.879
16.0, 61237.74483653842, 64504.0723090258, -29251.102119815605, -712.9088894020188, 16669.90866302355, 7809.252477795181, 27631.382957861777, 4557.2748252481015, 37207.8314075269, 46146.69634660439, 36715.6683463655, 45705.47291105663, 23904.050755983684, 25772.72364768072, -5528.525177064559, -302.1955850357515, -0.10600000000000001, 0.98, 0.273, 192.0, 0.0, 0.0, 0.0, 0.0, 0.0, 0.0, 0.0, 0.0, 0.0, 1.7068828548876994E9, 0.0, 2024-02-02 15:07:34.887
18.0, 61243.735104052445, 64513.750614374956, -29242.74256738932, -704.124653831083, 16682.224474218427, 7825.1445681029045, 27650.069016226415, 4575.133869067892, 37206.400895881765, 46143.880026803025, 36718.81994233369, 45705.58466977891, 23909.281064186223, 25778.423342516824, -5521.506729305593, -294.6406954098577, -0.10600000000000001, 0.98, 0.273, 192.0, 0.0, 0.0, 0.0, 0.0, 0.0, 0.0, 0.0, 0.0, 0.0, 1.7068828548964396E9, 0.0, 2024-02-02 15:07:34.896
20.0, 61249.948889011015, 64519.45030921105, -29241.55792493319, -701.5765549631781, 16679.96694802844, 7826.753893703687, 27641.597705077853, 4571.758755655141, 37209.060753471946, 46149.825590828135, 36720.13869525656, 45709.20565238067, 23913.572599121642, 25786.201749587268, -5519.09274090442, -289.4774424406818, -0.10600000000000001, 0.98, 0.273, 192.0, 0.0, 0.0, 0.0, 0.0, 0.0, 0.0, 0.0, 0.0, 0.0, 1.7068828549034393E9, 0.0, 2024-02-02 15:07:34.903
22.0, 61242.036371473834, 64511.40368120715, -29256.69005592943, -715.3452295476473, 16667.87465427812, 7813.253440052681, 27625.929132214682, 4556.648976403353, 37207.719648804625, 46159.07921303263, 36719.758715600816, 45708.37863783582, 23913.930227032928, 25784.950051897773, -5528.301659620007, -296.2276692661845, -0.10600000000000001, 0.98, 0.273, 192.0, 0.0, 0.0, 0.0, 0.0, 0.0, 0.0, 0.0, 0.0, 0.0, 1.7068828549114332E9, 0.0, 2024-02-02 15:07:34.911
24.0, 61240.94113599553, 64504.25112298145, -29262.613268210087, -722.7213052178986, 16666.354735655157, 7807.2408207942035, 27626.46557408161, 4554.369098468912, 37202.9810789801, 46140.884893046015, 36709.67807885147, 45694.85583244036, 23904.900122272986, 25769.974383112716, -5537.644688802325, -309.37049500590507, -0.10700000000000001, 0.982, 0.2765, 192.0, 126.0, 80.0, 15.0, 96.0, 4.0, 96.0, 0.0, 0.0, 0.0, 1.7068828549205267E9, 0.0, 2024-02-02 15:07:34.920
26.0, 61239.1529964391, 64500.741899101966, -29266.59187872313, -727.1245988755941, 16660.945613496973, 7801.697588169288, 27618.88833271126, 4549.317604222012, 37200.32122138992, 46147.25514021578, 36704.91715728249, 45693.15709986175, 23903.24609318329, 25768.4321127453, -5541.869168504378, -312.4550357407374, -0.10700000000000001, 0.982, 0.2765, 192.0, 0.0, 0.0, 0.0, 0.0, 0.0, 0.0, 0.0, 0.0, 0.0, 1.706882854928585E9, 0.0, 2024-02-02 15:07:34.928
28.0, 61244.852691275206, 64506.86627708272, -29255.572468706665, -716.8874999150635, 16664.00780248735, 7809.319533028547, 27620.452954823133, 4553.676194390797, 37198.04134345548, 46142.65068085798, 36710.30392769622, 45697.158062119255, 23904.09545947259, 25767.560394711545, -5539.522235336571, -315.02548635309773, -0.10700000000000001, 0.982, 0.2765, 192.0, 0.0, 0.0, 0.0, 0.0, 0.0, 0.0, 0.0, 0.0, 0.0, 1.706882854935508E9, 0.0, 2024-02-02 15:07:34.935
30.0, 61242.483406362946, 64507.8274020943, -29256.5559454627, -716.9769068928847, 16662.57729084221, 7804.335094015014, 27621.65994902372, 4550.189322255769, 37201.46116035714, 46145.981090781825, 36717.165913244, 45704.40002732277, 23909.81750605315, 25771.807226158053, -5532.660249788792, -308.7446461611565, -0.10700000000000001, 0.982, 0.2765, 192.0, 0.0, 0.0, 0.0, 0.0, 0.0, 0.0, 0.0, 0.0, 0.0, 1.706882854943806E9, 0.0, 2024-02-02 15:07:34.943
32.0, 61242.52810985185, 64508.78852710588, -29257.673532685465, -714.8758429140858, 16667.092343222183, 7808.201945805782, 27630.555943316933, 4554.972595569205, 37192.92279397521, 46155.70409961988, 36711.73443934136, 45705.29409710099, 23906.040061240205, 25768.230947045202, -5537.018839957576, -311.1362828178743, -0.10700000000000001, 0.982, 0.2765, 192.0, 0.0, 0.0, 0.0, 0.0, 0.0, 0.0, 0.0, 0.0, 0.0, 1.7068828549526365E9, 0.0, 2024-02-02 15:07:34.952
34.0, 61255.29095593584, 64520.165565033625, -29243.815451123173, -702.7611974193094, 16677.329442182712, 7815.734483687221, 27636.300341641945, 4561.096973549959, 37196.72259053261, 46158.56512291016, 36721.1668755015, 45711.73139950412, 23914.6454828555, 25774.668249448332, -5528.055790430998, -304.09548331445257, -0.10750000000000001, 0.985, 0.27725, 192.0, 126.0, 80.0, 15.0, 112.0, 4.0, 88.0, 0.0, 0.0, 0.0, 1.7068828549596367E9, 0.0, 2024-02-02 15:07:34.959
36.0, 61250.15005471111, 64514.55527717534, -29245.760052890786, -703.5435084752451, 16675.809523559754, 7810.750044673687, 27631.315902628412, 4557.811267115029, 37199.337744633885, 46172.08792830562, 36728.67706163848, 45722.683754287216, 23921.798041081198, 25781.32906929601, -5521.1043979053975, -298.99928557864257, -0.10750000000000001, 0.985, 0.27725, 192.0, 0.0, 0.0, 0.0, 0.0, 0.0, 0.0, 0.0, 0.0, 0.0, 1.7068828549680295E9, 0.0, 2024-02-02 15:07:34.968
38.0, 61253.92749952406, 64516.56693417632, -29242.608456922586, -703.6552671975217, 16680.928073040017, 7813.87928889743, 27633.841649751863, 4561.633415416886, 37194.39800910926, 46162.32021597865, 36730.398145961546, 45717.229928640125, 23918.93701779092, 25776.992830871684, -5522.780778739546, -304.1848902922738, -0.10750000000000001, 0.985, 0.27725, 192.0, 0.0, 0.0, 0.0, 0.0, 0.0, 0.0, 0.0, 0.0, 0.0, 1.706882854975891E9, 0.0, 2024-02-02 15:07:34.975
40.0, 61251.46880763398, 64513.28122774139, -29244.821279623662, -711.3442672901473, 16681.531570140312, 7811.130024329427, 27637.932018987183, 4562.2592642616355, 37189.59238405137, 46160.33091072213, 36727.53712267127, 45707.082236657414, 23920.903971302985, 25773.751827925662, -5520.9032322053, -302.1732332912962, -0.10750000000000001, 0.985, 0.27725, 192.0, 0.0, 0.0, 0.0, 0.0, 0.0, 0.0, 0.0, 0.0, 0.0, 1.7068828549836223E9, 0.0, 2024-02-02 15:07:34.983
42.0, 61250.17240645557, 64512.09658528526, -29247.32467500266, -709.5337759892674, 16681.86684630714, 7817.388512776914, 27639.630751565786, 4564.4273834738, 37187.536023561486, 46165.00242531329, 36725.65957613702, 45705.94229769019, 23923.6979393599, 25776.992830871684, -5521.640839772325, -304.83309088147774, -0.10750000000000001, 0.985, 0.27725, 192.0, 0.0, 0.0, 0.0, 0.0, 0.0, 0.0, 0.0, 0.0, 0.0, 1.7068828549916048E9, 0.0, 2024-02-02 15:07:34.991
44.0, 61246.46201687599, 64508.29678872786, -29252.17500354946, -705.7339794318652, 16674.11079098115, 7815.108634842472, 27625.236228136568, 4557.319528737013, 37186.70900901664, 46158.98980605481, 36727.023032548794, 45707.216347124144, 23926.35779695008, 25778.758618683652, -5522.892537461822, -302.9108408583213, -0.10675000000000001, 0.9844999999999999, 0.277625, 192.0, 126.0, 88.0, 15.0, 96.0, 4.0, 88.0, 0.0, 0.0, 0.0, 1.7068828549995904E9, 0.0, 2024-02-02 15:07:34.999
46.0, 61242.751627296406, 64506.03926253787, -29258.16527106348, -709.8019969227311, 16672.121485724627, 7812.8734603969415, 27629.505411327533, 4557.587749670476, 37182.350418847855, 46164.60009391309, 36720.451619678934, 45704.46708255614, 23921.73098584783, 25779.742095439684, -5531.006220699099, -304.58722169246937, -0.10675000000000001, 0.9844999999999999, 0.277625, 192.0, 0.0, 0.0, 0.0, 0.0, 0.0, 0.0, 0.0, 0.0, 0.0, 1.7068828550086138E9, 0.0, 2024-02-02 15:07:35.008
48.0, 61246.90905176509, 64512.18599226308, -29257.204146051903, -708.3714852775914, 16675.5860061152, 7818.237879066215, 27633.662835796218, 4561.812229372529, 37175.44372981116, 46157.13461126502, 36716.40595393252, 45698.074483641925, 23918.333520690623, 25776.47874074921, -5534.291927134029, -307.3588380049274, -0.10675000000000001, 0.9844999999999999, 0.277625, 192.0, 0.0, 0.0, 0.0, 0.0, 0.0, 0.0, 0.0, 0.0, 0.0, 1.7068828550156088E9, 0.0, 2024-02-02 15:07:35.015
50.0, 61250.39592390012, 64518.19861152156, -29255.572468706665, -702.738845674854, 16675.16132297055, 7818.707265699776, 27631.09238518386, 4560.225255516202, 37180.674038013705, 46166.20941951388, 36721.278634223774, 45703.885937200306, 23925.620189383055, 25782.714877452243, -5531.1403311658305, -302.5755646914917, -0.10675000000000001, 0.9844999999999999, 0.277625, 192.0, 0.0, 0.0, 0.0, 0.0, 0.0, 0.0, 0.0, 0.0, 0.0, 1.7068828550236535E9, 0.0, 2024-02-02 15:07:35.023
52.0, 61243.98097324145, 64510.28609398438, -29259.618134453078, -709.1314445890719, 16665.952404254964, 7808.045483594595, 27615.155591387225, 4547.015374543116, 37177.723607745604, 46169.78569862672, 36721.12217201259, 45707.506919802065, 23926.31309346117, 25783.139560596894, -5534.493092834126, -305.0119048371202, -0.10675000000000001, 0.9844999999999999, 0.277625, 192.0, 0.0, 0.0, 0.0, 0.0, 0.0, 0.0, 0.0, 0.0, 0.0, 1.7068828550319104E9, 0.0, 2024-02-02 15:07:35.031
54.0, 61256.36383966969, 64523.29480925737, -29246.2517912688, -698.3132002727033, 16678.849360805674, 7813.0522743525835, 27630.198315405647, 4555.6878513917745, 37174.43790131067, 46157.0452042872, 36722.977366802384, 45706.165815134744, 23925.799003338696, 25776.47874074921, -5536.057714945998, -313.72908517468994, -0.10337500000000001, 0.98725, 0.2758125, 192.0, 126.0, 112.0, 15.0, 120.0, 4.0, 72.0, 0.0, 0.0, 0.0, 1.7068828550396545E9, 0.0, 2024-02-02 15:07:35.039
56.0, 61247.020810487375, 64513.750614374956, -29254.298419272713, -705.7339794318652, 16673.999032258875, 7800.580000946522, 27631.56177181742, 4550.278729233591, 37180.249354869055, 46171.909114349975, 36726.30777672622, 45713.18426289371, 23932.97391330885, 25781.15025534037, -5529.575709053959, -309.4151984948157, -0.10337500000000001, 0.98725, 0.2758125, 192.0, 0.0, 0.0, 0.0, 0.0, 0.0, 0.0, 0.0, 0.0, 0.0, 1.7068828550476947E9, 0.0, 2024-02-02 15:07:35.047
58.0, 61246.529072109355, 64510.5766666623, -29250.02923608175, -699.0061043508177, 16678.469381149935, 7806.860841138464, 27634.623960807796, 4556.179589769792, 37173.11914838781, 46159.682710132925, 36721.32333771269, 45705.87524245682, 23929.21882024036, 25774.645897703875, -5530.536834065537, -316.03131485358654, -0.10337500000000001, 0.98725, 0.2758125, 192.0, 0.0, 0.0, 0.0, 0.0, 0.0, 0.0, 0.0, 0.0, 0.0, 1.7068828550557113E9, 0.0, 2024-02-02 15:07:35.055
60.0, 61243.91391800808, 64507.380367205194, -29248.48696571433, -695.7651014047982, 16679.02817476132, 7810.0571405955725, 27630.622998550298, 4560.001738071649, 37177.50009030105, 46159.32508222164, 36723.75967785832, 45709.42916982522, 23932.63863714202, 25781.01614487364, -5527.564052052981, -307.5823554494805, -0.10337500000000001, 0.98725, 0.2758125, 192.0, 0.0, 0.0, 0.0, 0.0, 0.0, 0.0, 0.0, 0.0, 0.0, 1.706882855064962E9, 0.0, 2024-02-02 15:07:35.064
62.0, 61224.51260382088, 64482.59228260426, -29257.98645710784, -707.8126916662087, 16673.30612818076, 7802.859878880964, 27627.784327004472, 4556.246645003158, 37179.39998857975, 46160.3979659555, 36718.842294078146, 45705.94229769019, 23927.98947429532, 25779.987964628694, -5534.224871900663, -310.0410473395643, -0.10337500000000001, 0.98725, 0.2758125, 192.0, 0.0, 0.0, 0.0, 0.0, 0.0, 0.0, 0.0, 0.0, 0.0, 1.706882855070762E9, 0.0, 2024-02-02 15:07:35.070
64.0, 61195.701205217985, 64444.50491005241, -29264.3567042776, -718.6532877270326, 16667.092343222183, 7793.561553187556, 27622.4199083352, 4547.618871643409, 37170.88397394228, 46125.66335507195, 36704.939509026946, 45684.171698590726, 23923.183849237426, 25766.018124344126, -5540.818636514979, -320.25579455563957, -0.1046875, 0.990625, 0.27790625, 192.0, 126.0, 88.0, 15.5, 8.0, 4.0, 96.0, 0.0, 0.0, 0.0, 1.7068828550797377E9, 0.0, 2024-02-02 15:07:35.079
66.0, 61171.650728184075, 64417.14637483912, -29265.11666358908, -716.9098516595187, 16664.320726909726, 7800.557649202067, 27611.244036107546, 4548.065906532515, 37175.75665423353, 46122.04237247019, 36693.40600888801, 45674.024006608015, 23919.96519803586, 25765.72755166621, -5545.601909828414, -319.7193526887122, -0.1046875, 0.990625, 0.27790625, 192.0, 0.0, 0.0, 0.0, 0.0, 0.0, 0.0, 0.0, 0.0, 0.0, 1.7068828550877628E9, 0.0, 2024-02-02 15:07:35.087
68.0, 61140.894727813575, 64377.53908366431, -29265.094311844627, -713.0429998687506, 16670.690974079487, 7808.112538827961, 27642.469423111612, 4566.751964897152, 37178.95295369065, 46103.9821629503, 36690.321468153175, 45664.74803265906, 23917.30534044568, 25767.3815807559, -5541.578595826459, -313.12558807439666, -0.1046875, 0.990625, 0.27790625, 192.0, 0.0, 0.0, 0.0, 0.0, 0.0, 0.0, 0.0, 0.0, 0.0, 1.7068828550957737E9, 0.0, 2024-02-02 15:07:35.095
70.0, 61115.167869945515, 64351.23108044042, -29278.639468984544, -719.0332673827729, 16655.15651168305, 7801.138794557905, 27620.095326911847, 4555.66549964732, 37189.16770090672, 46093.58860177858, 36688.26510766329, 45659.204800034146, 23913.192619465903, 25772.857758147453, -5537.354116124406, -303.38022749188275, -0.1046875, 0.990625, 0.27790625, 192.0, 0.0, 0.0, 0.0, 0.0, 0.0, 0.0, 0.0, 0.0, 0.0, 1.7068828551039476E9, 0.0, 2024-02-02 15:07:35.103
72.0, 61090.24567487785, 64326.21947839493, -29282.707486475407, -722.5648430067114, 16654.35184888266, 7799.820041635042, 27620.475306567587, 4552.46920019021, 37188.81007299544, 46074.50021201375, 36670.71898826587, 45640.36227945832, 23896.182941935414, 25760.56429869703, -5554.922587266277, -315.2490037976508, -0.1046875, 0.990625, 0.27790625, 192.0, 0.0, 0.0, 0.0, 0.0, 0.0, 0.0, 0.0, 0.0, 0.0, 1.7068828551117623E9, 0.0, 2024-02-02 15:07:35.111
74.0, 61083.7189654969, 64321.570315548226, -29276.918384661483, -719.3238400606919, 16659.515101851834, 7803.597486447989, 27623.828068235885, 4554.413801957822, 37197.34843937736, 46058.83163915058, 36674.049398189716, 45643.111544026324, 23900.116848959547, 25765.258165032647, -5540.1257324368635, -310.01869559510897, -0.10634375, 0.9903124999999999, 0.278953125, 192.0, 126.0, 80.0, 15.0, 120.0, 4.0, 96.0, 0.0, 0.0, 0.0, 1.7068828551199555E9, 0.0, 2024-02-02 15:07:35.119
76.0, 61063.04360187574, 64303.241885094874, -29288.161312122502, -735.9982414243509, 16656.519968094824, 7792.488669453701, 27624.632731036276, 4548.75881061063, 37201.59527082387, 46067.21354332132, 36665.68984576343, 45642.910378326225, 23897.658157069465, 25766.62162144442, -5543.545549338526, -313.6173264524134, -0.10634375, 0.9903124999999999, 0.278953125, 192.0, 0.0, 0.0, 0.0, 0.0, 0.0, 0.0, 0.0, 0.0, 0.0, 1.7068828551277702E9, 0.0, 2024-02-02 15:07:35.127
78.0, 61059.91435765199, 64293.04948962325, -29286.08259988816, -736.579386780189, 16664.34307865418, 7797.9648468452515, 27630.89121948376, 4554.637319402375, 37201.39410512377, 46042.76073488721, 36654.938656680424, 45624.98427927307, 23889.5891773211, 25752.18239452629, -5549.960499997199, -324.8826056578882, -0.10634375, 0.9903124999999999, 0.278953125, 192.0, 0.0, 0.0, 0.0, 0.0, 0.0, 0.0, 0.0, 0.0, 0.0, 1.7068828551359909E9, 0.0, 2024-02-02 15:07:35.135
80.0, 61054.214662815895, 64285.09226859716, -29286.641393499543, -734.5900815236666, 16663.069029220227, 7800.647056179889, 27622.2187426351, 4552.670365890309, 37213.46404712964, 46039.3185662411, 36661.867697461574, 45626.75006708504, 23897.52404660273, 25759.446711474266, -5540.595119070425, -314.2208235527067, -0.10634375, 0.9903124999999999, 0.278953125, 192.0, 0.0, 0.0, 0.0, 0.0, 0.0, 0.0, 0.0, 0.0, 0.0, 1.7068828551438296E9, 0.0, 2024-02-02 15:07:35.143
82.0, 61044.357543511105, 64276.330384770685, -29299.538350050254, -746.8164857407196, 16652.92133723752, 7786.073718795028, 27611.13227738527, 4537.001793027138, 37208.16668369373, 46041.039650564155, 36649.88716243353, 45619.37399141479, 23886.169360419437, 25753.4787957047, -5550.9216250087775, -325.75432369164514, -0.10634375, 0.9903124999999999, 0.278953125, 192.0, 0.0, 0.0, 0.0, 0.0, 0.0, 0.0, 0.0, 0.0, 0.0, 1.706882855152154E9, 0.0, 2024-02-02 15:07:35.152
84.0, 61047.73265692385, 64278.498503982846, -29293.257509858315, -742.3684885941135, 16657.928127995507, 7790.789936875098, 27614.999129176038, 4538.61111862792, 37214.447523885676, 46032.90361558242, 36649.149554866504, 45616.17769195768, 23885.96819471934, 25752.271801504114, -5547.4571046182045, -330.24702432716185, -0.105171875, 0.98315625, 0.2784765625, 192.0, 126.0, 96.0, 15.0, 64.0, 4.0, 88.0, 0.0, 0.0, 0.0, 1.70688285515979E9, 0.0, 2024-02-02 15:07:35.159
86.0, 61045.49748247832, 64277.13504757107, -29292.31873659119, -741.8543984716414, 16654.70947679394, 7787.772451373631, 27614.70855649812, 4536.890034304862, 37219.72253557712, 46040.50320869723, 36650.468307789364, 45619.150473970236, 23887.62222380903, 25756.563336439533, -5545.445447617227, -323.7650184351228, -0.105171875, 0.98315625, 0.2784765625, 192.0, 0.0, 0.0, 0.0, 0.0, 0.0, 0.0, 0.0, 0.0, 0.0, 1.7068828551681526E9, 0.0, 2024-02-02 15:07:35.168
88.0, 61051.08541859215, 64282.477114495894, -29295.068001159194, -745.967119451418, 16653.43542735999, 7788.085375796006, 27606.75133547203, 4532.643202858353, 37219.63312859931, 46031.40604870392, 36651.56354326767, 45618.12229372529, 23883.755372018262, 25751.869470103917, -5546.697145306724, -326.42487602530434, -0.105171875, 0.98315625, 0.2784765625, 192.0, 0.0, 0.0, 0.0, 0.0, 0.0, 0.0, 0.0, 0.0, 0.0, 1.7068828551769912E9, 0.0, 2024-02-02 15:07:35.176
90.0, 61059.84730241863, 64295.64229198007, -29297.70550700492, -747.9564247079402, 16655.491787849878, 7789.046500807584, 27615.401460576235, 4537.672345360797, 37229.57965488191, 46028.70148762483, 36652.16704036797, 45614.72482856808, 23882.660136539955, 25750.260144503136, -5549.62522383037, -329.7552859491451, -0.105171875, 0.98315625, 0.2784765625, 192.0, 0.0, 0.0, 0.0, 0.0, 0.0, 0.0, 0.0, 0.0, 0.0, 1.706882855183834E9, 0.0, 2024-02-02 15:07:35.183
92.0, 61066.88810192205, 64301.78902170528, -29301.862931473606, -747.5540933077447, 16650.82027325872, 7788.621817662933, 27608.584178517365, 4535.057191259527, 37235.79343984049, 46037.57513017358, 36651.85411594559, 45617.541148369455, 23881.184921405904, 25752.875298604406, -5550.631052330858, -327.07307661450824, -0.105171875, 0.98315625, 0.2784765625, 192.0, 0.0, 0.0, 0.0, 0.0, 0.0, 0.0, 0.0, 0.0, 0.0, 1.7068828551918848E9, 0.0, 2024-02-02 15:07:35.191
94.0, 61082.109639896116, 64317.16702189053, -29296.677326759975, -739.127485648094, 16656.6317268171, 7795.059120066062, 27615.89319895425, 4543.796723341551, 37243.437736444204, 46033.46240919381, 36660.43718581643, 45621.34094492685, 23883.33068887361, 25755.445749216768, -5545.892482506333, -321.5745474785027, -0.1025859375, 0.980578125, 0.27823828125000005, 192.0, 126.0, 112.0, 15.0, 72.0, 4.0, 88.0, 0.0, 0.0, 0.0, 1.7068828551998868E9, 0.0, 2024-02-02 15:07:35.199
96.0, 61097.08530868117, 64332.388559864594, -29298.376059338578, -741.2732531158034, 16654.195386671472, 7789.515887441145, 27618.910684455717, 4540.846293073451, 37250.165611525255, 46047.36519424501, 36660.86186896108, 45625.9677560291, 23882.05663943966, 25752.271801504114, -5546.898311006822, -326.3578207919384, -0.1025859375, 0.980578125, 0.27823828125000005, 192.0, 0.0, 0.0, 0.0, 0.0, 0.0, 0.0, 0.0, 0.0, 0.0, 1.7068828552068841E9, 0.0, 2024-02-02 15:07:35.206
98.0, 61113.983227489385, 64350.001734495374, -29297.571396538187, -735.3947443240577, 16657.6822588065, 7793.405090976369, 27619.98356818957, 4543.617909385909, 37265.14128031031, 46052.28257802517, 36672.708293522395, 45639.021174791, 23887.219892408837, 25755.602211427955, -5539.768104525579, -322.98270737918705, -0.1025859375, 0.980578125, 0.27823828125000005, 192.0, 0.0, 0.0, 0.0, 0.0, 0.0, 0.0, 0.0, 0.0, 0.0, 1.7068828552159019E9, 0.0, 2024-02-02 15:07:35.215
100.0, 61130.121186986114, 64369.8947870606, -29299.359536094613, -736.1323518910827, 16655.491787849878, 7790.231143263715, 27618.46364956661, 4541.047458773549, 37271.28801003552, 46059.077508339586, 36671.00956094379, 45644.94438707166, 23883.10717142906, 25756.13865329488, -5545.66896506178, -327.76598069262275, -0.1025859375, 0.980578125, 0.27823828125000005, 192.0, 0.0, 0.0, 0.0, 0.0, 0.0, 0.0, 0.0, 0.0, 0.0, 1.7068828552239268E9, 0.0, 2024-02-02 15:07:35.223
102.0, 61133.2280794654, 64379.3942784541, -29299.94068145045, -736.0205931688063, 16658.173997184516, 7789.180611274316, 27620.98939669006, 4540.019278528604, 37273.65729494778, 46070.83452592308, 36668.95320045391, 45650.822895863406, 23882.52602607322, 25757.993848084672, -5544.417267372282, -328.86121617093283, -0.1025859375, 0.980578125, 0.27823828125000005, 192.0, 0.0, 0.0, 0.0, 0.0, 0.0, 0.0, 0.0, 0.0, 0.0, 1.706882855231977E9, 0.0, 2024-02-02 15:07:35.231
104.0, 61152.16000701905, 64402.95301711, -29290.374134823578, -726.1634738640158, 16661.72792455291, 7793.986236332207, 27613.479210553076, 4537.247662216147, 37280.38517002883, 46074.2766945692, 36676.93277322445, 45657.729584900095, 23886.72815403082, 25760.966630097228, -5538.605813813903, -329.91174816033225, -0.10329296875, 0.9822890625, 0.27911914062500004, 192.0, 126.0, 96.0, 15.0, 96.0, 4.0, 96.0, 0.0, 0.0, 0.0, 1.70688285523896E9, 0.0, 2024-02-02 15:07:35.238
106.0, 61155.46806519843, 64403.86943863266, -29290.485893545854, -728.3539448206359, 16666.91352926654, 7795.528506699623, 27634.355739874332, 4548.982328055183, 37287.828300932444, 46089.297066843166, 36679.95025872591, 45663.13870705828, 23889.566825576643, 25767.269822033624, -5536.236528901641, -326.40252428084904, -0.10329296875, 0.9822890625, 0.27911914062500004, 192.0, 0.0, 0.0, 0.0, 0.0, 0.0, 0.0, 0.0, 0.0, 0.0, 1.7068828552480612E9, 0.0, 2024-02-02 15:07:35.248
108.0, 61165.88397811461, 64412.67602594806, -29285.613213254597, -724.8894244300634, 16673.708459580954, 7802.1893265473045, 27642.04473996696, 4557.721860137208, 37293.013905646076, 46083.686778984884, 36683.59359307213, 45661.35056750185, 23890.371488377034, 25764.744074910173, -5528.927508464755, -322.35685853443846, -0.10329296875, 0.9822890625, 0.27911914062500004, 192.0, 0.0, 0.0, 0.0, 0.0, 0.0, 0.0, 0.0, 0.0, 0.0, 1.7068828552559576E9, 0.0, 2024-02-02 15:07:35.255
110.0, 61169.6390711831, 64418.375720784155, -29285.926137676972, -728.8009797097421, 16672.21089270245, 7797.853088122975, 27636.41210036422, 4553.296214735057, 37302.75926622859, 46091.59929652206, 36688.60038383012, 45667.54200071598, 23893.81365702315, 25770.48847323519, -5525.440636329728, -317.23830905417316, -0.10329296875, 0.9822890625, 0.27911914062500004, 192.0, 0.0, 0.0, 0.0, 0.0, 0.0, 0.0, 0.0, 0.0, 0.0, 1.7068828552630084E9, 0.0, 2024-02-02 15:07:35.263
112.0, 61175.27171078583, 64426.489404021435, -29287.580166766664, -727.3704680646024, 16670.378049657113, 7797.0260735781285, 27630.4218328502, 4548.982328055183, 37304.279184851555, 46094.661485512435, 36685.359380884096, 45664.52451521451, 23892.807828522662, 25766.77808365561, -5530.290964876529, -322.4015620233491, -0.10329296875, 0.9822890625, 0.27911914062500004, 192.0, 0.0, 0.0, 0.0, 0.0, 0.0, 0.0, 0.0, 0.0, 0.0, 1.7068828552709758E9, 0.0, 2024-02-02 15:07:35.270
114.0, 61196.058833129275, 64448.014133931894, -29281.478140530366, -712.9759446353847, 16674.960157270452, 7807.710207427765, 27633.618132307307, 4555.084354291482, 37313.73397275615, 46096.67314251341, 36694.76946529978, 45673.42050950772, 23899.11102045906, 25772.321316280522, -5522.9819444396435, -315.36076251992733, -0.10329296875, 0.9822890625, 0.27911914062500004, 192.0, 0.0, 0.0, 0.0, 0.0, 0.0, 0.0, 0.0, 0.0, 0.0, 1.706882855280143E9, 0.0, 2024-02-02 15:07:35.280
116.0, 61203.25609484388, 64459.36882011519, -29287.289594088747, -710.1149213451054, 16668.276985678316, 7808.2913527836035, 27627.22553339309, 4552.849179845951, 37319.34426061443, 46117.48261660131, 36695.4623693779, 45682.3835590343, 23897.993433236294, 25780.97144138473, -5524.56891829597, -311.24804154015084, -0.112, 0.986, 0.278, 192.0, 126.0, 64.0, 15.0, 104.0, 4.0, 88.0, 0.0, 0.0, 0.0, 1.7068828552869985E9, 0.0, 2024-02-02 15:07:35.286
118.0, 61219.617571785166, 64476.24438717895, -29281.679306230464, -703.4764532418792, 16675.809523559754, 7817.83554766602, 27644.43637662368, 4564.874418362906, 37325.312176383995, 46118.35433463506, 36703.15136947052, 45690.00550389356, 23896.29470065769, 25787.274633321125, -5518.243374615118, -304.34135250346094, -0.112, 0.986, 0.278, 192.0, 0.0, 0.0, 0.0, 0.0, 0.0, 0.0, 0.0, 0.0, 0.0, 1.7068828552950609E9, 0.0, 2024-02-02 15:07:35.295
120.0, 61221.986856697426, 64479.91007326962, -29288.80951271171, -712.0818748571724, 16664.991279243386, 7805.475032982235, 27630.980626461584, 4552.648014145853, 37323.278167638564, 46114.01809621073, 36704.246604948836, 45689.49141377109, 23893.076049456125, 25783.273671063624, -5523.250165373107, -310.93511711777654, -0.112, 0.986, 0.278, 192.0, 0.0, 0.0, 0.0, 0.0, 0.0, 0.0, 0.0, 0.0, 0.0, 1.706882855304022E9, 0.0, 2024-02-02 15:07:35.304
122.0, 61233.36389462518, 64489.76719257441, -29286.79785571073, -710.5396044897562, 16664.074857720716, 7809.341884773003, 27628.030196193482, 4553.89971183535, 37329.223731663675, 46127.27268067273, 36707.95699452842, 45695.99577140758, 23889.5891773211, 25781.507883251656, -5528.882804975844, -314.44434099725976, -0.112, 0.986, 0.278, 192.0, 0.0, 0.0, 0.0, 0.0, 0.0, 0.0, 0.0, 0.0, 0.0, 1.706882855312096E9, 0.0, 2024-02-02 15:07:35.312
124.0, 61234.90616499259, 64492.71762284251, -29291.26820460179, -716.1275406035829, 16659.53745359629, 7806.525564971634, 27619.335367600368, 4551.843351345462, 37330.92246424228, 46121.014192225244, 36713.813151575705, 45698.23094585311, 23888.270424398237, 25782.603118729963, -5529.978040454154, -311.0915793289637, -0.112, 0.986, 0.278, 192.0, 0.0, 0.0, 0.0, 0.0, 0.0, 0.0, 0.0, 0.0, 0.0, 1.7068828553193924E9, 0.0, 2024-02-02 15:07:35.319
126.0, 61236.82841501575, 64495.846867066255, -29292.65401275802, -721.0896278726611, 16662.97962224241, 7801.362312002459, 27631.22649565059, 4552.558607168032, 37323.144057171834, 46122.71292480385, 36704.447770648934, 45692.64300973929, 23881.006107450263, 25773.930641881307, -5537.175302168764, -315.76309392012286, -0.10400000000000001, 0.986, 0.28, 192.0, 126.0, 96.0, 15.0, 104.0, 4.0, 96.0, 0.0, 0.0, 0.0, 1.7068828553271E9, 0.0, 2024-02-02 15:07:35.327
128.0, 61251.491159378435, 64510.241390495474, -29281.724009719375, -706.7845114212646, 16672.68027933601, 7812.2252598077375, 27633.685187540676, 4559.554703182543, 37328.15084792982, 46128.16675045094, 36715.17660798748, 45701.47194879913, 23887.86809299804, 25777.216348316237, -5528.9722119536655, -314.08671308597485, -0.10400000000000001, 0.986, 0.28, 192.0, 0.0, 0.0, 0.0, 0.0, 0.0, 0.0, 0.0, 0.0, 0.0, 1.7068828553360767E9, 0.0, 2024-02-02 15:07:35.336
130.0, 61252.541691367835, 64515.24818125346, -29281.6122509971, -704.7952061647424, 16674.02138400333, 7809.811271406565, 27638.535516087475, 4561.991043328171, 37335.728089300166, 46138.31444243365, 36724.38552670307, 45711.2396611261, 23896.96525299135, 25788.01224088815, -5521.573784538959, -309.28108802808384, -0.10400000000000001, 0.986, 0.28, 192.0, 0.0, 0.0, 0.0, 0.0, 0.0, 0.0, 0.0, 0.0, 0.0, 1.7068828553433435E9, 0.0, 2024-02-02 15:07:35.343
132.0, 61249.43479888854, 64513.50474518594, -29286.999021410826, -711.5230812457897, 16668.835779289697, 7805.989123104707, 27628.030196193482, 4553.743249624164, 37327.56970257398, 46140.70607909037, 36714.39429693155, 45702.00839066606, 23888.96332847635, 25781.61964197393, -5531.609717799392, -319.7640561776228, -0.10400000000000001, 0.986, 0.28, 192.0, 0.0, 0.0, 0.0, 0.0, 0.0, 0.0, 0.0, 0.0, 0.0, 1.7068828553511164E9, 0.0, 2024-02-02 15:07:35.351
134.0, 61251.78173205635, 64519.33855048878, -29277.857157928607, -702.157700319016, 16672.054430491262, 7810.660637695866, 27626.957312459628, 4557.453639203744, 37323.144057171834, 46130.82660804113, 36715.89186381005, 45699.90732668726, 23889.09743894308, 25779.071543106027, -5534.962479467688, -321.1722160783072, -0.10400000000000001, 0.986, 0.28, 192.0, 0.0, 0.0, 0.0, 0.0, 0.0, 0.0, 0.0, 0.0, 0.0, 1.706882855360152E9, 0.0, 2024-02-02 15:07:35.360
136.0, 61252.63109834565, 64518.86916385522, -29279.220614340382, -701.3977410075356, 16665.080686221205, 7808.82779465053, 27607.958329672616, 4551.7539443676405, 37333.828191021465, 46143.36593668055, 36721.83742783516, 45708.15512039127, 23893.791305278697, 25788.414572288344, -5529.598060798414, -310.1304543173855, -0.10200000000000001, 0.994, 0.272, 192.0, 126.0, 104.0, 15.5, 8.0, 4.0, 64.0, 0.0, 0.0, 0.0, 1.7068828553683076E9, 0.0, 2024-02-02 15:07:35.368
138.0, 61260.02952576036, 64526.5805156923, -29266.79304442323, -686.4444239669352, 16680.123410239627, 7824.429312280335, 27637.90966724273, 4573.993930100672, 37334.8116677775, 46138.22503545583, 36727.917102327, 45710.457350070166, 23896.29470065769, 25792.281424079112, -5526.088836918931, -305.1013118149414, -0.10200000000000001, 0.994, 0.272, 192.0, 0.0, 0.0, 0.0, 0.0, 0.0, 0.0, 0.0, 0.0, 0.0, 1.706882855375144E9, 0.0, 2024-02-02 15:07:35.375
140.0, 61253.592223357235, 64520.657303411645, -29275.17494859397, -696.4356537384574, 16669.998070001373, 7811.9346871298185, 27634.668664296707, 4566.640206174875, 37337.337414900954, 46142.404811668974, 36730.19698026145, 45715.6429547838, 23897.63580532501, 25793.15314211287, -5520.18797638273, -302.7990821360448, -0.10200000000000001, 0.994, 0.272, 192.0, 0.0, 0.0, 0.0, 0.0, 0.0, 0.0, 0.0, 0.0, 0.0, 1.7068828553831356E9, 0.0, 2024-02-02 15:07:35.383
142.0, 61253.27929893486, 64518.064501054825, -29273.632678226553, -693.775796148276, 16672.792038058287, 7814.192213319804, 27636.166231175215, 4569.3671189984225, 37333.850542765926, 46147.098678004586, 36726.397183704044, 45714.68182977222, 23891.10909594406, 25786.268804820636, -5525.552395052004, -309.2140327947179, -0.10200000000000001, 0.994, 0.272, 192.0, 0.0, 0.0, 0.0, 0.0, 0.0, 0.0, 0.0, 0.0, 0.0, 1.7068828553921988E9, 0.0, 2024-02-02 15:07:35.392
144.0, 61238.21422317198, 64497.67971011159, -29273.99030613784, -696.0556740827172, 16672.702631080465, 7811.979390618729, 27627.963140960117, 4565.679081163297, 37332.10710669841, 46135.27460518773, 36726.061907537216, 45708.57980353592, 23892.137276189005, 25784.413610030846, -5525.395932840816, -312.1868148072737, -0.10200000000000001, 0.994, 0.272, 192.0, 0.0, 0.0, 0.0, 0.0, 0.0, 0.0, 0.0, 0.0, 0.0, 1.7068828553991468E9, 0.0, 2024-02-02 15:07:35.399
146.0, 61212.062682159274, 64468.53303534187, -29279.242966084836, -704.8175579091976, 16671.674450835522, 7803.821003892542, 27635.070995696904, 4563.645072417864, 37326.74268802914, 46129.66431732945, 36717.05415452173, 45699.86262319835, 23891.913758744453, 25781.641993718385, -5526.580575296948, -311.67272468480166, -0.1, 0.99, 0.266, 192.0, 126.0, 112.0, 15.0, 120.0, 4.0, 40.0, 0.0, 0.0, 0.0, 1.7068828554073384E9, 0.0, 2024-02-02 15:07:35.407
148.0, 61182.22310331144, 64438.26877334938, -29283.132169620058, -712.9312411464741, 16671.5850438577, 7800.423538735336, 27626.733795015076, 4557.610101414932, 37314.71744951218, 46111.514700831736, 36706.8617590501, 45687.61386723684, 23889.209197665357, 25774.712952937243, -5528.167549153274, -317.17125382080724, -0.1, 0.99, 0.266, 192.0, 0.0, 0.0, 0.0, 0.0, 0.0, 0.0, 0.0, 0.0, 0.0, 1.7068828554152155E9, 0.0, 2024-02-02 15:07:35.415
150.0, 61150.03659129579, 64402.3495200097, -29284.540329520743, -711.7689504347981, 16673.82021830323, 7803.977466103729, 27624.789193247463, 4560.024089816105, 37301.28405109454, 46096.67314251341, 36696.37879090056, 45676.7285676871, 23889.142142431992, 25769.303830779056, -5530.04509568752, -321.082809100486, -0.1, 0.99, 0.266, 192.0, 0.0, 0.0, 0.0, 0.0, 0.0, 0.0, 0.0, 0.0, 0.0, 1.7068828554232423E9, 0.0, 2024-02-02 15:07:35.423
152.0, 61128.176585218505, 64369.93949054951, -29284.830902198664, -712.6853719574657, 16674.20019795897, 7805.363274259958, 27629.170135160704, 4560.515828194121, 37287.47067302116, 46089.11825288752, 36688.82390127467, 45667.67611118271, 23887.331651131113, 25771.024915102116, -5529.821578242967, -319.2946695440614, -0.1, 0.99, 0.266, 192.0, 0.0, 0.0, 0.0, 0.0, 0.0, 0.0, 0.0, 0.0, 0.0, 1.7068828554311955E9, 0.0, 2024-02-02 15:07:35.431
154.0, 61111.05514896574, 64347.31952516074, -29284.98736440985, -712.6853719574657, 16674.468418892433, 7808.201945805782, 27628.36547236031, 4562.1475055393585, 37279.91578339527, 46070.476898011795, 36689.38269488605, 45660.16592504572, 23889.633880810008, 25769.773217412618, -5525.485339818638, -316.6795154427905, -0.1, 0.99, 0.266, 192.0, 0.0, 0.0, 0.0, 0.0, 0.0, 0.0, 0.0, 0.0, 0.0, 1.7068828554395375E9, 0.0, 2024-02-02 15:07:35.439
156.0, 61089.75393649983, 64323.87254522712, -29299.180722138968, -726.2975843307477, 16662.309069908748, 7796.40022473338, 27617.860152466317, 4546.545987909554, 37271.91385888027, 46067.615874721516, 36676.86571799108, 45648.297148739955, 23883.57655806262, 25766.174586555313, -5532.235566644141, -320.3899050223714, -0.10400000000000001, 0.992, 0.266, 192.0, 126.0, 96.0, 15.5, 0.0, 4.0, 40.0, 0.0, 0.0, 0.0, 1.7068828554482312E9, 0.0, 2024-02-02 15:07:35.448
158.0, 61090.93857895596, 64325.16894640553, -29294.442152314445, -719.3461918051472, 16665.572424599224, 7804.916239370852, 27621.257617623523, 4550.256377489135, 37260.73798665262, 46059.50219148424, 36668.03677893124, 45637.63536663477, 23874.255880624758, 25759.692580663275, -5540.326898136962, -326.42487602530434, -0.10400000000000001, 0.992, 0.266, 192.0, 0.0, 0.0, 0.0, 0.0, 0.0, 0.0, 0.0, 0.0, 0.0, 1.706882855455282E9, 0.0, 2024-02-02 15:07:35.455
160.0, 61076.83462820466, 64310.081518898194, -29300.007736683816, -723.5706715072002, 16661.079723963707, 7798.702454412277, 27616.295530354444, 4545.495455920155, 37268.337579767416, 46066.699453198846, 36675.6587237905, 45645.05614579393, 23881.699011528377, 25770.689638935288, -5532.056752688498, -318.1100270879301, -0.10400000000000001, 0.992, 0.266, 192.0, 0.0, 0.0, 0.0, 0.0, 0.0, 0.0, 0.0, 0.0, 0.0, 1.7068828554634109E9, 0.0, 2024-02-02 15:07:35.463
162.0, 61068.31861356719, 64303.26423683933, -29306.377983853577, -724.9117761745186, 16657.05640996175, 7796.534335200112, 27606.728983727575, 4538.365249438912, 37248.17630626873, 46052.707261169824, 36660.23602011633, 45630.46045666462, 23866.72334274332, 25757.32329575101, -5546.205406928708, -329.7105824602345, -0.10400000000000001, 0.992, 0.266, 192.0, 0.0, 0.0, 0.0, 0.0, 0.0, 0.0, 0.0, 0.0, 0.0, 1.7068828554712727E9, 0.0, 2024-02-02 15:07:35.471
164.0, 61079.20391311692, 64315.53534454529, -29302.287614618257, -718.7203429603986, 16663.7842850428, 7800.423538735336, 27616.65315826573, 4545.406048942334, 37250.90321909228, 46052.371985002996, 36671.43424408844, 45641.993956803555, 23872.892424212983, 25764.52055746562, -5536.057714945998, -321.70865794523456, -0.10400000000000001, 0.992, 0.266, 192.0, 0.0, 0.0, 0.0, 0.0, 0.0, 0.0, 0.0, 0.0, 0.0, 1.706882855479342E9, 0.0, 2024-02-02 15:07:35.479
166.0, 61072.453686291425, 64310.01446366483, -29316.816248514206, -733.3383838341695, 16650.44029360298, 7789.426480463324, 27605.454934293623, 4534.856025559428, 37240.08497477591, 46058.54106647266, 36661.107738150095, 45634.34966019984, 23866.991563676784, 25759.20084228526, -5547.077124962464, -328.3471260484607, -0.10400000000000001, 0.984, 0.27, 192.0, 126.0, 96.0, 15.0, 96.0, 4.0, 56.0, 0.0, 0.0, 0.0, 1.7068828554873197E9, 0.0, 2024-02-02 15:07:35.487
168.0, 61092.63731153456, 64328.052321440264, -29308.166123410003, -725.1576453635271, 16658.26340416234, 7798.344826500992, 27615.60262627633, 4542.545025652054, 37248.01984405754, 46060.373909518, 36667.65679927549, 45637.680070123686, 23868.19855787737, 25757.70327540675, -5545.534854595048, -327.78833243707805, -0.10400000000000001, 0.984, 0.27, 192.0, 0.0, 0.0, 0.0, 0.0, 0.0, 0.0, 0.0, 0.0, 0.0, 1.7068828554953241E9, 0.0, 2024-02-02 15:07:35.495
170.0, 61098.62757904859, 64338.28942040079, -29315.832771758174, -732.1313896335828, 16650.61910755862, 7787.995968818184, 27606.706631983117, 4533.984307525672, 37245.56115216746, 46061.84912465204, 36665.13105215205, 45638.08240152388, 23863.86231945304, 25754.99871432766, -5548.977023241166, -331.90105341685455, -0.10400000000000001, 0.984, 0.27, 192.0, 0.0, 0.0, 0.0, 0.0, 0.0, 0.0, 0.0, 0.0, 0.0, 1.7068828555043745E9, 0.0, 2024-02-02 15:07:35.504
172.0, 61117.60421009114, 64360.86468230066, -29312.211789156412, -726.6552122420326, 16653.748351782364, 7790.432308963813, 27609.411193062213, 4534.856025559428, 37253.49602144909, 46085.363159819026, 36671.74716851082, 45647.55954117293, 23868.310316599647, 25760.832519630494, -5546.42892437326, -328.57064349301385, -0.10400000000000001, 0.984, 0.27, 192.0, 0.0, 0.0, 0.0, 0.0, 0.0, 0.0, 0.0, 0.0, 0.0, 1.7068828555103316E9, 0.0, 2024-02-02 15:07:35.510
174.0, 61132.28930619828, 64377.51673191986, -29308.635510043565, -721.7378284618651, 16653.614241315634, 7790.074681052528, 27602.75037321453, 4532.576147624987, 37251.417309214754, 46082.68095048439, 36675.569316812675, 45651.82872436389, 23866.812749721143, 25758.485586462688, -5547.054773218009, -328.14596034836296, -0.10400000000000001, 0.984, 0.27, 192.0, 0.0, 0.0, 0.0, 0.0, 0.0, 0.0, 0.0, 0.0, 0.0, 1.7068828555195754E9, 0.0, 2024-02-02 15:07:35.519
176.0, 61142.12407375861, 64390.88307510413, -29308.300233876736, -720.9108139170187, 16654.798883771764, 7789.001797318673, 27608.09244013935, 4534.565452881509, 37257.83225987342, 46100.40588383745, 36679.81614825918, 45659.58477968988, 23870.076104411615, 25761.10074056396, -5544.663136561291, -326.9613178922317, -0.10400000000000001, 0.98, 0.272, 192.0, 126.0, 96.0, 15.0, 80.0, 4.0, 64.0, 0.0, 0.0, 0.0, 1.706882855527356E9, 0.0, 2024-02-02 15:07:35.527
178.0, 61164.85579786966, 64413.838316659734, -29299.69481226144, -713.6241452245886, 16666.131218210605, 7801.228201535726, 27618.50835305552, 4546.545987909554, 37258.547515695995, 46100.20471813736, 36686.052284962214, 45663.58574194738, 23872.355982346056, 25760.6313539304, -5539.924566736766, -320.3675532779161, -0.10400000000000001, 0.98, 0.272, 192.0, 0.0, 0.0, 0.0, 0.0, 0.0, 0.0, 0.0, 0.0, 0.0, 1.706882855535375E9, 0.0, 2024-02-02 15:07:35.535
180.0, 61168.40972523806, 64420.70030220751, -29303.13698090756, -718.2286045823819, 16663.001973986862, 7796.623742177933, 27610.394669818244, 4540.75688609563, 37271.66798969126, 46112.43112235441, 36696.490549622846, 45672.0794048404, 23882.950709217872, 25769.750865668164, -5531.408552099294, -312.0974078294525, -0.10400000000000001, 0.98, 0.272, 192.0, 0.0, 0.0, 0.0, 0.0, 0.0, 0.0, 0.0, 0.0, 0.0, 1.7068828555436616E9, 0.0, 2024-02-02 15:07:35.543
182.0, 61168.63324268261, 64425.7070929655, -29305.998004197838, -723.5036162738343, 16662.10790420865, 7796.0873003110055, 27607.578350016876, 4538.588766883465, 37258.03342557352, 46110.106540931054, 36683.37007562758, 45662.22228553561, 23872.177168390415, 25760.318429508025, -5545.423095872771, -328.16831209281827, -0.10400000000000001, 0.98, 0.272, 192.0, 0.0, 0.0, 0.0, 0.0, 0.0, 0.0, 0.0, 0.0, 0.0, 1.7068828555516148E9, 0.0, 2024-02-02 15:07:35.551
184.0, 61182.60308296717, 64442.60501177371, -29298.331355849667, -716.3734097925914, 16668.276985678316, 7800.334131757514, 27616.65315826573, 4543.662612874819, 37258.27929476253, 46106.97729670731, 36691.14848269802, 45668.36901526082, 23877.094552170583, 25763.693542920777, -5537.8905579913335, -322.28980330107254, -0.10400000000000001, 0.98, 0.272, 192.0, 0.0, 0.0, 0.0, 0.0, 0.0, 0.0, 0.0, 0.0, 0.0, 1.7068828555594587E9, 0.0, 2024-02-02 15:07:35.559
186.0, 61184.81590566825, 64448.014133931894, -29304.41103034151, -719.0779708716835, 16662.599642586665, 7792.220448520237, 27611.08757389636, 4536.152426737836, 37258.03342557352, 46119.047238713174, 36694.32243041068, 45674.1804688192, 23876.312241114647, 25763.11239756494, -5540.170435925775, -323.7426666906675, -0.112, 0.978, 0.276, 192.0, 126.0, 64.0, 15.0, 72.0, 4.0, 80.0, 0.0, 0.0, 0.0, 1.706882855566455E9, 0.0, 2024-02-02 15:07:35.566
188.0, 61192.66136797206, 64458.34063987025, -29303.405201841022, -715.9710783923958, 16663.471360620424, 7795.953189844274, 27605.924320927184, 4535.817150571007, 37254.211277271665, 46117.84024451259, 36694.389485644046, 45676.281532798, 23872.713610257342, 25760.899574863863, -5542.182092926752, -328.97297489320937, -0.112, 0.978, 0.276, 192.0, 0.0, 0.0, 0.0, 0.0, 0.0, 0.0, 0.0, 0.0, 0.0, 1.7068828555754397E9, 0.0, 2024-02-02 15:07:35.575
190.0, 61199.45629828648, 64466.968413229995, -29301.304137862226, -714.6523254695327, 16663.873692020617, 7798.054253823073, 27617.636635021765, 4543.260281474624, 37257.96637034015, 46123.69640155988, 36700.513863624794, 45681.10950960035, 23879.597947549577, 25767.158063311348, -5539.2987178920175, -322.33450678998315, -0.112, 0.978, 0.276, 192.0, 0.0, 0.0, 0.0, 0.0, 0.0, 0.0, 0.0, 0.0, 0.0, 1.7068828555834804E9, 0.0, 2024-02-02 15:07:35.583
192.0, 61203.5466675218, 64468.510683597415, -29301.192379139946, -715.4569882699237, 16663.672526320523, 7798.501288712179, 27620.117678656305, 4547.104781520937, 37257.005245328575, 46132.614747597545, 36696.44584613393, 45679.34372178838, 23876.491055070288, 25762.821824887018, -5542.807941771501, -323.67561145730156, -0.112, 0.978, 0.276, 192.0, 0.0, 0.0, 0.0, 0.0, 0.0, 0.0, 0.0, 0.0, 0.0, 1.7068828555914876E9, 0.0, 2024-02-02 15:07:35.591
194.0, 61208.93343793553, 64474.18802668906, -29297.481989560365, -708.3491335331361, 16666.01945948833, 7801.921105613841, 27625.03506243647, 4550.99398505616, 37258.793384885, 46129.10552371806, 36701.989078758845, 45681.69065495618, 23880.424962094425, 25766.15223481086, -5535.342459123428, -317.23830905417316, -0.112, 0.978, 0.276, 192.0, 0.0, 0.0, 0.0, 0.0, 0.0, 0.0, 0.0, 0.0, 0.0, 1.706882855599782E9, 0.0, 2024-02-02 15:07:35.599
196.0, 61212.5991240262, 64476.6690703236, -29298.577225038676, -709.1761480779825, 16665.147741454573, 7799.1941927902935, 27618.351890844333, 4544.847255330951, 37257.72050115115, 46145.33289019262, 36702.36905841459, 45686.94331490318, 23882.30250862867, 25768.119188322926, -5536.862377746389, -316.4559979982374, -0.112, 0.98, 0.27, 192.0, 126.0, 64.0, 15.0, 80.0, 4.0, 56.0, 0.0, 0.0, 0.0, 1.70688285560747E9, 0.0, 2024-02-02 15:07:35.607
198.0, 61216.84595547271, 64480.535922114366, -29301.862931473606, -711.3442672901473, 16666.86882577763, 7800.177669546327, 27619.13420190027, 4546.076601275993, 37257.631094173325, 46138.9402912784, 36702.39141015904, 45686.16100384724, 23881.877825484018, 25766.39810399987, -5539.343421380928, -320.4122567668267, -0.112, 0.98, 0.27, 192.0, 0.0, 0.0, 0.0, 0.0, 0.0, 0.0, 0.0, 0.0, 0.0, 1.7068828556155815E9, 0.0, 2024-02-02 15:07:35.615
200.0, 61221.4504148305, 64486.52618962839, -29301.058268673216, -710.9866393788624, 16670.690974079487, 7804.40214924838, 27625.303283369936, 4554.324394980001, 37263.12962330933, 46141.06370700165, 36706.54883462773, 45687.50210851456, 23887.73398253131, 25769.66145869034, -5534.448389345216, -314.8466723974553, -0.112, 0.98, 0.27, 192.0, 0.0, 0.0, 0.0, 0.0, 0.0, 0.0, 0.0, 0.0, 0.0, 1.706882855622782E9, 0.0, 2024-02-02 15:07:35.622
202.0, 61220.28812411882, 64487.06263149532, -29308.680213532476, -717.1110173596165, 16664.34307865418, 7796.556686944567, 27616.250826865537, 4546.4118774428225, 37252.043158059496, 46145.86933205955, 36696.66936357848, 45683.63525672379, 23880.179092905415, 25765.056999332548, -5544.126694694364, -326.693096958768, -0.112, 0.98, 0.27, 192.0, 0.0, 0.0, 0.0, 0.0, 0.0, 0.0, 0.0, 0.0, 0.0, 1.7068828556315749E9, 0.0, 2024-02-02 15:07:35.631
204.0, 61231.30753413529, 64501.61361713572, -29299.627757028076, -706.2704212987926, 16672.456761891455, 7805.989123104707, 27619.245960622546, 4554.682022891286, 37264.560134954474, 46144.66233785896, 36712.628509119575, 45694.47585278462, 23890.34913663258, 25770.935508124294, -5537.220005657674, -320.97105037820944, -0.112, 0.98, 0.27, 192.0, 0.0, 0.0, 0.0, 0.0, 0.0, 0.0, 0.0, 0.0, 0.0, 1.7068828556395867E9, 0.0, 2024-02-02 15:07:35.639
206.0, 61224.579659054245, 64492.71762284251, -29310.267187388803, -715.7028574589322, 16661.05737221925, 7793.896829354386, 27605.857265693816, 4541.874473318395, 37257.58639068442, 46149.199741983386, 36705.297136938236, 45691.72658821662, 23886.750505775275, 25767.180415055802, -5547.501808107115, -330.0011551381535, -0.11, 0.982, 0.264, 192.0, 126.0, 72.0, 15.0, 88.0, 4.0, 32.0, 0.0, 0.0, 0.0, 1.7068828556476138E9, 0.0, 2024-02-02 15:07:35.647
208.0, 61232.71569403598, 64503.044128780864, -29301.639414029054, -702.4929764858457, 16667.06999147773, 7805.810309149064, 27601.766896458495, 4547.015374543116, 37257.18405928422, 46145.73522159281, 36708.82871256217, 45692.33008531691, 23888.896273242986, 25766.800435400062, -5545.467799361682, -326.82720742549986, -0.11, 0.982, 0.264, 192.0, 0.0, 0.0, 0.0, 0.0, 0.0, 0.0, 0.0, 0.0, 0.0, 1.7068828556548972E9, 0.0, 2024-02-02 15:07:35.654
210.0, 61228.98295271194, 64506.955684060544, -29301.28178611777, -698.7825869062647, 16667.517026366833, 7803.172803303338, 27613.143934386248, 4547.842389087962, 37256.06647206145, 46149.22209372784, 36713.58963413115, 45697.3368760749, 23891.064392455148, 25773.237737803192, -5543.8808255053555, -321.97687887869824, -0.11, 0.982, 0.264, 192.0, 0.0, 0.0, 0.0, 0.0, 0.0, 0.0, 0.0, 0.0, 0.0, 1.7068828556636803E9, 0.0, 2024-02-02 15:07:35.663
212.0, 61222.12096716416, 64502.30652121384, -29308.70256527693, -707.8573951551193, 16661.97379374192, 7796.959018344763, 27615.557922787422, 4544.80255184204, 37254.479498205124, 46159.66035838847, 36711.0638870077, 45698.02978015301, 23890.125619188027, 25774.869415148427, -5540.796284770523, -318.3558962769385, -0.11, 0.982, 0.264, 192.0, 0.0, 0.0, 0.0, 0.0, 0.0, 0.0, 0.0, 0.0, 0.0, 1.7068828556705935E9, 0.0, 2024-02-02 15:07:35.670
214.0, 61235.50966209289, 64511.00134980695, -29293.726896491877, -696.5697642051892, 16675.653061348567, 7809.654809195377, 27629.03602469397, 4559.241778760169, 37253.20544877117, 46148.79741058319, 36713.7684480868, 45693.939410917694, 23890.282081399215, 25769.728513923706, -5542.137389437841, -323.96618413522054, -0.11, 0.982, 0.264, 192.0, 0.0, 0.0, 0.0, 0.0, 0.0, 0.0, 0.0, 0.0, 0.0, 1.7068828556786244E9, 0.0, 2024-02-02 15:07:35.678
216.0, 61216.62243802816, 64495.064556010315, -29300.812399484206, -700.8612991406083, 16668.411096145046, 7801.764643402654, 27624.364510102812, 4551.910406578828, 37257.9440185957, 46165.51651543576, 36720.18339874547, 45702.79070172199, 23902.955520505373, 25781.463179762744, -5529.843929987423, -311.2033380512402, -0.10300000000000001, 0.984, 0.266, 192.0, 126.5, 0.0, 15.0, 104.0, 4.0, 48.0, 0.0, 0.0, 0.0, 1.7068828556877408E9, 0.0, 2024-02-02 15:07:35.687
218.0, 61205.759490222874, 64481.11706747021, -29302.242911129346, -697.9555723614184, 16668.589910100687, 7799.618875934944, 27619.223608878092, 4548.088258276971, 37241.627245143325, 46154.787678097215, 36708.33697418415, 45693.604134750865, 23892.360793633557, 25772.81305465854, -5538.739924280635, -322.8709486569105, -0.10300000000000001, 0.984, 0.266, 192.0, 0.0, 0.0, 0.0, 0.0, 0.0, 0.0, 0.0, 0.0, 0.0, 1.706882855695674E9, 0.0, 2024-02-02 15:07:35.695
220.0, 61178.06567884275, 64449.60110778822, -29311.85416124513, -707.5668224772004, 16663.314898409237, 7792.645131664888, 27615.580274531876, 4546.166008253814, 37233.64767237278, 46141.82366631313, 36701.31852642519, 45685.3339893024, 23890.907930243964, 25767.71685692273, -5536.996488213121, -322.26745155661723, -0.10300000000000001, 0.984, 0.266, 192.0, 0.0, 0.0, 0.0, 0.0, 0.0, 0.0, 0.0, 0.0, 0.0, 1.7068828557028956E9, 0.0, 2024-02-02 15:07:35.702
222.0, 61157.882053599606, 64421.728482452454, -29312.815286256708, -711.545432990245, 16666.600604844167, 7794.455622965768, 27619.17890538918, 4547.864740832418, 37219.43196289921, 46136.07926798812, 36689.51680535279, 45672.191163562675, 23887.44340985339, 25763.47002547622, -5541.735058037646, -326.5813382364915, -0.10300000000000001, 0.984, 0.266, 192.0, 0.0, 0.0, 0.0, 0.0, 0.0, 0.0, 0.0, 0.0, 0.0, 1.7068828557106707E9, 0.0, 2024-02-02 15:07:35.710
224.0, 61144.605117393156, 64402.64009268762, -29306.75796350932, -706.2704212987926, 16672.926148525017, 7800.535297457612, 27619.648292022743, 4552.938586823772, 37215.02866924151, 46124.50106436027, 36691.48375886485, 45668.65958793874, 23891.667889555443, 25763.91706036533, -5536.504749835104, -324.1226463464077, -0.10300000000000001, 0.984, 0.266, 192.0, 0.0, 0.0, 0.0, 0.0, 0.0, 0.0, 0.0, 0.0, 0.0, 1.7068828557196693E9, 0.0, 2024-02-02 15:07:35.719
226.0, 61105.310750640725, 64357.288403187806, -29317.844428759152, -717.4686452709014, 16660.54328209678, 7789.515887441145, 27606.013727905003, 4540.332202950979, 37198.51073008904, 46116.90147124547, 36679.346761625624, 45658.355433744844, 23888.29277614269, 25758.083255062495, -5543.746715038624, -329.1070853599412, -0.1015, 0.987, 0.267, 192.0, 126.0, 112.0, 15.0, 120.0, 4.0, 48.0, 0.0, 0.0, 0.0, 1.7068828557267115E9, 0.0, 2024-02-02 15:07:35.726
228.0, 61094.51485806881, 64349.532347861816, -29308.61315829911, -704.9069648870188, 16675.854227048665, 7804.78212890412, 27631.025329950495, 4559.062964804526, 37184.67500027121, 46097.83543322509, 36673.22238364487, 45648.25244525104, 23888.136313931504, 25756.250412017158, -5540.081028947953, -325.3519922914496, -0.1015, 0.987, 0.267, 192.0, 0.0, 0.0, 0.0, 0.0, 0.0, 0.0, 0.0, 0.0, 0.0, 1.7068828557349389E9, 0.0, 2024-02-02 15:07:35.734
230.0, 61074.71121248141, 64326.71121677294, -29314.84929500214, -709.7125899449098, 16669.260462434348, 7800.0212073351395, 27621.145858901247, 4552.782124612585, 37176.36015133383, 46091.867517455525, 36670.11549116558, 45644.854980093834, 23890.125619188027, 25759.267897518625, -5535.677735290258, -317.1265503318966, -0.1015, 0.987, 0.267, 192.0, 0.0, 0.0, 0.0, 0.0, 0.0, 0.0, 0.0, 0.0, 0.0, 1.7068828557429328E9, 0.0, 2024-02-02 15:07:35.742
232.0, 61050.928956380965, 64302.16900136102, -29326.248684674345, -718.1615493490159, 16657.481093106402, 7793.382739231914, 27607.55599827242, 4542.701487863242, 37163.485546527576, 46085.45256679685, 36660.14661313851, 45636.80835208992, 23881.92252897293, 25752.875298604406, -5545.803075528512, -323.4297422682932, -0.1015, 0.987, 0.267, 192.0, 0.0, 0.0, 0.0, 0.0, 0.0, 0.0, 0.0, 0.0, 0.0, 1.7068828557517483E9, 0.0, 2024-02-02 15:07:35.751
234.0, 61057.008630872806, 64307.44401305247, -29315.743364780352, -707.1421393325495, 16665.19244494348, 7806.905544627374, 27611.13227738527, 4554.302043235546, 37153.94135164515, 46068.01820612171, 36657.620866015066, 45630.41575317571, 23876.91573821494, 25752.517670693123, -5547.233587173651, -324.74849519115634, -0.1015, 0.987, 0.267, 192.0, 0.0, 0.0, 0.0, 0.0, 0.0, 0.0, 0.0, 0.0, 0.0, 1.7068828557587683E9, 0.0, 2024-02-02 15:07:35.758
236.0, 61041.630630687556, 64292.31188205622, -29325.354614896136, -720.6872964724656, 16660.6326890746, 7792.488669453701, 27623.22457113559, 4546.680098376286, 37158.434052280674, 46083.26209584023, 36660.59364802762, 45634.48377066658, 23882.436619095402, 25759.424359729812, -5539.566938825481, -320.0993323444524, -0.10475000000000001, 0.9855, 0.2695, 192.0, 126.0, 80.0, 15.0, 96.0, 4.0, 64.0, 0.0, 0.0, 0.0, 1.7068828557667546E9, 0.0, 2024-02-02 15:07:35.766
238.0, 61040.021305086775, 64285.94163488646, -29317.19622816995, -715.0770086141836, 16668.813427545243, 7800.35648350197, 27628.253713638034, 4555.553740925043, 37144.464211996106, 46067.63822646597, 36653.418738057466, 45623.91139553922, 23874.38999109149, 25746.885031090384, -5545.780723784056, -328.90591965984345, -0.10475000000000001, 0.9855, 0.2695, 192.0, 0.0, 0.0, 0.0, 0.0, 0.0, 0.0, 0.0, 0.0, 0.0, 1.7068828557759216E9, 0.0, 2024-02-02 15:07:35.775
240.0, 61040.51304346479, 64288.53443724328, -29322.76181253932, -718.5862324936668, 16663.001973986862, 7794.232105521215, 27615.110887898314, 4548.4682379327105, 37146.67703469718, 46073.06970036861, 36660.57129628316, 45633.544997399455, 23882.01193595075, 25755.24458351667, -5535.8565492459, -319.0935038439636, -0.10475000000000001, 0.9855, 0.2695, 192.0, 0.0, 0.0, 0.0, 0.0, 0.0, 0.0, 0.0, 0.0, 0.0, 1.7068828557827623E9, 0.0, 2024-02-02 15:07:35.782
242.0, 61049.878424391565, 64300.06793738222, -29320.437231115968, -717.3792382930802, 16667.002936244364, 7795.975541588729, 27627.31494037091, 4552.022165301105, 37141.4690782391, 46075.14841260295, 36653.06111014618, 45628.40409617473, 23876.178130647913, 25749.2766677471, -5542.137389437841, -324.01088762413116, -0.10475000000000001, 0.9855, 0.2695, 192.0, 0.0, 0.0, 0.0, 0.0, 0.0, 0.0, 0.0, 0.0, 0.0, 1.7068828557907598E9, 0.0, 2024-02-02 15:07:35.790
244.0, 61071.64902349103, 64322.35262660416, -29315.251626402336, -710.6513632120327, 16669.215758945436, 7798.948323601285, 27625.5715043034, 4553.117400779414, 37145.69355794115, 46073.628493979995, 36663.2535056178, 45635.2213782336, 23879.39678184948, 25750.394254969866, -5536.996488213121, -320.4793120001927, -0.10475000000000001, 0.9855, 0.2695, 192.0, 0.0, 0.0, 0.0, 0.0, 0.0, 0.0, 0.0, 0.0, 0.0, 1.7068828557988875E9, 0.0, 2024-02-02 15:07:35.798
246.0, 61081.23792186236, 64336.657743055555, -29319.36434738211, -712.0148196238065, 16665.505369365856, 7798.076605567528, 27620.542361800955, 4551.441019945267, 37151.05797661042, 46086.905430186445, 36665.75690099679, 45639.8705410803, 23881.63195629501, 25753.99288582717, -5537.197653913218, -316.50070148714804, -0.105375, 0.98275, 0.27075000000000005, 192.0, 126.0, 88.0, 15.0, 80.0, 4.0, 64.0, 0.0, 0.0, 0.0, 1.7068828558067684E9, 0.0, 2024-02-02 15:07:35.806
248.0, 61107.0765384527, 64366.40791492557, -29312.3682513676, -703.4764532418792, 16673.082610736205, 7808.604277205977, 27629.818335749907, 4559.889979349373, 37156.64591272425, 46100.85291872656, 36670.42841558796, 45651.292282496965, 23883.73302027381, 25761.86069987544, -5537.152950424308, -316.50070148714804, -0.105375, 0.98275, 0.27075000000000005, 192.0, 0.0, 0.0, 0.0, 0.0, 0.0, 0.0, 0.0, 0.0, 0.0, 1.706882855815842E9, 0.0, 2024-02-02 15:07:35.815
250.0, 61117.24658217986, 64379.95307206549, -29312.569417067698, -703.0294183527731, 16672.21089270245, 7806.704378927277, 27629.639521794263, 4558.861799104428, 37166.99477040706, 46113.28048864371, 36678.31858138068, 45663.31752101392, 23891.422020366434, 25769.14736856787, -5532.324973621961, -309.70577117273467, -0.105375, 0.98275, 0.27075000000000005, 192.0, 0.0, 0.0, 0.0, 0.0, 0.0, 0.0, 0.0, 0.0, 0.0, 1.7068828558228135E9, 0.0, 2024-02-02 15:07:35.822
252.0, 61126.79077706228, 64390.57015068176, -29318.4702776039, -707.8797468995747, 16668.09817172267, 7797.562515445056, 27624.833896736374, 4551.2845577340795, 37168.022950652, 46122.86938701503, 36679.436168603446, 45666.42441349321, 23889.857398254564, 25766.71102842224, -5537.577633568959, -313.37145726340503, -0.105375, 0.98275, 0.27075000000000005, 192.0, 0.0, 0.0, 0.0, 0.0, 0.0, 0.0, 0.0, 0.0, 0.0, 1.7068828558308027E9, 0.0, 2024-02-02 15:07:35.830
254.0, 61133.4292451655, 64399.46614497497, -29314.558722324222, -705.5328137317674, 16672.59087235819, 7799.775338146132, 27629.773632260996, 4556.559569425532, 37165.87718318429, 46109.45834034185, 36679.19029941443, 45662.13287855779, 23889.432715109913, 25756.831557372996, -5540.997450470621, -321.7757131786005, -0.105375, 0.98275, 0.27075000000000005, 192.0, 0.0, 0.0, 0.0, 0.0, 0.0, 0.0, 0.0, 0.0, 0.0, 1.7068828558388655E9, 0.0, 2024-02-02 15:07:35.838
0.0, 61144.180434248505, 64414.17359282656, -29315.76571652481, -706.2033660654266, 16667.561729855744, 7798.21071603426, 27621.99522519055, 4554.324394980001, 37170.10166288634, 46126.87034927253, 36683.057151205205, 45669.88893388378, 23893.120752945037, 25761.637182430888, -5537.66704054678, -318.1100270879301, -0.1016875, 0.982375, 0.27137500000000003, 192.0, 126.0, 120.0, 15.0, 88.0, 4.0, 64.0, 0.0, 0.0, 0.0, 1.7068828558478866E9, 0.0, 2024-02-02 15:07:35.847
2.0, 61155.57982392071, 64424.34363655373, -29312.65882404552, -702.0459415967396, 16675.340136926192, 7806.570268460545, 27632.858172995828, 4562.795706128562, 37170.74986347555, 46129.73137256281, 36686.2087471734, 45668.16784956072, 23894.2383401678, 25760.56429869703, -5538.896386491822, -320.7475329336564, -0.1016875, 0.982375, 0.27137500000000003, 192.0, 0.0, 0.0, 0.0, 0.0, 0.0, 0.0, 0.0, 0.0, 0.0, 1.7068828558549087E9, 0.0, 2024-02-02 15:07:35.854
4.0, 61153.612870408644, 64422.93547665304, -29321.219542171904, -711.2995638012367, 16665.77359029932, 7796.601390433478, 27620.095326911847, 4553.653842646342, 37173.40972106573, 46132.52534061973, 36690.612040831096, 45672.90641938525, 23897.30052915818, 25764.52055746562, -5537.018839957576, -318.49000674367034, -0.1016875, 0.982375, 0.27137500000000003, 192.0, 0.0, 0.0, 0.0, 0.0, 0.0, 0.0, 0.0, 0.0, 0.0, 1.7068828558628545E9, 0.0, 2024-02-02 15:07:35.862
6.0, 61163.06765831324, 64433.39609305812, -29316.3692136251, -707.0527323547283, 16671.987375257897, 7798.277771267626, 27630.46653633911, 4558.124191537403, 37166.92771517369, 46130.75955280776, 36680.956087226405, 45665.776212904006, 23890.617357566043, 25756.630391672898, -5547.501808107115, -329.0400301265753, -0.1016875, 0.982375, 0.27137500000000003, 192.0, 0.0, 0.0, 0.0, 0.0, 0.0, 0.0, 0.0, 0.0, 0.0, 1.7068828558708873E9, 0.0, 2024-02-02 15:07:35.870
