%OpenBCI Raw EXG Data
%Number of channels = 16
%Sample Rate = 125 Hz
%Board = OpenBCI_GUI$BoardCytonSerialDaisy
Sample Index, EXG Channel 0, EXG Channel 1, EXG Channel 2, EXG Channel 3, EXG Channel 4, EXG Channel 5, EXG Channel 6, EXG Channel 7, EXG Channel 8, EXG Channel 9, EXG Channel 10, EXG Channel 11, EXG Channel 12, EXG Channel 13, EXG Channel 14, EXG Channel 15, Accel Channel 0, Accel Channel 1, Accel Channel 2, Other, Other, Other, Other, Other, Other, Other, Analog Channel 0, Analog Channel 1, Analog Channel 2, Timestamp, Other, Timestamp (Formatted)
0.0, 61579.39125053779, 64914.4726889697, -30553.225344803974, -1099.817585923384, 16520.93428622893, 7447.198921108118, 27266.64719184008, 4663.713832344274, 0.0, 0.0, 0.0, 0.0, 0.0, 0.0, 0.0, 0.0, -0.047, 0.491, 0.133, 192.0, 126.5, 8.0, 15.0, 88.0, 4.0, 40.0, 0.0, 0.0, 0.0, 1.7068829151506684E9, 0.0, 2024-02-02 15:08:35.150
158.0, 61585.158000607255, 64918.69716867175, -30552.10775758121, -1103.237402825046, 16523.258867652283, 7447.958880419598, 27259.561688847745, 4661.25514045419, 37806.27701357329, 46300.744569390365, 36791.552518791264, 45929.66090794336, 23508.51428610257, 25985.735772339794, -5937.226824429849, -590.130757109017, -0.047, 0.491, 0.133, 192.0, 0.0, 0.0, 0.0, 0.0, 0.0, 0.0, 0.0, 0.0, 0.0, 1.7068829151507013E9, 0.0, 2024-02-02 15:08:35.150
0.0, 30801.86615012481, 32527.309063352237, -15513.049425250225, -685.8185751221866, 8246.184378407524, 3702.521765532704, 13569.609948350186, 2277.441594295692, 18905.08310855426, 23153.63563938566, 18395.910369862362, 22965.813930727712, 11754.76005730153, 12993.67254897029, -2968.5798845982417, -295.2218407656957, -0.084, 0.98, 0.278, 192.0, 126.5, 48.0, 15.0, 80.0, 4.0, 88.0, 0.0, 0.0, 0.0, 1.7068829152470686E9, 0.0, 2024-02-02 15:08:35.247
2.0, 61586.007366896556, 65037.92137359636, -31028.646949368354, -1370.31839732151, 16488.70307072438, 7406.049359565897, 27132.290855919226, 4551.977461812194, 37798.69977220294, 46419.52173942587, 36873.136386053135, 46025.34872595653, 23505.6979663012, 26069.152482647, -6029.71834298591, -605.7322747388214, -0.084, 0.98, 0.278, 192.0, 0.0, 0.0, 0.0, 0.0, 0.0, 0.0, 0.0, 0.0, 0.0, 1.7068829152528336E9, 0.0, 2024-02-02 15:08:35.252
4.0, 61560.39226775078, 65013.15564073988, -31035.352472704944, -1375.5263537795965, 16483.91979741094, 7399.9249815851435, 27133.073166975162, 4549.049383288549, 37797.35866753563, 46422.114541782685, 36868.330760995246, 46023.91821431139, 23505.295634901006, 26073.712238515884, -6029.181901118983, -603.519452037746, -0.084, 0.98, 0.278, 192.0, 0.0, 0.0, 0.0, 0.0, 0.0, 0.0, 0.0, 0.0, 0.0, 1.706882915260816E9, 0.0, 2024-02-02 15:08:35.260
6.0, 61543.024962309006, 64997.15179170988, -31043.823783853506, -1378.5661910255185, 16479.717669453345, 7396.661626894668, 27121.047928458207, 4540.689830862264, 37785.33342901867, 46409.86578582117, 36853.086871276726, 46010.61892636048, 23493.873893484342, 26067.29728785721, -6037.832026223186, -610.6273067745336, -0.084, 0.98, 0.278, 192.0, 0.0, 0.0, 0.0, 0.0, 0.0, 0.0, 0.0, 0.0, 0.0, 1.7068829152688596E9, 0.0, 2024-02-02 15:08:35.268
8.0, 61542.242651253066, 64990.98271024021, -31040.113394273925, -1376.3310165799876, 16487.339614312605, 7400.8637548522665, 27131.79911754121, 4547.440057687767, 37783.25471678433, 46396.0524077478, 36848.325949707745, 46006.52855712516, 23491.661070783266, 26063.2516221108, -6041.6988780139545, -618.6962865228995, -0.08600000000000001, 0.982, 0.294, 192.0, 126.5, 40.0, 15.0, 88.0, 4.5, 24.0, 0.0, 0.0, 0.0, 1.7068829152761087E9, 0.0, 2024-02-02 15:08:35.276
10.0, 61527.915183057215, 64977.32579437802, -31052.451557213255, -1390.7255400092054, 16474.353250784072, 7388.637350635213, 27116.8010970117, 4533.917252292305, 37787.702713930936, 46403.249669462406, 36848.30359796329, 46006.662667591896, 23494.678556284733, 26069.30894485819, -6040.156607646538, -619.1433214120057, -0.08600000000000001, 0.982, 0.294, 192.0, 0.0, 0.0, 0.0, 0.0, 0.0, 0.0, 0.0, 0.0, 0.0, 1.706882915283877E9, 0.0, 2024-02-02 15:08:35.283
12.0, 61528.85395632434, 64976.02939319961, -31044.181411764792, -1382.2095253717334, 16482.601044488078, 7398.919153084655, 27121.07028020266, 4542.23210122968, 37778.02440858178, 46384.295390164305, 36841.06163275977, 45992.22344067376, 23485.626099780333, 26056.277877840745, -6050.728982773899, -633.4037343744916, -0.08600000000000001, 0.982, 0.294, 192.0, 0.0, 0.0, 0.0, 0.0, 0.0, 0.0, 0.0, 0.0, 0.0, 1.7068829152928708E9, 0.0, 2024-02-02 15:08:35.292
14.0, 61520.94143878716, 64973.66010828735, -31050.730472890198, -1384.4894033061748, 16469.771143170732, 7390.961932058565, 27101.646614271, 4532.4196854138, 37784.886394129564, 46395.13598622513, 36846.31429270677, 46001.29824892262, 23491.661070783266, 26065.464444811874, -6043.889348970574, -622.3172691246592, -0.08600000000000001, 0.982, 0.294, 192.0, 0.0, 0.0, 0.0, 0.0, 0.0, 0.0, 0.0, 0.0, 0.0, 1.7068829153010972E9, 0.0, 2024-02-02 15:08:35.301
16.0, 61535.00068604955, 64985.126553192924, -31046.61775191042, -1378.1638596253229, 16479.82942817562, 7401.355493230283, 27126.434698871937, 4547.149485009848, 37778.56085044871, 46391.71616932347, 36837.35124318019, 45996.31380990909, 23481.535730545012, 26055.450863295897, -6053.76882001982, -627.7487430272988, -0.08600000000000001, 0.982, 0.294, 192.0, 0.0, 0.0, 0.0, 0.0, 0.0, 0.0, 0.0, 0.0, 0.0, 1.7068829153078952E9, 0.0, 2024-02-02 15:08:35.307
18.0, 61538.107578528834, 64988.278149161124, -31050.99869382366, -1380.220220115211, 16477.77306768573, 7401.13197578573, 27129.966274495873, 4549.742287366663, 37784.551117962736, 46390.68798907852, 36845.88960956212, 46002.43818788984, 23485.536692802514, 26065.375037834056, -6039.24018612387, -611.0296381747291, -0.084, 0.988, 0.294, 192.0, 126.5, 48.0, 15.0, 112.0, 4.5, 24.0, 0.0, 0.0, 0.0, 1.7068829153159182E9, 0.0, 2024-02-02 15:08:35.315
20.0, 61537.839357595374, 64989.73101255072, -31060.20761253925, -1385.5399352955742, 16469.92760538192, 7393.040644292909, 27117.091669689617, 4537.247662216147, 37778.13616730406, 46397.013532759374, 36834.132591978625, 45994.279801163655, 23474.472579297137, 26058.736569730827, -6051.243072896371, -613.9353649539191, -0.084, 0.988, 0.294, 192.0, 0.0, 0.0, 0.0, 0.0, 0.0, 0.0, 0.0, 0.0, 0.0, 1.70688291532507E9, 0.0, 2024-02-02 15:08:35.325
22.0, 61558.76059040554, 65011.076928505536, -31050.10462404545, -1377.292141591566, 16480.16470434245, 7403.031874064431, 27121.852591258597, 4543.461447174722, 37781.399521994535, 46391.76087281238, 36838.58058912523, 45997.140824453934, 23477.378306076327, 26058.02131390826, -6049.946671717963, -615.3211731101482, -0.084, 0.988, 0.294, 192.0, 0.0, 0.0, 0.0, 0.0, 0.0, 0.0, 0.0, 0.0, 0.0, 1.7068829153319468E9, 0.0, 2024-02-02 15:08:35.331
24.0, 61576.68668945869, 65033.987466572224, -31048.160022277836, -1381.0472346600575, 16480.477628764824, 7400.550830429892, 27125.652387816, 4543.170874496803, 37797.93981289146, 46410.08930326573, 36851.65635963158, 46014.21755721779, 23486.87779746983, 26066.82790122365, -6041.654174525043, -609.0626846626622, -0.084, 0.988, 0.294, 192.0, 0.0, 0.0, 0.0, 0.0, 0.0, 0.0, 0.0, 0.0, 0.0, 1.7068829153399603E9, 0.0, 2024-02-02 15:08:35.339
26.0, 61589.360128564855, 65048.471396979265, -31047.154193777347, -1386.612819029429, 16482.6904514659, 7399.768519373956, 27125.585332582636, 4538.924043050295, 37797.62688846909, 46417.73359986945, 36850.561124153275, 46016.1621589854, 23483.07800091243, 26063.34102908862, -6047.19740714996, -618.2045481448828, -0.084, 0.988, 0.294, 192.0, 0.0, 0.0, 0.0, 0.0, 0.0, 0.0, 0.0, 0.0, 0.0, 1.7068829153489604E9, 0.0, 2024-02-02 15:08:35.348
28.0, 61606.10158516188, 65066.03986812114, -31044.09200478697, -1385.9422666957698, 16488.70307072438, 7399.209725762574, 27126.32294014966, 4536.621813371398, 37809.54036826377, 46416.63836439113, 36862.653417903595, 46019.5596241426, 23492.510437072568, 26064.659782011484, -6036.557976789234, -615.4999870657906, -0.088, 0.982, 0.292, 192.0, 126.5, 32.0, 15.0, 88.0, 4.5, 16.0, 0.0, 0.0, 0.0, 1.7068829153563569E9, 0.0, 2024-02-02 15:08:35.356
30.0, 61616.204573655676, 65074.82410369207, -31042.415623952824, -1387.41748182982, 16484.5903497446, 7394.135879771219, 27122.12081219206, 4530.698601090741, 37807.48400777388, 46426.98722207394, 36861.200554514, 46023.717048611295, 23487.70481201468, 26060.524709287252, -6043.598776292655, -619.7244667678436, -0.088, 0.982, 0.292, 192.0, 0.0, 0.0, 0.0, 0.0, 0.0, 0.0, 0.0, 0.0, 0.0, 1.7068829153639567E9, 0.0, 2024-02-02 15:08:35.363
32.0, 61628.34157089491, 65088.10103989852, -31037.967626806218, -1382.0977666494568, 16484.657404977967, 7396.549868172392, 27115.16941966646, 4529.3351446789675, 37817.07290614521, 46428.64125116364, 36874.63395293164, 46032.56833941559, 23492.286919628015, 26064.123340144557, -6035.283927355281, -616.0811324216286, -0.088, 0.982, 0.292, 192.0, 0.0, 0.0, 0.0, 0.0, 0.0, 0.0, 0.0, 0.0, 0.0, 1.706882915372012E9, 0.0, 2024-02-02 15:08:35.372
34.0, 61632.47664361914, 65097.22055163629, -31035.598341893954, -1378.5885427699736, 16484.92562591143, 7396.3487024722945, 27123.7524895373, 4535.593633126454, 37818.36930732361, 46437.00080358992, 36879.19370880052, 46037.686888895856, 23492.085753927917, 26068.034895424236, -6035.865072711119, -613.6000887870895, -0.088, 0.982, 0.292, 192.0, 0.0, 0.0, 0.0, 0.0, 0.0, 0.0, 0.0, 0.0, 0.0, 1.7068829153810391E9, 0.0, 2024-02-02 15:08:35.381
36.0, 61635.00239074259, 65103.38963310595, -31042.750900119652, -1386.1657841403228, 16481.125829354027, 7391.252504736484, 27114.185942910426, 4528.664592345309, 37814.01071715483, 46438.09603906823, 36874.92452560956, 46035.83169410607, 23486.140189902806, 26063.050456410703, -6045.230453637892, -620.3279638681369, -0.088, 0.982, 0.292, 192.0, 0.0, 0.0, 0.0, 0.0, 0.0, 0.0, 0.0, 0.0, 0.0, 1.7068829153882902E9, 0.0, 2024-02-02 15:08:35.388
38.0, 61641.90907977928, 65111.43626110986, -31040.359263462935, -1387.0375021740797, 16485.439716033903, 7390.157269258174, 27121.49496334731, 4533.403162169834, 37811.55202526475, 46432.396344232126, 36876.44444423252, 46035.71993538379, 23486.609576536368, 26062.312848843678, -6045.5210263158115, -621.5349580687235, -0.09, 0.982, 0.29, 192.0, 126.5, 24.0, 15.0, 88.0, 4.5, 8.0, 0.0, 0.0, 0.0, 1.7068829153960743E9, 0.0, 2024-02-02 15:08:35.396
40.0, 61644.34541992491, 65112.710310543815, -31045.56721992102, -1390.8820022203927, 16477.683660707913, 7383.295283710395, 27114.767088266264, 4530.0951039904485, 37811.61908049811, 46442.253463536916, 36871.25883951889, 46032.166008015396, 23481.98276543412, 26060.1000261426, -6049.5666920622225, -624.8653679925642, -0.09, 0.982, 0.29, 192.0, 0.0, 0.0, 0.0, 0.0, 0.0, 0.0, 0.0, 0.0, 0.0, 1.7068829154051173E9, 0.0, 2024-02-02 15:08:35.405
42.0, 61659.142274754326, 65130.345836919056, -31035.263065727126, -1378.5438392810631, 16487.02668989023, 7396.929847828133, 27124.8030215267, 4541.85212157394, 37814.43540029948, 46441.22528329197, 36875.57272619876, 46036.94928132883, 23484.620271279844, 26061.53053778774, -6049.00789845084, -623.8595394920754, -0.09, 0.982, 0.29, 192.0, 0.0, 0.0, 0.0, 0.0, 0.0, 0.0, 0.0, 0.0, 0.0, 1.7068829154122894E9, 0.0, 2024-02-02 15:08:35.412
44.0, 61659.969289299166, 65136.15729047744, -31046.081310043493, -1387.0822056629904, 16475.87316940703, 7387.922094812643, 27109.98381495283, 4529.6257173568865, 37824.00194692635, 46455.93273114356, 36880.98184835695, 46044.63828142146, 23490.945814960698, 26071.722933259363, -6048.203235650449, -616.9975539442962, -0.09, 0.982, 0.29, 192.0, 0.0, 0.0, 0.0, 0.0, 0.0, 0.0, 0.0, 0.0, 0.0, 1.7068829154200747E9, 0.0, 2024-02-02 15:08:35.420
46.0, 61671.52514118257, 65146.841424327074, -31040.85100184095, -1379.7508334816496, 16482.64574797699, 7395.566391416359, 27122.858419759086, 4541.963880296216, 37817.92227243451, 46455.84332416574, 36872.3540749972, 46039.45267670783, 23480.485198555612, 26062.49166279932, -6062.418945124024, -630.1403796840167, -0.09, 0.982, 0.29, 192.0, 0.0, 0.0, 0.0, 0.0, 0.0, 0.0, 0.0, 0.0, 0.0, 1.706882915428069E9, 0.0, 2024-02-02 15:08:35.428
48.0, 61679.884693608845, 65153.56929940812, -31038.124089017405, -1380.2425718596664, 16490.98294865882, 7394.9405425716095, 27121.98670172533, 4540.354554695435, 37831.601540041156, 46458.77140268939, 36886.145101326125, 46051.43321173587, 23492.912768472765, 26072.482892570843, -6044.783418748787, -618.4727690783465, -0.092, 0.984, 0.28200000000000003, 192.0, 126.5, 16.0, 15.0, 96.0, 4.0, 104.0, 0.0, 0.0, 0.0, 1.7068829154370785E9, 0.0, 2024-02-02 15:08:35.437
50.0, 61678.47653370816, 65151.378828451496, -31043.3767489644, -1386.0093219291357, 16489.775954458233, 7387.005673289976, 27125.384166882537, 4538.007621527627, 37828.315833606226, 46462.034757379864, 36878.2549355334, 46045.84527562204, 23490.901111471787, 26062.82693896615, -6053.590006064178, -630.8779872510419, -0.092, 0.984, 0.28200000000000003, 192.0, 0.0, 0.0, 0.0, 0.0, 0.0, 0.0, 0.0, 0.0, 0.0, 1.7068829154440975E9, 0.0, 2024-02-02 15:08:35.444
52.0, 61697.54257172854, 65170.958956594346, -31028.646949368354, -1369.1337548653787, 16502.941131942407, 7403.434205464627, 27140.158669967495, 4554.771429869107, 37836.49657207687, 46463.6664347251, 36887.77677867136, 46053.288406525666, 23496.08671618542, 26068.236061124335, -6041.229491380393, -622.1831586579274, -0.092, 0.984, 0.28200000000000003, 192.0, 0.0, 0.0, 0.0, 0.0, 0.0, 0.0, 0.0, 0.0, 0.0, 1.7068829154521108E9, 0.0, 2024-02-02 15:08:35.452
54.0, 61694.79330716054, 65168.164988537435, -31036.827687838995, -1379.6167230149179, 16486.78082070122, 7389.978455302532, 27119.438602857426, 4537.761752338619, 37842.26332214634, 46475.445804053044, 36894.01291537439, 46061.46914499631, 23496.73491677462, 26072.19231989292, -6042.391782092069, -625.0441819482068, -0.092, 0.984, 0.28200000000000003, 192.0, 0.0, 0.0, 0.0, 0.0, 0.0, 0.0, 0.0, 0.0, 0.0, 1.7068829154601452E9, 0.0, 2024-02-02 15:08:35.460
56.0, 61691.59700770343, 65168.74613389327, -31044.20376350925, -1386.7469294961609, 16479.36004154206, 7383.921132555143, 27114.252998143795, 4528.351667922934, 37835.28957787628, 46470.90839992862, 36885.25103154791, 46053.757793159224, 23484.732030002124, 26061.709351743386, -6055.042869453772, -638.6563943214887, -0.092, 0.984, 0.28200000000000003, 192.0, 0.0, 0.0, 0.0, 0.0, 0.0, 0.0, 0.0, 0.0, 0.0, 1.7068829154682353E9, 0.0, 2024-02-02 15:08:35.468
58.0, 61697.11788858389, 65176.4351339859, -31041.6780163858, -1381.874249204904, 16482.44458227689, 7391.856001836777, 27115.214123155372, 4532.173816224792, 37833.836714486686, 46465.119298114696, 36886.36861877068, 46050.67325242439, 23484.687326513213, 26061.91051744348, -6057.210988665937, -641.003327489296, -0.094, 0.984, 0.28200000000000003, 192.0, 126.5, 8.0, 15.0, 96.0, 4.0, 104.0, 0.0, 0.0, 0.0, 1.7068829154761865E9, 0.0, 2024-02-02 15:08:35.476
60.0, 61698.280179295565, 65176.72570666382, -31044.986074565182, -1383.930609694792, 16478.957710141865, 7389.017330290953, 27106.02755618424, 4527.301135933535, 37843.73853728039, 46481.21255412252, 36889.63197346115, 46058.250493794745, 23492.197512650197, 26070.895918714516, -6056.272215398814, -632.5096645962792, -0.094, 0.984, 0.28200000000000003, 192.0, 0.0, 0.0, 0.0, 0.0, 0.0, 0.0, 0.0, 0.0, 0.0, 1.7068829154841924E9, 0.0, 2024-02-02 15:08:35.484
62.0, 61710.238362579155, 65183.85591314506, -31035.71010061623, -1375.8616299464263, 16487.004338145773, 7398.069786795353, 27113.51539057677, 4535.9065575488285, 37839.692871533975, 46467.24271383795, 36888.98377287194, 46056.79763040515, 23489.26943412655, 26064.726837244853, -6059.200293922459, -634.9683564863631, -0.094, 0.984, 0.28200000000000003, 192.0, 0.0, 0.0, 0.0, 0.0, 0.0, 0.0, 0.0, 0.0, 0.0, 1.706882915493159E9, 0.0, 2024-02-02 15:08:35.493
64.0, 61705.008054376616, 65179.31850902063, -31042.28151348609, -1381.516621293619, 16480.052945620173, 7393.3535687152835, 27104.753506750287, 4531.905595291329, 37843.53737158029, 46471.24367609545, 36895.376371786166, 46065.648921209446, 23492.80100975049, 26069.01837218027, -6054.662889798033, -628.486350594324, -0.094, 0.984, 0.28200000000000003, 192.0, 0.0, 0.0, 0.0, 0.0, 0.0, 0.0, 0.0, 0.0, 0.0, 1.706882915500502E9, 0.0, 2024-02-02 15:08:35.500
66.0, 61710.439528279254, 65183.52063697823, -31040.24750474066, -1379.6390747593732, 16487.20550384587, 7401.5119554414705, 27118.27631214575, 4543.886130319373, 37841.61512155714, 46476.96572267601, 36893.81174967429, 46063.145525830456, 23492.55514056148, 26070.35947684759, -6052.830046752697, -623.4572080918799, -0.094, 0.984, 0.28200000000000003, 192.0, 0.0, 0.0, 0.0, 0.0, 0.0, 0.0, 0.0, 0.0, 0.0, 1.7068829155081937E9, 0.0, 2024-02-02 15:08:35.508
68.0, 61705.07510960998, 65178.7373636648, -31048.651760655852, -1384.3105893505324, 16479.7400211978, 7394.985246060521, 27106.92162596245, 4535.079543003982, 37837.72591802191, 46471.48954528446, 36890.056656605804, 46056.26118853822, 23486.90014921429, 26067.341991346122, -6056.361622376636, -627.0781906936396, -0.088, 0.986, 0.28200000000000003, 192.0, 126.5, 32.0, 15.0, 104.0, 4.0, 104.0, 0.0, 0.0, 0.0, 1.7068829155162573E9, 0.0, 2024-02-02 15:08:35.516
70.0, 61710.90891491281, 65185.55464572366, -31037.274722728103, -1375.1240223794011, 16486.78082070122, 7399.343836229305, 27124.713614548877, 4544.646089630854, 37841.6821767905, 46484.38650183517, 36893.09649385172, 46061.670310696405, 23491.61636729436, 26073.19814839341, -6050.0360786957835, -619.0539144341844, -0.088, 0.986, 0.28200000000000003, 192.0, 0.0, 0.0, 0.0, 0.0, 0.0, 0.0, 0.0, 0.0, 0.0, 1.70688291552444E9, 0.0, 2024-02-02 15:08:35.524
72.0, 61718.352045816435, 65193.02012837173, -31029.33985344647, -1371.123060121901, 16491.340576570103, 7399.6344089072245, 27122.009053469785, 4541.673307618297, 37840.65399654555, 46480.206725622025, 36900.27140382188, 46064.10665084203, 23491.92929171673, 26069.77833149175, -6043.822293737208, -616.0587806771732, -0.088, 0.986, 0.28200000000000003, 192.0, 0.0, 0.0, 0.0, 0.0, 0.0, 0.0, 0.0, 0.0, 0.0, 1.7068829155322442E9, 0.0, 2024-02-02 15:08:35.532
74.0, 61721.12366212889, 65197.42342202943, -31028.15521099034, -1374.5652287680184, 16493.508695782268, 7393.733548371023, 27122.299626147706, 4540.08633376197, 37847.87361000462, 46488.70038851505, 36909.59208125974, 46073.0249968797, 23502.345204632904, 26076.237985639335, -6033.741656987865, -610.0238096742404, -0.088, 0.986, 0.28200000000000003, 192.0, 0.0, 0.0, 0.0, 0.0, 0.0, 0.0, 0.0, 0.0, 0.0, 1.7068829155402584E9, 0.0, 2024-02-02 15:08:35.540
76.0, 61713.1664411028, 65187.54395098019, -31037.073557028005, -1384.3776445838982, 16486.15497185647, 7387.229190734529, 27106.541646306712, 4528.597537111943, 37838.10589767765, 46481.34666458925, 36898.97500264347, 46061.58090371858, 23493.158637661774, 26062.625773266052, -6044.738715259876, -624.3065743811816, -0.088, 0.986, 0.28200000000000003, 192.0, 0.0, 0.0, 0.0, 0.0, 0.0, 0.0, 0.0, 0.0, 0.0, 1.7068829155494876E9, 0.0, 2024-02-02 15:08:35.549
78.0, 61711.04302537955, 65187.70041319137, -31039.219324495712, -1386.0093219291357, 16484.433887533414, 7385.8433825782995, 27104.17236139445, 4526.116493477403, 37830.34984235166, 46475.69167324206, 36899.3102788103, 46062.720842685805, 23491.75047776109, 26061.083502898637, -6048.493808328368, -628.7545715277877, -0.08600000000000001, 0.982, 0.29, 192.0, 126.5, 40.0, 15.0, 88.0, 4.5, 8.0, 0.0, 0.0, 0.0, 1.7068829155555534E9, 0.0, 2024-02-02 15:08:35.555
80.0, 61720.855441195425, 65199.70329996387, -31030.457440669234, -1376.6886444912725, 16496.973216172843, 7397.958028073076, 27134.727196064854, 4543.886130319373, 37831.668595274525, 46491.0249699384, 36899.37733404367, 46068.19702007735, 23496.13141967433, 26068.079598913147, -6048.4491048394575, -629.6039378170893, -0.08600000000000001, 0.982, 0.29, 192.0, 0.0, 0.0, 0.0, 0.0, 0.0, 0.0, 0.0, 0.0, 0.0, 1.7068829155643408E9, 0.0, 2024-02-02 15:08:35.564
82.0, 61719.380226061374, 65195.00943362826, -31033.89960931535, -1378.253266603144, 16494.067489393652, 7398.628580406736, 27131.03915822973, 4542.522673907599, 37834.10493542015, 46492.18726065008, 36905.702877724514, 46070.611008478525, 23501.384079621326, 26076.12622691706, -6041.654174525043, -621.2443853908045, -0.08600000000000001, 0.982, 0.29, 192.0, 0.0, 0.0, 0.0, 0.0, 0.0, 0.0, 0.0, 0.0, 0.0, 1.706882915572327E9, 0.0, 2024-02-02 15:08:35.572
84.0, 61715.80394694852, 65190.27086380373, -31037.051205283547, -1382.4330428162866, 16486.378489301027, 7390.380786702727, 27113.850666743598, 4531.860891802417, 37829.500476062356, 46486.59932453625, 36903.04302013433, 46070.611008478525, 23501.093506943405, 26072.77346524876, -6044.358735604136, -620.8197022461536, -0.08600000000000001, 0.982, 0.29, 192.0, 0.0, 0.0, 0.0, 0.0, 0.0, 0.0, 0.0, 0.0, 0.0, 1.7068829155796037E9, 0.0, 2024-02-02 15:08:35.579
86.0, 61709.3666445454, 65182.917139877936, -31041.253333241148, -1385.5622870400296, 16480.723497953833, 7387.0727285233415, 27108.307434118684, 4526.965859766706, 37819.084563146185, 46484.81118497982, 36894.43759851904, 46062.02793860769, 23491.526960316536, 26060.748226731805, -6053.478247341901, -627.4134668604693, -0.08600000000000001, 0.982, 0.29, 192.0, 0.0, 0.0, 0.0, 0.0, 0.0, 0.0, 0.0, 0.0, 0.0, 1.706882915588331E9, 0.0, 2024-02-02 15:08:35.588
88.0, 61715.84865043744, 65194.160067338955, -31032.491449414665, -1375.9063334353368, 16487.853704435078, 7397.242772250506, 27115.97408246685, 4537.918214549806, 37819.375135824106, 46477.85979245422, 36899.77966544386, 46066.207714820834, 23494.544445818003, 26065.330334345144, -6045.498674571357, -620.9314609684302, -0.085, 0.982, 0.28900000000000003, 192.0, 126.5, 48.0, 15.0, 88.0, 4.5, 0.0, 0.0, 0.0, 0.0, 1.7068829155963483E9, 0.0, 2024-02-02 15:08:35.596
90.0, 61719.31317082801, 65199.03274763021, -31031.552676147545, -1371.771260711105, 16492.16759111495, 7402.137804286219, 27117.89633249001, 4541.628604129387, 37822.213807369924, 46497.417568852616, 36903.84768293473, 46076.064834125624, 23500.02062320955, 26073.421665837966, -6040.178959390993, -611.7895974862096, -0.085, 0.982, 0.28900000000000003, 192.0, 0.0, 0.0, 0.0, 0.0, 0.0, 0.0, 0.0, 0.0, 0.0, 1.7068829156036549E9, 0.0, 2024-02-02 15:08:35.603
92.0, 61711.557115502015, 65189.80147717017, -31036.447708183256, -1372.7994409560492, 16492.21229460386, 7402.964818831065, 27114.78944001072, 4539.1922639837585, 37814.7259729774, 46489.25918212643, 36901.031363133356, 46074.61197073603, 23496.198474907695, 26073.354610604598, -6043.375258848102, -614.6282690320336, -0.085, 0.982, 0.28900000000000003, 192.0, 0.0, 0.0, 0.0, 0.0, 0.0, 0.0, 0.0, 0.0, 0.0, 1.7068829156113317E9, 0.0, 2024-02-02 15:08:35.611
94.0, 61694.34627227143, 65176.50218921926, -31044.784908865084, -1381.4272143157978, 16482.958672399363, 7392.7947751039, 27108.150971907497, 4531.860891802417, 37804.15359785004, 46485.83936522477, 36893.342363040734, 46069.44871776685, 23490.92346321624, 26069.599517536106, -6048.314994372725, -618.4951208228017, -0.085, 0.982, 0.28900000000000003, 192.0, 0.0, 0.0, 0.0, 0.0, 0.0, 0.0, 0.0, 0.0, 0.0, 1.706882915621385E9, 0.0, 2024-02-02 15:08:35.621
96.0, 61687.95367335722, 65165.79570362517, -31035.799507594053, -1377.4709555472084, 16490.35709981407, 7398.069786795353, 27120.31032089118, 4537.761752338619, 37792.642449455554, 46479.71498724401, 36885.92158388157, 46059.61395020651, 23485.22376838014, 26062.53636628823, -6053.746468275365, -624.1501121699944, -0.085, 0.982, 0.28900000000000003, 192.0, 0.0, 0.0, 0.0, 0.0, 0.0, 0.0, 0.0, 0.0, 0.0, 1.7068829156273804E9, 0.0, 2024-02-02 15:08:35.627
98.0, 61683.23745527714, 65158.129055277, -31028.915170301818, -1370.6313217438844, 16497.621416762046, 7405.199993276596, 27124.735966293334, 4540.890996562362, 37798.878586158586, 46476.54103953136, 36899.17616834357, 46067.28059855469, 23499.61829180936, 26069.48775881383, -6035.350982588647, -612.0131149307626, -0.0865, 0.981, 0.28650000000000003, 192.0, 126.5, 32.0, 15.0, 80.0, 4.0, 112.0, 0.0, 0.0, 0.0, 1.7068829156367023E9, 0.0, 2024-02-02 15:08:35.636
100.0, 61658.4046671873, 65128.2224211958, -31034.32429246, -1372.5088682781302, 16496.07914639463, 7402.428376964138, 27118.7009952904, 4534.520749392599, 37791.43545525497, 46482.240734367464, 36894.28113630785, 46065.60421772054, 23501.875817999342, 26073.376962349055, -6038.033191923284, -612.840129475609, -0.0865, 0.981, 0.28650000000000003, 192.0, 0.0, 0.0, 0.0, 0.0, 0.0, 0.0, 0.0, 0.0, 0.0, 1.706882915644498E9, 0.0, 2024-02-02 15:08:35.644
102.0, 61630.62144882935, 65091.07382191108, -31039.934580318284, -1378.4767840476973, 16493.486344037814, 7401.534307185925, 27115.03530919973, 4533.984307525672, 37777.89029811505, 46457.02796662188, 36885.943935626026, 46051.030880335675, 23498.768925520057, 26069.5548140472, -6041.184787891482, -616.5058155662794, -0.0865, 0.981, 0.28650000000000003, 192.0, 0.0, 0.0, 0.0, 0.0, 0.0, 0.0, 0.0, 0.0, 0.0, 1.7068829156514854E9, 0.0, 2024-02-02 15:08:35.651
104.0, 61603.01704442705, 65055.64630694942, -31042.08034778599, -1380.3990340708535, 16493.73221322682, 7398.449766451093, 27119.50565809079, 4536.510054649121, 37763.83105085266, 46441.04646933633, 36873.829290131245, 46036.74811562874, 23496.421992352247, 26065.375037834056, -6040.961270446929, -618.875100478542, -0.0865, 0.981, 0.28650000000000003, 192.0, 0.0, 0.0, 0.0, 0.0, 0.0, 0.0, 0.0, 0.0, 0.0, 1.7068829156606295E9, 0.0, 2024-02-02 15:08:35.660
106.0, 61579.994747638084, 65030.72411188175, -31042.840307097475, -1381.807193971538, 16497.55436152868, 7401.221382763551, 27128.379300639546, 4540.242795973158, 37753.52689665877, 46434.4080012331, 36864.7991853713, 46028.72383936928, 23493.203341150685, 26060.859985454084, -6041.5871192916775, -619.7915220012095, -0.0865, 0.981, 0.28650000000000003, 192.0, 0.0, 0.0, 0.0, 0.0, 0.0, 0.0, 0.0, 0.0, 0.0, 1.706882915668436E9, 0.0, 2024-02-02 15:08:35.668
108.0, 61559.54290146147, 65010.07110000505, -31044.673150142808, -1382.8130224720267, 16494.559227771668, 7398.919153084655, 27120.84676275811, 4537.717048849708, 37748.31894020068, 46420.75108537091, 36866.699083650004, 46022.28653696615, 23496.60080630789, 26062.692828499417, -6034.09928489915, -611.4319695749247, -0.08625, 0.9804999999999999, 0.28425, 192.0, 126.5, 40.0, 15.0, 80.0, 4.0, 104.0, 0.0, 0.0, 0.0, 1.7068829156754568E9, 0.0, 2024-02-02 15:08:35.675
110.0, 61537.347619217355, 64985.50653284867, -31056.832499126496, -1395.5088133226411, 16484.88092242252, 7384.055243021875, 27107.5474748072, 4523.1660632093035, 37733.25386443781, 46415.49842542392, 36851.76811835386, 46008.42845540386, 23486.251948625082, 26052.656895238986, -6047.465628083423, -621.0432196907068, -0.08625, 0.9804999999999999, 0.28425, 192.0, 0.0, 0.0, 0.0, 0.0, 0.0, 0.0, 0.0, 0.0, 0.0, 1.7068829156834905E9, 0.0, 2024-02-02 15:08:35.683
112.0, 61529.18923249117, 64978.01869845614, -31053.166813035827, -1389.5632492975294, 16488.971291657843, 7389.866696580255, 27118.27631214575, 4531.190339468759, 37724.51433235578, 46395.4489106475, 36845.08494676172, 45998.325466910064, 23482.56391078996, 26042.77742418974, -6051.377183363103, -628.6204610610558, -0.08625, 0.9804999999999999, 0.28425, 192.0, 0.0, 0.0, 0.0, 0.0, 0.0, 0.0, 0.0, 0.0, 0.0, 1.706882915692533E9, 0.0, 2024-02-02 15:08:35.692
114.0, 61511.15137471574, 64965.345259349975, -31057.927734604807, -1391.6196097874176, 16482.86926542154, 7389.062033779864, 27109.447373085903, 4528.2175574562025, 37720.312204398186, 46402.71322759548, 36844.123821750145, 46000.29242042213, 23485.60374803588, 26050.399369049, -6046.772724005309, -620.4620743348687, -0.08625, 0.9804999999999999, 0.28425, 192.0, 0.0, 0.0, 0.0, 0.0, 0.0, 0.0, 0.0, 0.0, 0.0, 1.7068829156995034E9, 0.0, 2024-02-02 15:08:35.699
116.0, 61514.012398006016, 64966.01581168364, -31057.368940993423, -1390.5020225646524, 16484.255073577773, 7393.934714071121, 27114.252998143795, 4533.961955781217, 37708.26461413677, 46405.820120074764, 36836.010138512866, 45994.548022097115, 23479.144093888295, 26050.44407253791, -6053.455895597446, -622.3396208691146, -0.08625, 0.9804999999999999, 0.28425, 192.0, 0.0, 0.0, 0.0, 0.0, 0.0, 0.0, 0.0, 0.0, 0.0, 1.7068829157075112E9, 0.0, 2024-02-02 15:08:35.707
118.0, 61513.40890090572, 64961.83603547049, -31058.844156127474, -1393.9218394663144, 16481.617567732046, 7391.7665948589565, 27106.720460262357, 4531.9726505246945, 37709.98569845983, 46395.51596588087, 36841.86629556016, 45994.30215290811, 23482.9438904457, 26051.2487353383, -6052.651232797055, -623.1666354139609, -0.085125, 0.98025, 0.286125, 192.0, 126.5, 48.0, 15.0, 80.0, 4.5, 0.0, 0.0, 0.0, 0.0, 1.706882915715739E9, 0.0, 2024-02-02 15:08:35.715
120.0, 61502.23302867807, 64954.8846429449, -31069.304772532556, -1403.9354209822918, 16472.319242038637, 7384.41287093316, 27100.35021309259, 4525.490644632655, 37699.681544265935, 46398.84637580471, 36830.73512682142, 45987.1048911935, 23475.5901665199, 26044.00677013478, -6068.431564382501, -635.549501842201, -0.085125, 0.98025, 0.286125, 192.0, 0.0, 0.0, 0.0, 0.0, 0.0, 0.0, 0.0, 0.0, 0.0, 1.7068829157245822E9, 0.0, 2024-02-02 15:08:35.724
122.0, 61513.90063928374, 64961.72427674822, -31058.039493327084, -1398.3698366129204, 16484.36683230005, 7396.013426305464, 27106.586349795623, 4535.750095337641, 37705.58240480213, 46393.23608794643, 36836.32306293524, 45986.88137374895, 23485.000250935587, 26047.650104480996, -6059.155590433549, -630.8109320176759, -0.085125, 0.98025, 0.286125, 192.0, 0.0, 0.0, 0.0, 0.0, 0.0, 0.0, 0.0, 0.0, 0.0, 1.706882915731537E9, 0.0, 2024-02-02 15:08:35.731
124.0, 61508.536220614464, 64961.41135232584, -31066.19788005327, -1406.9082029948477, 16479.02476537523, 7385.083423266819, 27115.97408246685, 4534.2078249702245, 37704.24130013482, 46390.933858267534, 36833.23852220041, 45982.00869345769, 23485.201416635682, 26043.649142223498, -6060.273177656314, -632.487312851824, -0.085125, 0.98025, 0.286125, 192.0, 0.0, 0.0, 0.0, 0.0, 0.0, 0.0, 0.0, 0.0, 0.0, 1.7068829157396488E9, 0.0, 2024-02-02 15:08:35.739
126.0, 61522.21548822111, 64978.510436834156, -31062.465138729232, -1401.4320256032975, 16488.859532935563, 7389.196144246596, 27127.574637839156, 4539.818112828507, 37702.85549197859, 46393.884288535635, 36831.80801055527, 45985.49556559272, 23485.067306168952, 26040.38578753302, -6055.154628176049, -631.1685599289608, -0.085125, 0.98025, 0.286125, 192.0, 0.0, 0.0, 0.0, 0.0, 0.0, 0.0, 0.0, 0.0, 0.0, 1.7068829157486124E9, 0.0, 2024-02-02 15:08:35.748
128.0, 61530.84326158086, 64988.00992822766, -31061.973400351217, -1398.7498162686607, 16488.70307072438, 7383.675263366135, 27123.93130349294, 4533.917252292305, 37705.068314679665, 46393.28079143534, 36836.41246991306, 45990.16708018388, 23488.531826559523, 26039.625828221542, -6052.181846163493, -631.2356151623268, -0.0925625, 0.981125, 0.2860625, 192.0, 126.0, 112.0, 15.0, 88.0, 4.0, 120.0, 0.0, 0.0, 0.0, 1.706882915755627E9, 0.0, 2024-02-02 15:08:35.755
130.0, 61542.06383729742, 65000.839829545, -31063.00158059616, -1399.5991825579624, 16484.97032940034, 7383.295283710395, 27115.907027233487, 4530.3856766683675, 37708.53283507023, 46414.26907947887, 36841.77688858234, 46002.035856489645, 23489.917634715755, 26047.471290525355, -6052.8523984971525, -629.648641306, -0.0925625, 0.981125, 0.2860625, 192.0, 0.0, 0.0, 0.0, 0.0, 0.0, 0.0, 0.0, 0.0, 0.0, 1.7068829157636075E9, 0.0, 2024-02-02 15:08:35.763
132.0, 61556.771285149014, 65014.20617272928, -31066.19788005327, -1406.0588367055461, 16484.612701489055, 7382.3788621877275, 27112.71072777638, 4527.882281289373, 37708.555186814694, 46408.30116370931, 36843.90030430559, 46002.326429167566, 23487.391887592305, 26043.20210733439, -6061.211950923437, -638.0752489656508, -0.0925625, 0.981125, 0.2860625, 192.0, 0.0, 0.0, 0.0, 0.0, 0.0, 0.0, 0.0, 0.0, 0.0, 1.7068829157716088E9, 0.0, 2024-02-02 15:08:35.771
134.0, 61566.20372130915, 65025.87378333495, -31069.550641721566, -1410.2833164075992, 16480.276463064725, 7374.756917328467, 27110.542608564214, 4520.930888763773, 37710.14216067102, 46407.787073586835, 36842.22392347144, 45999.57716459956, 23485.6931550137, 26038.396482276497, -6064.698823058466, -641.3386036561255, -0.0925625, 0.981125, 0.2860625, 192.0, 0.0, 0.0, 0.0, 0.0, 0.0, 0.0, 0.0, 0.0, 0.0, 1.7068829157805862E9, 0.0, 2024-02-02 15:08:35.780
136.0, 61588.734279720105, 65049.96896385777, -31056.877202615407, -1392.290162121077, 16486.467896278846, 7391.163097758663, 27118.07514644565, 4532.79966506954, 37714.567806073166, 46421.51104468239, 36848.28124621883, 46005.70154258032, 23484.35205034638, 26041.324560800145, -6066.129334703605, -635.7730192867541, -0.0925625, 0.981125, 0.2860625, 192.0, 0.0, 0.0, 0.0, 0.0, 0.0, 0.0, 0.0, 0.0, 0.0, 1.70688291578778E9, 0.0, 2024-02-02 15:08:35.787
138.0, 61609.23082938562, 65075.82993219256, -31045.075481543005, -1377.1133276359235, 16491.69820448139, 7404.6859031541235, 27122.880771503544, 4544.891958819861, 37729.90110276951, 46438.87835012416, 36870.744749396414, 46028.25445273572, 23497.584283063923, 26059.273011597757, -6049.477285084401, -615.5446905547012, -0.09328125000000001, 0.9825625, 0.28703125, 192.0, 126.5, 8.0, 15.0, 96.0, 4.5, 0.0, 0.0, 0.0, 0.0, 1.7068829157956564E9, 0.0, 2024-02-02 15:08:35.795
140.0, 61609.990788697105, 65080.143818872435, -31050.596362423465, -1384.444699817264, 16485.663233478455, 7399.410891462671, 27119.46095460188, 4539.080505261481, 37734.974948760864, 46456.67033871059, 36874.119862809166, 46038.11157204051, 23501.85346625489, 26068.169005890966, -6047.063296683228, -611.163748641461, -0.09328125000000001, 0.9825625, 0.28703125, 192.0, 0.0, 0.0, 0.0, 0.0, 0.0, 0.0, 0.0, 0.0, 0.0, 1.7068829158048282E9, 0.0, 2024-02-02 15:08:35.804
142.0, 61628.363922639364, 65099.79100224865, -31042.86265884193, -1377.9850456696804, 16492.7934399597, 7408.463347967071, 27127.88756226153, 4548.512941421622, 37730.772820803264, 46447.774344417376, 36873.270496519865, 46035.027031305675, 23498.567759819958, 26062.424607565954, -6050.170189162515, -614.650620776489, -0.09328125000000001, 0.9825625, 0.28703125, 192.0, 0.0, 0.0, 0.0, 0.0, 0.0, 0.0, 0.0, 0.0, 0.0, 1.7068829158116722E9, 0.0, 2024-02-02 15:08:35.811
144.0, 61627.29103890551, 65099.098098170536, -31052.898592102363, -1387.0375021740797, 16478.465971763846, 7394.337045471317, 27107.659233529477, 4535.303060448535, 37742.9098180425, 46459.10667885622, 36880.84773789022, 46041.84431336455, 23506.145001190307, 26065.240927367322, -6049.298471128759, -610.2249753743381, -0.09328125000000001, 0.9825625, 0.28703125, 192.0, 0.0, 0.0, 0.0, 0.0, 0.0, 0.0, 0.0, 0.0, 0.0, 1.706882915819697E9, 0.0, 2024-02-02 15:08:35.819
146.0, 61635.069445975954, 65106.138897673954, -31051.19985952376, -1386.8810399628926, 16483.11513461055, 7394.180583260129, 27113.26952138776, 4537.717048849708, 37738.84180055163, 46460.87246666819, 36875.46096747649, 46041.35257498653, 23499.12655343134, 26059.652991253497, -6055.959290976441, -619.0315626897291, -0.09328125000000001, 0.9825625, 0.28703125, 192.0, 0.0, 0.0, 0.0, 0.0, 0.0, 0.0, 0.0, 0.0, 0.0, 1.7068829158277068E9, 0.0, 2024-02-02 15:08:35.827
148.0, 61637.036399488024, 65104.79779300664, -31054.95495259225, -1391.8431272319708, 16484.769163700243, 7391.028987291931, 27115.705861533388, 4539.751057595141, 37736.092535983626, 46449.71894618499, 36876.712665165986, 46039.27386275218, 23499.37242262035, 26052.12045337206, -6052.651232797055, -622.518434824757, -0.091640625, 0.98328125, 0.289515625, 192.0, 126.5, 24.0, 15.0, 96.0, 4.5, 16.0, 0.0, 0.0, 0.0, 1.706882915837166E9, 0.0, 2024-02-02 15:08:35.837
150.0, 61638.17633845525, 65107.1670779189, -31053.367978735925, -1395.5088133226411, 16482.01989913224, 7385.798679089389, 27109.045041685706, 4532.844368558451, 37731.28691092574, 46454.03283286486, 36871.169432541064, 46036.144618528444, 23495.103239429383, 26049.170023103958, -6053.38884036408, -626.0500104486955, -0.091640625, 0.98328125, 0.289515625, 192.0, 0.0, 0.0, 0.0, 0.0, 0.0, 0.0, 0.0, 0.0, 0.0, 1.7068829158437004E9, 0.0, 2024-02-02 15:08:35.843
152.0, 61654.381353185345, 65125.04847348315, -31041.543905919065, -1387.1045574074458, 16497.12967838403, 7398.717987384557, 27128.781632039743, 4545.048421031049, 37737.925379028966, 46453.362280531204, 36881.451234990505, 46040.1679325304, 23502.635777310825, 26050.712293471373, -6046.839779238675, -622.1608069134721, -0.091640625, 0.98328125, 0.289515625, 192.0, 0.0, 0.0, 0.0, 0.0, 0.0, 0.0, 0.0, 0.0, 0.0, 1.7068829158517168E9, 0.0, 2024-02-02 15:08:35.851
154.0, 61658.4046671873, 65130.479947385786, -31049.367016478423, -1395.195888900267, 16491.206466103373, 7388.07855702383, 27116.84580050061, 4534.3195836925015, 37742.01574826428, 46461.99005389095, 36888.00029611591, 46047.67811866738, 23510.302425658992, 26053.416854550465, -6046.325689116203, -619.5903563011118, -0.091640625, 0.98328125, 0.289515625, 192.0, 0.0, 0.0, 0.0, 0.0, 0.0, 0.0, 0.0, 0.0, 0.0, 1.706882915859723E9, 0.0, 2024-02-02 15:08:35.859
156.0, 61664.03730679004, 65138.68303760089, -31051.51278394613, -1394.3688743554205, 16482.757506699265, 7390.60430414728, 27106.161666650973, 4531.592670868954, 37737.05366099521, 46466.8180306933, 36881.09360707922, 46045.39824073294, 23505.072117456453, 26047.180717847434, -6055.311090387237, -629.5592343281787, -0.091640625, 0.98328125, 0.289515625, 192.0, 0.0, 0.0, 0.0, 0.0, 0.0, 0.0, 0.0, 0.0, 0.0, 1.7068829158679345E9, 0.0, 2024-02-02 15:08:35.867
158.0, 61686.36669950089, 65160.72185763382, -31033.85490582644, -1374.9452084237587, 16496.012091161265, 7405.021179320954, 27133.27433267526, 4552.268034490113, 37742.12750698656, 46472.00363540693, 36893.23060431846, 46058.652825194935, 23509.542466347513, 26059.228308108846, -6045.833950738186, -618.8527487340866, -0.0888203125, 0.983640625, 0.2907578125, 192.0, 126.5, 40.0, 15.0, 96.0, 4.5, 16.0, 0.0, 0.0, 0.0, 1.7068829158757951E9, 0.0, 2024-02-02 15:08:35.875
160.0, 61680.91287385379, 65155.782122109194, -31043.33204547549, -1385.6963975067613, 16495.542704527703, 7389.754937857979, 27119.41625111297, 4537.270013960602, 37749.39182393454, 46488.253353625936, 36899.80201718832, 46068.621703222, 23513.94576000521, 26065.419741322967, -6040.693049513466, -609.487367807313, -0.0888203125, 0.983640625, 0.2907578125, 192.0, 0.0, 0.0, 0.0, 0.0, 0.0, 0.0, 0.0, 0.0, 0.0, 1.7068829158837504E9, 0.0, 2024-02-02 15:08:35.883
162.0, 61687.43958323474, 65158.17375876591, -31039.509897173633, -1381.5613247825295, 16505.35512034358, 7395.5887431608135, 27125.920608749464, 4544.780200097585, 37743.42390816497, 46471.64600749565, 36895.376371786166, 46059.25632229523, 23516.337396661926, 26054.15446211749, -6044.895177471063, -619.5009493232906, -0.0888203125, 0.983640625, 0.2907578125, 192.0, 0.0, 0.0, 0.0, 0.0, 0.0, 0.0, 0.0, 0.0, 0.0, 1.7068829158927703E9, 0.0, 2024-02-02 15:08:35.892
164.0, 61682.56690294349, 65154.262203486236, -31051.848060112963, -1388.9597521972362, 16490.044175391697, 7386.513934911959, 27114.92355047745, 4535.370115681901, 37745.748489588324, 46475.91519068661, 36896.87393866467, 46061.960883374326, 23517.924370518253, 26055.652028995995, -6042.011802436328, -614.4271033319359, -0.0888203125, 0.983640625, 0.2907578125, 192.0, 0.0, 0.0, 0.0, 0.0, 0.0, 0.0, 0.0, 0.0, 0.0, 1.7068829159001226E9, 0.0, 2024-02-02 15:08:35.900
166.0, 61692.84870539293, 65168.924947848915, -31045.05312979855, -1379.1696881258117, 16500.080108652128, 7399.500298440493, 27128.401652384004, 4547.909444321328, 37738.126544729064, 46477.546868031844, 36890.03430486134, 46058.18343856138, 23509.251893669596, 26053.886241184027, -6048.359697861636, -620.2162051458604, -0.0888203125, 0.983640625, 0.2907578125, 192.0, 0.0, 0.0, 0.0, 0.0, 0.0, 0.0, 0.0, 0.0, 0.0, 1.7068829159078088E9, 0.0, 2024-02-02 15:08:35.907
168.0, 61697.520219984086, 65172.18830253939, -31040.6274843964, -1374.3417113234655, 16501.93530344192, 7402.830708364333, 27131.195620440918, 4550.211674000225, 37747.648387867026, 46483.38067333468, 36903.69122072354, 46069.716938700316, 23523.84758279891, 26067.789026235227, -6037.228529122893, -611.0519899191845, -0.08541015625000001, 0.9828203125, 0.29037890624999996, 192.0, 126.5, 56.0, 15.0, 88.0, 4.5, 8.0, 0.0, 0.0, 0.0, 1.7068829159158201E9, 0.0, 2024-02-02 15:08:35.915
170.0, 61696.58144671696, 65173.819979884625, -31047.48946994418, -1379.2367433591776, 16495.900332438985, 7396.996903061498, 27124.55715233769, 4543.3720401969, 37741.61341686409, 46493.39425485066, 36898.997354387924, 46068.48759275527, 23521.590056608922, 26067.49845355731, -6045.096343171161, -618.0257341892403, -0.08541015625000001, 0.9828203125, 0.29037890624999996, 192.0, 0.0, 0.0, 0.0, 0.0, 0.0, 0.0, 0.0, 0.0, 0.0, 1.706882915922829E9, 0.0, 2024-02-02 15:08:35.922
172.0, 61692.91576062629, 65170.467218216334, -31047.91415308883, -1378.5661910255185, 16495.565056272157, 7396.840440850311, 27119.50565809079, 4541.270976218102, 37731.93511151494, 46487.91807745911, 36894.884633408146, 46064.41957526441, 23516.627969339846, 26062.089331399126, -6051.868921741119, -626.519397082257, -0.08541015625000001, 0.9828203125, 0.29037890624999996, 192.0, 0.0, 0.0, 0.0, 0.0, 0.0, 0.0, 0.0, 0.0, 0.0, 1.7068829159318085E9, 0.0, 2024-02-02 15:08:35.931
174.0, 61695.79913566103, 65174.378773496006, -31041.946237319262, -1369.513734521119, 16498.291969095706, 7398.539173428914, 27121.09263194712, 4545.428400686789, 37737.99243426233, 46497.95401071954, 36904.54058701284, 46072.26503756822, 23526.596847366913, 26071.58882279263, -6043.531721059289, -617.7575132557766, -0.08541015625000001, 0.9828203125, 0.29037890624999996, 192.0, 0.0, 0.0, 0.0, 0.0, 0.0, 0.0, 0.0, 0.0, 0.0, 1.7068829159398825E9, 0.0, 2024-02-02 15:08:35.939
176.0, 61690.792344903035, 65166.71212514784, -31041.409795452335, -1365.579827496985, 16495.676814994433, 7400.684940896624, 27116.734041778334, 4543.908482063828, 37734.61732084958, 46505.374789878704, 36901.45604627801, 46074.50021201375, 23523.71347233218, 26070.4041803365, -6048.225587394904, -618.5845278006229, -0.08541015625000001, 0.9828203125, 0.29037890624999996, 192.0, 0.0, 0.0, 0.0, 0.0, 0.0, 0.0, 0.0, 0.0, 0.0, 1.7068829159479227E9, 0.0, 2024-02-02 15:08:35.947
178.0, 61674.095591794925, 65147.78019759419, -31040.269856485113, -1368.060871131524, 16495.766221972255, 7396.706330383579, 27115.817620255664, 4543.260281474624, 37728.49294286883, 46494.84711824026, 36899.73496195495, 46067.70528169934, 23522.640588598322, 26068.861909969084, -6048.806732750742, -617.3998853444917, -0.084705078125, 0.98341015625, 0.291189453125, 192.0, 126.5, 48.0, 15.0, 96.0, 4.5, 16.0, 0.0, 0.0, 0.0, 1.7068829159549887E9, 0.0, 2024-02-02 15:08:35.954
180.0, 61653.71080085168, 65121.65100832594, -31044.851964098452, -1373.8499729454486, 16493.41928880445, 7393.89001058221, 27117.98573946783, 4544.601386141942, 37722.547378843716, 46488.43216758158, 36890.79426417283, 46060.060985095624, 23523.355844420894, 26062.49166279932, -6048.67262228401, -617.9139754669637, -0.084705078125, 0.98341015625, 0.291189453125, 192.0, 0.0, 0.0, 0.0, 0.0, 0.0, 0.0, 0.0, 0.0, 0.0, 1.7068829159638493E9, 0.0, 2024-02-02 15:08:35.963
182.0, 61632.43194013023, 65096.639406280454, -31045.924847832306, -1378.1862113697782, 16500.37068133005, 7397.51099318397, 27122.344329636617, 4550.211674000225, 37712.91377698348, 46474.19410636355, 36882.47941523545, 46050.02505183519, 23523.311140931983, 26058.848328453107, -6047.91266297253, -621.4679028353576, -0.084705078125, 0.98341015625, 0.291189453125, 192.0, 0.0, 0.0, 0.0, 0.0, 0.0, 0.0, 0.0, 0.0, 0.0, 1.706882915971933E9, 0.0, 2024-02-02 15:08:35.971
184.0, 61613.94704746569, 65072.655984479905, -31045.61192340993, -1379.6837782482837, 16502.471745308845, 7397.89097283971, 27130.592123340622, 4553.273862990602, 37715.484227595836, 46466.34864405974, 36877.83025238875, 46039.363269730005, 23527.42386191176, 26062.15638663249, -6045.789247249276, -619.8809289790307, -0.084705078125, 0.98341015625, 0.291189453125, 192.0, 0.0, 0.0, 0.0, 0.0, 0.0, 0.0, 0.0, 0.0, 0.0, 1.7068829159789405E9, 0.0, 2024-02-02 15:08:35.978
186.0, 61577.67016621473, 65028.60069615849, -31051.065749057027, -1389.2726766196106, 16497.375547573036, 7392.683016381624, 27128.781632039743, 4549.697583877753, 37707.19173040292, 46451.03769910785, 36864.396853971106, 46022.085371266054, 23520.60657985289, 26055.853194696094, -6048.963194961929, -623.5019115807905, -0.084705078125, 0.98341015625, 0.291189453125, 192.0, 0.0, 0.0, 0.0, 0.0, 0.0, 0.0, 0.0, 0.0, 0.0, 1.7068829159879656E9, 0.0, 2024-02-02 15:08:35.987
188.0, 61563.789732907986, 65012.84271631751, -31050.551658934553, -1391.7537202541496, 16494.40276556048, 7395.499336182993, 27121.919646491962, 4550.636357144876, 37710.67860253795, 46422.31570748278, 36860.44059520252, 46012.652935105914, 23516.22563793965, 26051.315790571665, -6048.538511817278, -622.2055104023827, -0.084705078125, 0.98341015625, 0.291189453125, 192.0, 0.0, 0.0, 0.0, 0.0, 0.0, 0.0, 0.0, 0.0, 0.0, 1.7068829159959505E9, 0.0, 2024-02-02 15:08:35.995
190.0, 61546.26596525502, 64996.97297775424, -31059.492356716677, -1398.638057546384, 16484.97032940034, 7389.8890483247105, 27117.47164934536, 4546.300118720546, 37717.54058808572, 46425.24378600643, 36852.61748464316, 46005.70154258032, 23507.03907096852, 26050.15349985999, -6057.76978227732, -625.3794581150363, -0.088, 0.986, 0.28600000000000003, 192.0, 126.5, 32.0, 15.0, 104.0, 4.0, 120.0, 0.0, 0.0, 0.0, 1.70688291600316E9, 0.0, 2024-02-02 15:08:36.003
192.0, 61542.734389631085, 64990.66978581784, -31056.944257848772, -1395.7546825116494, 16491.474687036836, 7395.678150138635, 27122.14316393652, 4550.435191444778, 37727.44241087943, 46416.7054196245, 36853.57860965474, 46006.03681874715, 23503.105163944383, 26053.39450280601, -6056.562788076733, -626.2511761487933, -0.088, 0.986, 0.28600000000000003, 192.0, 0.0, 0.0, 0.0, 0.0, 0.0, 0.0, 0.0, 0.0, 0.0, 1.7068829160111775E9, 0.0, 2024-02-02 15:08:36.011
194.0, 61523.26602021051, 64975.11297167695, -31063.225098040715, -1402.057874448046, 16487.58548350161, 7391.699539625591, 27115.862323744575, 4545.830732086984, 37730.88457952554, 46409.128178254156, 36847.2977694628, 46002.169966956375, 23499.12655343134, 26053.97564816185, -6054.417020609024, -622.3396208691146, -0.088, 0.986, 0.28600000000000003, 192.0, 0.0, 0.0, 0.0, 0.0, 0.0, 0.0, 0.0, 0.0, 0.0, 1.70688291601997E9, 0.0, 2024-02-02 15:08:36.019
196.0, 61516.448738151645, 64969.882663474404, -31068.67892368781, -1404.5836215714958, 16484.657404977967, 7391.9454088145985, 27116.264655144772, 4545.115476264415, 37736.04783249472, 46407.585907886736, 36838.044147258304, 45995.91147850889, 23493.158637661774, 26055.652028995995, -6060.161418934038, -626.6088040600782, -0.088, 0.986, 0.28600000000000003, 192.0, 0.0, 0.0, 0.0, 0.0, 0.0, 0.0, 0.0, 0.0, 0.0, 1.7068829160280187E9, 0.0, 2024-02-02 15:08:36.028
198.0, 61520.51675564251, 64973.92832922081, -31066.91313587584, -1404.1142349379343, 16487.004338145773, 7393.241809993006, 27121.338501136128, 4546.769505354107, 37742.887466298045, 46396.27592519235, 36841.17339148204, 45998.28076342115, 23491.683422527723, 26056.21082260738, -6057.7250787884095, -627.7040395383882, -0.088, 0.986, 0.28600000000000003, 192.0, 0.0, 0.0, 0.0, 0.0, 0.0, 0.0, 0.0, 0.0, 0.0, 1.7068829160349827E9, 0.0, 2024-02-02 15:08:36.034
200.0, 61518.41569166371, 64971.04495418608, -31076.85966215845, -1413.8819472649036, 16478.17539908593, 7380.5013156534815, 27100.037288670217, 4527.457598144722, 37750.88939081304, 46397.7511403264, 36836.926560035536, 45997.207879687296, 23488.822399237444, 26053.39450280601, -6064.542360847278, -631.325022140148, -0.096, 0.984, 0.28600000000000003, 192.0, 126.5, 0.0, 15.0, 96.0, 4.0, 120.0, 0.0, 0.0, 0.0, 1.706882916044234E9, 0.0, 2024-02-02 15:08:36.044
202.0, 61541.16976751921, 64993.21788468574, -31062.331028262503, -1399.8897552358812, 16493.754564971277, 7394.895839082699, 27117.98573946783, 4542.813246585518, 37761.752338618324, 46388.94455301101, 36840.36872868166, 45997.78902504314, 23489.962338204663, 26051.025217893748, -6063.96121549144, -635.5047983532904, -0.096, 0.984, 0.28600000000000003, 192.0, 0.0, 0.0, 0.0, 0.0, 0.0, 0.0, 0.0, 0.0, 0.0, 1.7068829160520158E9, 0.0, 2024-02-02 15:08:36.052
204.0, 61555.76545664853, 65011.412204672364, -31064.230926541204, -1403.287220393088, 16490.73707946981, 7391.431318692126, 27118.186905167928, 4542.56737739651, 37780.639562683056, 46396.387683914625, 36854.83030734424, 46013.52465313967, 23498.768925520057, 26059.92121218696, -6051.980680463395, -622.6525452914889, -0.096, 0.984, 0.28600000000000003, 192.0, 0.0, 0.0, 0.0, 0.0, 0.0, 0.0, 0.0, 0.0, 0.0, 1.706882916059019E9, 0.0, 2024-02-02 15:08:36.059
206.0, 61568.9306341327, 65027.03607404663, -31070.824691155518, -1405.9470779832695, 16485.506771267268, 7392.191278003607, 27117.158724922985, 4539.885168061873, 37787.99328660885, 46410.35752419919, 36855.81378410027, 46013.81522581759, 23495.70673652968, 26060.323543587154, -6055.735773531887, -622.6301935470335, -0.096, 0.984, 0.28600000000000003, 192.0, 0.0, 0.0, 0.0, 0.0, 0.0, 0.0, 0.0, 0.0, 0.0, 1.7068829160671952E9, 0.0, 2024-02-02 15:08:36.067
208.0, 61585.89560817428, 65042.749350398706, -31065.81790039753, -1397.453415090253, 16489.843009691598, 7398.248600750995, 27118.589236568125, 4543.036764030071, 37792.016600610805, 46408.59173638722, 36859.03243530184, 46016.922118296876, 23491.437553338714, 26062.469311054865, -6056.875712499108, -621.423199346447, -0.096, 0.984, 0.28600000000000003, 192.0, 0.0, 0.0, 0.0, 0.0, 0.0, 0.0, 0.0, 0.0, 0.0, 1.706882916076055E9, 0.0, 2024-02-02 15:08:36.076
210.0, 61589.293073331486, 65050.1030743245, -31077.4855110032, -1405.254173905155, 16474.107381595062, 7385.1951819890955, 27102.764201493766, 4528.932813278772, 37800.130283848084, 46422.20394876051, 36858.2501242459, 46020.073714265076, 23488.97886144863, 26060.457654053887, -6064.028270724806, -625.1112371815726, -0.096, 0.986, 0.28400000000000003, 192.0, 126.5, 0.0, 15.0, 104.0, 4.0, 112.0, 0.0, 0.0, 0.0, 1.706882916084051E9, 0.0, 2024-02-02 15:08:36.084
212.0, 61605.11810840585, 65071.00195539022, -31062.554545707055, -1392.6254382879065, 16489.954768413874, 7399.053263551386, 27120.08680344663, 4543.394391941356, 37806.41112404002, 46428.99887907492, 36862.18403127004, 46021.72774335477, 23489.783524249022, 26063.318677344167, -6060.608453823144, -626.4970453378016, -0.096, 0.986, 0.28400000000000003, 192.0, 0.0, 0.0, 0.0, 0.0, 0.0, 0.0, 0.0, 0.0, 0.0, 1.7068829160910723E9, 0.0, 2024-02-02 15:08:36.091
214.0, 61625.502899349085, 65090.47032481078, -31057.90538286035, -1387.7974614855602, 16490.468858536347, 7401.333141485828, 27118.723347034855, 4546.322470465001, 37820.895054447064, 46441.64996643662, 36874.07515932026, 46033.93179582737, 23497.807800508475, 26072.929927459947, -6051.779514763298, -621.7361237688212, -0.096, 0.986, 0.28400000000000003, 192.0, 0.0, 0.0, 0.0, 0.0, 0.0, 0.0, 0.0, 0.0, 0.0, 1.7068829161003046E9, 0.0, 2024-02-02 15:08:36.100
216.0, 61630.24146917361, 65097.35466210302, -31062.375731751414, -1391.1502231538564, 16489.50773352477, 7396.75103387249, 27118.522181334756, 4543.394391941356, 37834.26139763134, 46454.63632996516, 36881.09360707922, 46045.88997911096, 23501.764059277066, 26080.753038019306, -6047.443276338969, -618.9198039674526, -0.096, 0.986, 0.28400000000000003, 192.0, 0.0, 0.0, 0.0, 0.0, 0.0, 0.0, 0.0, 0.0, 0.0, 1.706882916108092E9, 0.0, 2024-02-02 15:08:36.108
218.0, 61638.04222798851, 65103.6131505505, -31062.353380006956, -1391.1502231538564, 16490.379451558525, 7392.973589059543, 27119.103326690594, 4540.555720395532, 37834.171990653515, 46440.42062049158, 36879.39487450062, 46040.95024358633, 23495.192646407206, 26071.521767559265, -6052.047735696761, -626.0947139376061, -0.096, 0.986, 0.28400000000000003, 192.0, 0.0, 0.0, 0.0, 0.0, 0.0, 0.0, 0.0, 0.0, 0.0, 1.706882916115097E9, 0.0, 2024-02-02 15:08:36.115
220.0, 61639.49509137811, 65106.67533954088, -31065.14734806387, -1392.6924935212724, 16483.852742177576, 7388.7938128464, 27107.525123062747, 4535.213653470713, 37838.999967455864, 46451.59649271923, 36876.46679597697, 46040.50320869723, 23493.27039638405, 26067.274936112757, -6058.730907288898, -631.8614640070754, -0.092, 0.982, 0.28400000000000003, 192.0, 126.5, 16.0, 15.0, 88.0, 4.0, 112.0, 0.0, 0.0, 0.0, 1.7068829161234093E9, 0.0, 2024-02-02 15:08:36.123
222.0, 61657.95763229819, 65122.9697612488, -31051.356321734947, -1377.7615282251274, 16496.70499523938, 7402.897763597699, 27130.346254151616, 4552.491551934666, 37848.6335693161, 46446.96968161699, 36884.26755479188, 46042.73838314276, 23495.863198740866, 26072.3040786152, -6050.706631029443, -627.7710947717542, -0.092, 0.982, 0.28400000000000003, 192.0, 0.0, 0.0, 0.0, 0.0, 0.0, 0.0, 0.0, 0.0, 0.0, 1.7068829161321423E9, 0.0, 2024-02-02 15:08:36.132
224.0, 61658.91875730977, 65128.17771770689, -31056.29605725957, -1381.6954352492614, 16493.26282659326, 7395.164060016163, 27127.41817562797, 4547.887092576872, 37858.96007525445, 46453.496390997934, 36890.57074672827, 46054.5177524707, 23502.41225986627, 26080.730686274852, -6042.257671625337, -617.712809766866, -0.092, 0.982, 0.28400000000000003, 192.0, 0.0, 0.0, 0.0, 0.0, 0.0, 0.0, 0.0, 0.0, 0.0, 1.7068829161391616E9, 0.0, 2024-02-02 15:08:36.139
226.0, 61660.72924861065, 65132.73747357577, -31063.04628408507, -1387.4398335742753, 16485.283253822716, 7393.912362326666, 27115.012957455274, 4543.3049849635345, 37851.47224086193, 46450.791829918846, 36879.01489484488, 46049.578016946085, 23491.728126016635, 26070.605346036595, -6054.551131075756, -627.2570046492821, -0.092, 0.982, 0.28400000000000003, 192.0, 0.0, 0.0, 0.0, 0.0, 0.0, 0.0, 0.0, 0.0, 0.0, 1.7068829161471875E9, 0.0, 2024-02-02 15:08:36.147
228.0, 61672.754487127604, 65142.68399985838, -31061.593420695477, -1387.2386678741775, 16485.73028871182, 7395.298170482894, 27118.678643545943, 4544.891958819861, 37858.513040365346, 46447.81904790629, 36884.98281061445, 46051.54497045815, 23491.303442871984, 26069.577165791652, -6054.260558397837, -625.714734281866, -0.092, 0.982, 0.28400000000000003, 192.0, 0.0, 0.0, 0.0, 0.0, 0.0, 0.0, 0.0, 0.0, 0.0, 1.7068829161553855E9, 0.0, 2024-02-02 15:08:36.155
230.0, 61673.91677783928, 65142.88516555848, -31064.499147474668, -1392.0219411876133, 16482.556340999166, 7393.5323826709255, 27117.203428411893, 4546.23306348718, 37863.65394159007, 46463.04058588035, 36884.08874083623, 46050.98617684677, 23489.917634715755, 26070.292421614224, -6058.306224144248, -625.3794581150363, -0.084, 0.99, 0.28400000000000003, 192.0, 126.5, 48.0, 15.0, 120.0, 4.0, 112.0, 0.0, 0.0, 0.0, 1.706882916164184E9, 0.0, 2024-02-02 15:08:36.164
232.0, 61682.58925468794, 65149.61304063953, -31057.927734604807, -1387.8421649744707, 16491.608797503566, 7401.13197578573, 27128.55811459519, 4555.441982202767, 37864.950342768476, 46456.156248588115, 36886.52508098186, 46048.19220878986, 23489.64941378229, 26066.291459356722, -6053.411192108535, -621.4008476019917, -0.084, 0.99, 0.28400000000000003, 192.0, 0.0, 0.0, 0.0, 0.0, 0.0, 0.0, 0.0, 0.0, 0.0, 1.7068829161711893E9, 0.0, 2024-02-02 15:08:36.171
234.0, 61683.2598070216, 65153.412837196935, -31060.6322956839, -1391.3290371094988, 16491.9440736704, 7400.8637548522665, 27120.064451702172, 4552.200979256747, 37870.27005794884, 46455.61980672119, 36888.82731066076, 46053.40016524794, 23496.17612316324, 26071.857043726093, -6047.845607739164, -614.6059172875783, -0.084, 0.99, 0.28400000000000003, 192.0, 0.0, 0.0, 0.0, 0.0, 0.0, 0.0, 0.0, 0.0, 0.0, 1.7068829161793363E9, 0.0, 2024-02-02 15:08:36.179
236.0, 61692.7145949262, 65165.41572396943, -31052.831536868995, -1383.0365399165798, 16505.98096918833, 7414.967705603565, 27143.89141129153, 4566.4837439636885, 37873.93574403951, 46465.40987079262, 36888.82731066076, 46057.043499594154, 23497.003137708085, 26077.95906996239, -6046.4597995829345, -612.5719085421454, -0.084, 0.99, 0.28400000000000003, 192.0, 0.0, 0.0, 0.0, 0.0, 0.0, 0.0, 0.0, 0.0, 0.0, 1.7068829161874053E9, 0.0, 2024-02-02 15:08:36.187
238.0, 61692.22285654818, 65164.320488491125, -31057.123071804413, -1387.998627185658, 16501.756489486277, 7407.613981677769, 27134.570733853667, 4556.693679892263, 37882.5411656548, 46463.04058588035, 36899.64555497713, 46064.93366538688, 23506.12264944585, 26083.569357820674, -6035.798017477753, -608.0792079066287, -0.084, 0.99, 0.28400000000000003, 192.0, 0.0, 0.0, 0.0, 0.0, 0.0, 0.0, 0.0, 0.0, 0.0, 1.7068829161952343E9, 0.0, 2024-02-02 15:08:36.195
240.0, 61678.29771975252, 65152.630526140994, -31080.681810460308, -1409.7692262851272, 16475.761410684754, 7385.396347689194, 27103.390050338516, 4528.0387435005605, 37867.945476525485, 46454.77044043189, 36883.14996756911, 46051.54497045815, 23488.844750981898, 26067.476101812852, -6059.267349155825, -626.9217284824525, -0.08600000000000001, 0.98, 0.28400000000000003, 192.0, 126.5, 40.0, 15.0, 80.0, 4.0, 112.0, 0.0, 0.0, 0.0, 1.7068829162033868E9, 0.0, 2024-02-02 15:08:36.203
242.0, 61690.32295826948, 65164.14167453548, -31074.57978422401, -1406.3494093834652, 16482.51163751026, 7392.928885570632, 27108.910931218976, 4533.872548803395, 37858.75890955435, 46443.169885059586, 36878.97019135597, 46044.23595002126, 23476.439532809203, 26056.546098774208, -6070.353814405658, -637.5611588431786, -0.08600000000000001, 0.98, 0.28400000000000003, 192.0, 0.0, 0.0, 0.0, 0.0, 0.0, 0.0, 0.0, 0.0, 0.0, 1.706882916211268E9, 0.0, 2024-02-02 15:08:36.211
244.0, 61693.54160947104, 65167.69560190387, -31070.5341184776, -1404.0918831934791, 16484.053907877675, 7393.778251859934, 27111.369623109058, 4533.783141825574, 37868.72778758142, 46452.5129142419, 36888.939069383036, 46055.27771178218, 23487.74951550359, 26067.2525843683, -6058.686203799988, -624.2171674033603, -0.08600000000000001, 0.98, 0.28400000000000003, 192.0, 0.0, 0.0, 0.0, 0.0, 0.0, 0.0, 0.0, 0.0, 0.0, 1.7068829162204556E9, 0.0, 2024-02-02 15:08:36.220
246.0, 61698.95073162922, 65171.85302637256, -31061.302848017556, -1395.642923789373, 16490.535913769712, 7398.025083306442, 27114.4988673328, 4536.018316271105, 37864.391549157095, 46460.89481841264, 36883.37348501367, 46052.14846755844, 23484.93319570222, 26064.883299456036, -6061.837799768186, -628.5981093166005, -0.08600000000000001, 0.98, 0.28400000000000003, 192.0, 0.0, 0.0, 0.0, 0.0, 0.0, 0.0, 0.0, 0.0, 0.0, 1.7068829162272992E9, 0.0, 2024-02-02 15:08:36.227
248.0, 61708.561981745006, 65184.235892800796, -31050.171679278814, -1384.444699817264, 16495.140373127506, 7401.8025281193895, 27114.543570821712, 4537.739400594163, 37879.05429351977, 46468.270894082896, 36905.4123050466, 46071.90740965693, 23502.12168718835, 26081.73651477534, -6042.660003025532, -614.8294347321314, -0.08600000000000001, 0.98, 0.28400000000000003, 192.0, 0.0, 0.0, 0.0, 0.0, 0.0, 0.0, 0.0, 0.0, 0.0, 1.7068829162354856E9, 0.0, 2024-02-02 15:08:36.235
250.0, 61703.55519098702, 65180.99488985478, -31055.089063058982, -1387.3727783409095, 16484.053907877675, 7394.337045471317, 27103.03242242723, 4531.70442959123, 37872.147604483085, 46475.13287963068, 36899.86907242168, 46069.20284857784, 23493.672727784244, 26077.3555728621, -6054.506427586845, -618.6068795450783, -0.098, 0.982, 0.28800000000000003, 192.0, 126.0, 120.0, 15.0, 88.0, 4.5, 0.0, 0.0, 0.0, 0.0, 1.7068829162433357E9, 0.0, 2024-02-02 15:08:36.243
252.0, 61708.80785093401, 65186.35930852406, -31050.015217067627, -1381.8518974604485, 16488.546608513192, 7400.506126940982, 27105.06643117266, 4537.4935314051545, 37869.487746892904, 46470.640178995156, 36904.20531084601, 46070.45454626734, 23490.11880041585, 26077.98142170685, -6055.333442131691, -614.3376963541147, -0.098, 0.982, 0.28800000000000003, 192.0, 0.0, 0.0, 0.0, 0.0, 0.0, 0.0, 0.0, 0.0, 0.0, 1.706882916251308E9, 0.0, 2024-02-02 15:08:36.251
254.0, 61719.380226061374, 65196.52935225122, -31039.755766362643, -1372.8888479338705, 16499.431908062925, 7407.546926444403, 27123.394861626013, 4551.172799011802, 37875.7909388293, 46482.01721692291, 36912.74367722794, 46077.964732404325, 23498.232483653126, 26085.625718310563, -6047.599738550155, -604.1453008824946, -0.098, 0.982, 0.28800000000000003, 192.0, 0.0, 0.0, 0.0, 0.0, 0.0, 0.0, 0.0, 0.0, 0.0, 1.7068829162597218E9, 0.0, 2024-02-02 15:08:36.259
0.0, 61714.440490536756, 65189.555607981165, -31042.90736233084, -1377.5603625250296, 16498.403727817982, 7399.299132740394, 27118.65629180149, 4544.3555169529345, 37881.80355808778, 46489.90738271563, 36914.040078406346, 46083.57502026261, 23502.50166684409, 26086.83271251115, -6040.4695320689125, -602.5583270261678, -0.098, 0.982, 0.28800000000000003, 192.0, 0.0, 0.0, 0.0, 0.0, 0.0, 0.0, 0.0, 0.0, 0.0, 1.7068829162673523E9, 0.0, 2024-02-02 15:08:36.267
2.0, 61720.00607490612, 65193.57892198312, -31029.272798213104, -1362.7188042067057, 16508.819640734153, 7412.486661969026, 27125.36181513808, 4555.3972787138555, 37881.33417145421, 46479.26795235491, 36917.8622267082, 46081.719825472814, 23504.13334418933, 26085.60336656611, -6038.569633790212, -605.7099229943661, -0.098, 0.982, 0.28800000000000003, 192.0, 0.0, 0.0, 0.0, 0.0, 0.0, 0.0, 0.0, 0.0, 0.0, 1.7068829162763689E9, 0.0, 2024-02-02 15:08:36.276
4.0, 61711.24419107964, 65188.572131225126, -31032.603208136945, -1365.4010135413425, 16503.611684276068, 7404.663551409669, 27135.442451887426, 4556.067831047515, 37885.581002900726, 46492.74605426146, 36920.85736046521, 46086.03371215269, 23506.36851863486, 26091.079543957658, -6033.138159887571, -599.2949723356929, -0.098, 0.986, 0.276, 192.0, 126.0, 120.0, 15.0, 104.0, 4.0, 80.0, 0.0, 0.0, 0.0, 1.706882916283337E9, 0.0, 2024-02-02 15:08:36.283
6.0, 61697.69903393973, 65168.723782148816, -31040.180449507294, -1371.2795223330884, 16504.08107090963, 7400.237906007517, 27134.637789087035, 4554.1008775354485, 37877.42261617454, 46481.257257611425, 36916.3646598297, 46079.842278938566, 23502.233445910628, 26084.821055510172, -6034.546319788256, -604.4582253048688, -0.098, 0.986, 0.276, 192.0, 0.0, 0.0, 0.0, 0.0, 0.0, 0.0, 0.0, 0.0, 0.0, 1.7068829162917032E9, 0.0, 2024-02-02 15:08:36.291
8.0, 61676.06254530699, 65140.962915535325, -31048.584705422487, -1381.673083504806, 16496.794402217198, 7392.347740214795, 27123.79719302621, 4545.562511153521, 37863.56453461225, 46465.38751904816, 36901.29958406682, 46064.821906664605, 23495.617329551857, 26075.947412961414, -6040.357773346636, -611.744893997299, -0.098, 0.986, 0.276, 192.0, 0.0, 0.0, 0.0, 0.0, 0.0, 0.0, 0.0, 0.0, 0.0, 1.7068829162993643E9, 0.0, 2024-02-02 15:08:36.299
10.0, 61660.595138143915, 65123.1709269489, -31044.80726060954, -1376.6215892579066, 16500.638902263512, 7400.774347874445, 27124.110117448585, 4551.105743778437, 37858.60244734317, 46464.35933880322, 36896.33749679774, 46058.13873507246, 23494.522094073545, 26074.82982573865, -6043.509369314835, -614.292992865204, -0.098, 0.986, 0.276, 192.0, 0.0, 0.0, 0.0, 0.0, 0.0, 0.0, 0.0, 0.0, 0.0, 1.706882916307396E9, 0.0, 2024-02-02 15:08:36.307
12.0, 61640.63503034533, 65097.17584814738, -31045.09783328746, -1375.2581328461329, 16493.016957404252, 7401.780176374934, 27104.619396283557, 4543.5955576414535, 37856.88136302011, 46444.28747228235, 36899.01970613238, 46052.88607512547, 23497.964262719663, 26075.47802632785, -6040.335421602181, -608.5932980291007, -0.098, 0.986, 0.276, 192.0, 0.0, 0.0, 0.0, 0.0, 0.0, 0.0, 0.0, 0.0, 0.0, 1.706882916315458E9, 0.0, 2024-02-02 15:08:36.315
14.0, 61610.84015498641, 65060.94367038533, -31045.410757709833, -1378.2756183475994, 16500.5941987746, 7403.613019420269, 27125.89825700501, 4551.530426923087, 37848.14183093808, 46446.14266707214, 36891.21894731748, 46048.25926402322, 23494.65620454028, 26078.78608450724, -6039.620165779611, -605.9110886944638, -0.096, 0.988, 0.272, 192.0, 126.5, 0.0, 15.0, 112.0, 4.0, 64.0, 0.0, 0.0, 0.0, 1.7068829163234997E9, 0.0, 2024-02-02 15:08:36.323
16.0, 61581.112334860845, 65028.891268836414, -31051.75865313514, -1381.9189526938144, 16500.5941987746, 7403.0989292977965, 27123.953655237397, 4548.4235344438, 37828.36053709513, 46421.779265615856, 36876.80207214381, 46032.34482197104, 23485.82726548043, 26071.700581514906, -6041.944747202962, -614.5165103097571, -0.096, 0.988, 0.272, 192.0, 0.0, 0.0, 0.0, 0.0, 0.0, 0.0, 0.0, 0.0, 0.0, 1.7068829163314245E9, 0.0, 2024-02-02 15:08:36.331
18.0, 61558.51472121653, 65004.88549529142, -31059.15708054985, -1391.5078510651413, 16494.760393471766, 7395.544039671903, 27110.542608564214, 4540.555720395532, 37819.777467224296, 46409.552861398806, 36866.81084237228, 46023.359420700006, 23486.095486413895, 26069.73362800284, -6044.738715259876, -617.1987196443939, -0.096, 0.988, 0.272, 192.0, 0.0, 0.0, 0.0, 0.0, 0.0, 0.0, 0.0, 0.0, 0.0, 1.7068829163384607E9, 0.0, 2024-02-02 15:08:36.338
20.0, 61551.65273566875, 64995.698928320286, -31053.747958391665, -1387.7974614855602, 16497.911989439963, 7401.556658930381, 27115.594102811112, 4547.3506507099455, 37818.99515616836, 46413.97850680095, 36862.720473136964, 46019.04553402013, 23487.25777712557, 26069.040723924725, -6048.516160072823, -619.2327283898269, -0.096, 0.988, 0.272, 192.0, 0.0, 0.0, 0.0, 0.0, 0.0, 0.0, 0.0, 0.0, 0.0, 1.7068829163474789E9, 0.0, 2024-02-02 15:08:36.347
22.0, 61548.16586353372, 64991.96618699625, -31046.103661787947, -1379.3261503369988, 16500.728309241335, 7405.065882809864, 27126.88173376104, 4555.441982202767, 37815.7765049668, 46403.18261422904, 36869.291886006824, 46019.42551367587, 23490.40937309377, 26071.83469198164, -6040.178959390993, -613.7565509982767, -0.096, 0.988, 0.272, 192.0, 0.0, 0.0, 0.0, 0.0, 0.0, 0.0, 0.0, 0.0, 0.0, 1.706882916355728E9, 0.0, 2024-02-02 15:08:36.355
24.0, 61528.205755735136, 64970.62027104143, -31060.56524045053, -1389.4291388307977, 16488.680718979922, 7392.660664637168, 27116.488172589325, 4540.823941328996, 37805.07001937271, 46402.04267526182, 36863.25691500389, 46016.855063063515, 23482.31804160095, 26069.10777915809, -6044.738715259876, -610.2249753743381, -0.09, 0.984, 0.28, 192.0, 126.5, 24.0, 15.0, 96.0, 4.0, 96.0, 0.0, 0.0, 0.0, 1.706882916363498E9, 0.0, 2024-02-02 15:08:36.363
26.0, 61525.72471210059, 64969.6367942854, -31062.44278698478, -1389.965580697725, 16497.487306295312, 7396.661626894668, 27115.61645455557, 4539.99692678415, 37797.42572276899, 46388.788090799826, 36855.27734223334, 46009.59074611554, 23478.495893299092, 26065.509148300785, -6052.248901396859, -618.003382444785, -0.09, 0.984, 0.28, 192.0, 0.0, 0.0, 0.0, 0.0, 0.0, 0.0, 0.0, 0.0, 0.0, 1.7068829163715043E9, 0.0, 2024-02-02 15:08:36.371
28.0, 61513.34184567235, 64958.215052868734, -31063.180394551804, -1391.641961531873, 16496.190905116906, 7390.425490191637, 27112.777783009744, 4534.096066247948, 37799.88441465908, 46388.54222161081, 36857.02077830086, 46013.569356628585, 23487.101314914384, 26070.717104758874, -6044.023459437306, -613.1754056424387, -0.09, 0.984, 0.28, 192.0, 0.0, 0.0, 0.0, 0.0, 0.0, 0.0, 0.0, 0.0, 0.0, 1.7068829163795285E9, 0.0, 2024-02-02 15:08:36.379
30.0, 61505.58579034636, 64950.01196265364, -31071.808167911553, -1402.2813918925992, 16487.58548350161, 7381.46244066506, 27101.13252414853, 4523.747208565141, 37782.919440617494, 46378.774509283845, 36840.77106008185, 45999.91244076639, 23473.4891025411, 26056.16611911847, -6059.110886944639, -628.5310540832346, -0.09, 0.984, 0.28, 192.0, 0.0, 0.0, 0.0, 0.0, 0.0, 0.0, 0.0, 0.0, 0.0, 1.7068829163877833E9, 0.0, 2024-02-02 15:08:36.387
32.0, 61507.418633391695, 64947.55327076355, -31073.976287123718, -1407.578755328507, 16484.74681195579, 7379.316673197351, 27105.51346606177, 4524.797740554541, 37782.584164450665, 46370.63847430211, 36844.9955397839, 45995.08446396404, 23474.517282786048, 26054.35562781759, -6052.695936285965, -625.9606034708743, -0.09, 0.984, 0.28, 192.0, 0.0, 0.0, 0.0, 0.0, 0.0, 0.0, 0.0, 0.0, 0.0, 1.7068829163945942E9, 0.0, 2024-02-02 15:08:36.394
34.0, 61504.289389167956, 64948.24617484167, -31079.161891837346, -1413.3231536535209, 16477.77306768573, 7376.075670251331, 27090.247224598796, 4516.929926506273, 37777.75618764832, 46373.186573170016, 36839.54171413681, 45990.18943192833, 23470.60572750637, 26050.756996960285, -6058.14976193306, -630.9450424844077, -0.087, 0.984, 0.278, 192.0, 126.5, 48.0, 15.0, 96.0, 4.0, 80.0, 0.0, 0.0, 0.0, 1.7068829164036336E9, 0.0, 2024-02-02 15:08:36.403
36.0, 61511.26313343801, 64958.013887168636, -31073.14927257887, -1405.6565053053505, 16487.02668989023, 7386.290417467406, 27107.16749515146, 4528.530481878577, 37770.33540848916, 46367.33041612273, 36837.99944376939, 45987.082539449046, 23466.627116993324, 26047.15836610298, -6059.446163111468, -632.4649611073686, -0.087, 0.984, 0.278, 192.0, 0.0, 0.0, 0.0, 0.0, 0.0, 0.0, 0.0, 0.0, 0.0, 1.706882916411846E9, 0.0, 2024-02-02 15:08:36.411
38.0, 61519.33211318638, 64964.518244805135, -31065.39321725288, -1398.3027813795545, 16493.39693705999, 7391.386615203216, 27117.40459411199, 4535.973612782194, 37784.618173196104, 46382.9989889859, 36854.38327245513, 46005.96976351378, 23482.5415590455, 26064.860947711582, -6042.950575703451, -614.583565543123, -0.087, 0.984, 0.278, 192.0, 0.0, 0.0, 0.0, 0.0, 0.0, 0.0, 0.0, 0.0, 0.0, 1.7068829164186184E9, 0.0, 2024-02-02 15:08:36.418
40.0, 61516.716959085104, 64962.126608148414, -31067.024894598115, -1403.1978134152669, 16494.760393471766, 7387.5421151569035, 27114.387108610525, 4531.950298780239, 37779.18669929346, 46382.08256746323, 36849.24237123041, 46001.901746022915, 23477.60182352088, 26056.747264474307, -6049.72315427341, -620.3726673570475, -0.087, 0.984, 0.278, 192.0, 0.0, 0.0, 0.0, 0.0, 0.0, 0.0, 0.0, 0.0, 0.0, 1.7068829164266803E9, 0.0, 2024-02-02 15:08:36.426
42.0, 61524.830642322384, 64972.92250072033, -31063.739188163185, -1401.834357003493, 16494.760393471766, 7390.0678622803525, 27109.648538786, 4531.391505168856, 37777.622077181586, 46381.99316048541, 36854.07034803276, 46007.60144085901, 23482.11687590085, 26060.97174417636, -6045.431619337991, -619.2997836231928, -0.087, 0.984, 0.278, 192.0, 0.0, 0.0, 0.0, 0.0, 0.0, 0.0, 0.0, 0.0, 0.0, 1.706882916435617E9, 0.0, 2024-02-02 15:08:36.435
44.0, 61535.47007268311, 64982.24317815819, -31063.225098040715, -1399.8450517469707, 16493.888675438007, 7389.486716924515, 27111.235512642328, 4532.106760991426, 37779.85725162712, 46396.4994426369, 36854.18210675503, 46011.133016482956, 23480.395791577794, 26060.323543587154, -6049.521988573312, -621.0879231796174, -0.08549999999999999, 0.982, 0.279, 192.0, 126.5, 48.0, 15.0, 80.0, 4.0, 96.0, 0.0, 0.0, 0.0, 1.7068829164429967E9, 0.0, 2024-02-02 15:08:36.442
46.0, 61543.44964545366, 64992.3908701409, -31068.00837135415, -1400.1132726804344, 16492.860495193065, 7389.911400069166, 27110.162628908474, 4531.100932490937, 37783.03119933978, 46400.23218396094, 36857.53486842333, 46015.62571711847, 23481.06634391145, 26061.44113080992, -6050.214892651426, -620.6632400349665, -0.08549999999999999, 0.982, 0.279, 192.0, 0.0, 0.0, 0.0, 0.0, 0.0, 0.0, 0.0, 0.0, 0.0, 1.706882916450601E9, 0.0, 2024-02-02 15:08:36.450
48.0, 61550.33398274589, 65001.8903615344, -31064.27563003011, -1393.3630458549317, 16493.17341961544, 7391.677187881135, 27113.873018488055, 4533.671383103298, 37782.00301909483, 46404.2554979629, 36860.95468532499, 46020.49839740973, 23482.16157938976, 26061.5528895322, -6048.382049606091, -616.3270016106369, -0.08549999999999999, 0.982, 0.279, 192.0, 0.0, 0.0, 0.0, 0.0, 0.0, 0.0, 0.0, 0.0, 0.0, 1.7068829164596407E9, 0.0, 2024-02-02 15:08:36.459
50.0, 61561.80042765146, 65013.91560005136, -31064.320333519023, -1393.0724731770126, 16489.753602713776, 7392.727719870534, 27111.257864386782, 4532.956127280728, 37780.95248710543, 46414.47024517897, 36862.228734758944, 46022.57710964407, 23480.194625877695, 26063.40808432199, -6049.633747295588, -615.3435248546034, -0.08549999999999999, 0.982, 0.279, 192.0, 0.0, 0.0, 0.0, 0.0, 0.0, 0.0, 0.0, 0.0, 0.0, 1.7068829164682198E9, 0.0, 2024-02-02 15:08:36.468
52.0, 61570.89758764477, 65019.749405354196, -31058.71004566074, -1393.8100807440378, 16492.9946056598, 7397.332179228328, 27111.168457408963, 4535.638336615364, 37787.47919648638, 46409.93284105454, 36870.00714182939, 46023.02414453318, 23485.02260268004, 26065.77736923425, -6047.085648427684, -611.3425625971034, -0.08549999999999999, 0.982, 0.279, 192.0, 0.0, 0.0, 0.0, 0.0, 0.0, 0.0, 0.0, 0.0, 0.0, 1.7068829164746246E9, 0.0, 2024-02-02 15:08:36.474
54.0, 61572.77513417901, 65022.744539111205, -31068.835385898998, -1404.1812901713004, 16484.098611366586, 7386.066900022853, 27103.479457316334, 4526.22825219968, 37784.84169064066, 46413.48676842294, 36866.18499352753, 46021.77244684368, 23483.145056145797, 26061.955220932392, -6051.667756041022, -613.6894957649107, -0.08875, 0.981, 0.28250000000000003, 192.0, 126.5, 16.0, 15.0, 80.0, 4.0, 120.0, 0.0, 0.0, 0.0, 1.706882916482662E9, 0.0, 2024-02-02 15:08:36.482
56.0, 61582.81106743945, 65036.937896840325, -31066.62256319792, -1400.0015139581578, 16493.26282659326, 7392.571257659347, 27110.386146353027, 4532.4196854138, 37775.3645509916, 46406.02128577486, 36857.31135097878, 46012.29530719463, 23473.51145428556, 26051.2487353383, -6060.5413985897785, -626.8099697601759, -0.08875, 0.981, 0.28250000000000003, 192.0, 0.0, 0.0, 0.0, 0.0, 0.0, 0.0, 0.0, 0.0, 0.0, 1.7068829164916556E9, 0.0, 2024-02-02 15:08:36.491
58.0, 61595.88683794581, 65050.147777813414, -31065.460272486245, -1399.1521476688563, 16493.30753008217, 7392.03481579242, 27113.18011440994, 4534.766618581608, 37789.33439127617, 46421.60045166021, 36872.644647675115, 46031.92013882639, 23485.22376838014, 26065.665610511973, -6047.599738550155, -613.5553852981789, -0.08875, 0.981, 0.28250000000000003, 192.0, 0.0, 0.0, 0.0, 0.0, 0.0, 0.0, 0.0, 0.0, 0.0, 1.7068829164986763E9, 0.0, 2024-02-02 15:08:36.498
60.0, 61600.133669392315, 65057.09917033901, -31068.38835100989, -1404.2483454046662, 16491.586445759112, 7387.5421151569035, 27107.12279166255, 4530.855063301929, 37785.735760418866, 46429.110637797196, 36865.8497173607, 46028.29915622463, 23478.60765202137, 26059.54123253122, -6055.19933166496, -622.5854900581229, -0.08875, 0.981, 0.28250000000000003, 192.0, 0.0, 0.0, 0.0, 0.0, 0.0, 0.0, 0.0, 0.0, 0.0, 1.706882916506696E9, 0.0, 2024-02-02 15:08:36.506
62.0, 61607.93442820721, 65066.375144287966, -31066.264935286636, -1405.8129675165378, 16491.653500992477, 7387.586818645814, 27108.21802714086, 4532.79966506954, 37785.13226331857, 46423.05331504981, 36870.4541767185, 46028.656784135914, 23482.340393345403, 26058.043665652713, -6053.00886070834, -619.3444871121034, -0.08875, 0.981, 0.28250000000000003, 192.0, 0.0, 0.0, 0.0, 0.0, 0.0, 0.0, 0.0, 0.0, 0.0, 1.7068829165147142E9, 0.0, 2024-02-02 15:08:36.514
64.0, 61614.25997188807, 65078.44508629383, -31067.226060298213, -1407.7575692841494, 16489.70889922487, 7389.084385524319, 27105.289948617217, 4533.805493570029, 37787.07686508619, 46435.95027160052, 36868.10724355069, 46030.60138590353, 23482.5415590455, 26061.619944765564, -6057.233340410393, -622.1831586579274, -0.091375, 0.9864999999999999, 0.28425, 192.0, 126.5, 8.0, 15.5, 0.0, 4.0, 120.0, 0.0, 0.0, 0.0, 1.7068829165237489E9, 0.0, 2024-02-02 15:08:36.523
66.0, 61624.184146426225, 65089.79977247713, -31060.922868361817, -1399.0403889465797, 16503.79049823171, 7398.092138539808, 27129.6533500735, 4547.127133265392, 37790.34021977666, 46435.30207101132, 36873.09168256422, 46036.32343248409, 23487.168370147752, 26063.005752921792, -6049.76785776232, -619.5233010677458, -0.091375, 0.9864999999999999, 0.28425, 192.0, 0.0, 0.0, 0.0, 0.0, 0.0, 0.0, 0.0, 0.0, 0.0, 1.706882916531106E9, 0.0, 2024-02-02 15:08:36.531
68.0, 61624.385312126324, 65093.39840333443, -31066.667266686833, -1396.6040488009512, 16493.061660893163, 7393.487679182015, 27114.94590222191, 4538.387601183367, 37794.05060935624, 46443.25929203741, 36880.49010997893, 46048.08045006758, 23492.6445475393, 26072.169968148468, -6042.078857669694, -612.4377980754135, -0.091375, 0.9864999999999999, 0.28425, 192.0, 0.0, 0.0, 0.0, 0.0, 0.0, 0.0, 0.0, 0.0, 0.0, 1.7068829165387878E9, 0.0, 2024-02-02 15:08:36.538
70.0, 61631.090835462914, 65101.668548782895, -31071.33878127799, -1393.385397599387, 16488.725422468833, 7390.246676235995, 27108.195675396404, 4530.855063301929, 37784.17113830699, 46447.61788220619, 36869.87303136266, 46041.50903719772, 23477.937099687708, 26064.525671544754, -6059.759087533843, -625.4688650928575, -0.091375, 0.9864999999999999, 0.28425, 192.0, 0.0, 0.0, 0.0, 0.0, 0.0, 0.0, 0.0, 0.0, 0.0, 1.7068829165477686E9, 0.0, 2024-02-02 15:08:36.547
72.0, 61649.59807987191, 65121.516897859205, -31058.441824727277, -1378.610894514429, 16506.651521521988, 7404.484737454026, 27135.353044909603, 4550.0552117890375, 37794.02825761178, 46455.08336485426, 36887.173281571064, 46058.56341821711, 23488.531826559523, 26076.953241461903, -6044.179921648493, -608.5038910512794, -0.091375, 0.9864999999999999, 0.28425, 192.0, 0.0, 0.0, 0.0, 0.0, 0.0, 0.0, 0.0, 0.0, 0.0, 1.7068829165547695E9, 0.0, 2024-02-02 15:08:36.554
74.0, 61655.990678786125, 65129.988209007766, -31064.05211258556, -1383.4388713167752, 16500.437736563414, 7402.160156030674, 27123.41721337047, 4546.031897787082, 37795.74934193485, 46467.8685626827, 36888.179110071556, 46061.62560720749, 23490.230559138126, 26080.238947896833, -6044.783418748787, -604.5029287937795, -0.0896875, 0.98625, 0.285125, 192.0, 126.5, 32.0, 15.0, 104.0, 4.0, 120.0, 0.0, 0.0, 0.0, 1.706882916562817E9, 0.0, 2024-02-02 15:08:36.562
76.0, 61665.95955681319, 65139.51005214573, -31063.53802246309, -1385.3164178510212, 16501.331806341626, 7401.377844974738, 27122.12081219206, 4545.361345453423, 37798.67742045849, 46463.91230391411, 36891.26365080639, 46061.98323511878, 23491.97399520564, 26076.863834484084, -6046.124523416105, -605.26288810526, -0.0896875, 0.98625, 0.285125, 192.0, 0.0, 0.0, 0.0, 0.0, 0.0, 0.0, 0.0, 0.0, 0.0, 1.706882916570954E9, 0.0, 2024-02-02 15:08:36.570
78.0, 61671.72630688266, 65149.769502850715, -31061.61577243993, -1385.6963975067613, 16501.01888191925, 7398.092138539808, 27124.93713199343, 4544.959014053227, 37801.42668502649, 46467.30976907132, 36895.62224097517, 46067.59352297706, 23495.818495251955, 26075.0533431832, -6044.090514670672, -608.906222451475, -0.0896875, 0.98625, 0.285125, 192.0, 0.0, 0.0, 0.0, 0.0, 0.0, 0.0, 0.0, 0.0, 0.0, 1.7068829165797915E9, 0.0, 2024-02-02 15:08:36.579
80.0, 61670.98869931563, 65147.601383638554, -31067.404874253858, -1394.190060399778, 16495.40859406097, 7389.799641346889, 27113.805963254687, 4532.933775536272, 37797.693943702456, 46475.736376730965, 36889.96724962798, 46064.93366538688, 23493.02452719504, 26068.90661345799, -6052.025383952307, -616.9304987109302, -0.0896875, 0.98625, 0.285125, 192.0, 0.0, 0.0, 0.0, 0.0, 0.0, 0.0, 0.0, 0.0, 0.0, 1.7068829165870004E9, 0.0, 2024-02-02 15:08:36.587
82.0, 61680.46583896469, 65155.580956409096, -31065.2814585306, -1393.6312667883954, 16498.470783051347, 7390.894876825199, 27118.253960401293, 4538.18643548327, 37791.34604827715, 46463.73348995847, 36889.006124616404, 46058.16108681692, 23489.090620170908, 26060.48000579834, -6056.451029354457, -623.9936499588073, -0.0896875, 0.98625, 0.285125, 192.0, 0.0, 0.0, 0.0, 0.0, 0.0, 0.0, 0.0, 0.0, 0.0, 1.7068829165947871E9, 0.0, 2024-02-02 15:08:36.594
84.0, 61683.9080076108, 65160.051305300156, -31066.734321920198, -1395.9781999562026, 16496.63794000601, 7390.134917513718, 27110.98964345332, 4536.398295926845, 37800.57731873719, 46481.5701820338, 36895.3093165528, 46066.96767413231, 23498.098373186396, 26069.510110558287, -6053.746468275365, -618.3833621005252, -0.08984375, 0.9861249999999999, 0.28456250000000005, 192.0, 126.5, 24.0, 15.0, 104.0, 4.0, 112.0, 0.0, 0.0, 0.0, 1.7068829166039245E9, 0.0, 2024-02-02 15:08:36.603
86.0, 61696.29087403904, 65172.52357870622, -31060.721702661718, -1387.6186475299178, 16505.377472088036, 7400.439071707616, 27121.89729474751, 4546.456580931733, 37800.398504781544, 46479.446766310546, 36896.561014242296, 46069.80634567814, 23500.40060286529, 26071.857043726093, -6053.813523508731, -618.7856935007208, -0.08984375, 0.9861249999999999, 0.28456250000000005, 192.0, 0.0, 0.0, 0.0, 0.0, 0.0, 0.0, 0.0, 0.0, 0.0, 1.7068829166108613E9, 0.0, 2024-02-02 15:08:36.610
88.0, 61703.68930145375, 65181.79955265517, -31058.374769493912, -1387.3727783409095, 16499.49896329629, 7396.438109450115, 27109.514428319268, 4540.466313417711, 37808.33337406318, 46483.89476345715, 36903.98179340146, 46076.22129633681, 23507.709623302177, 26077.668497284474, -6049.834912995686, -616.1034841660838, -0.08984375, 0.9861249999999999, 0.28456250000000005, 192.0, 0.0, 0.0, 0.0, 0.0, 0.0, 0.0, 0.0, 0.0, 0.0, 1.7068829166190088E9, 0.0, 2024-02-02 15:08:36.619
90.0, 61704.38220553187, 65180.592558454584, -31060.833461383994, -1389.9432289532697, 16493.620454504544, 7390.201972747085, 27111.950768464896, 4534.811322070518, 37801.71725770441, 46486.018179180406, 36899.62320323267, 46072.55561024614, 23497.584283063923, 26070.270069869766, -6060.988433478884, -627.0111354602737, -0.08984375, 0.9861249999999999, 0.28456250000000005, 192.0, 0.0, 0.0, 0.0, 0.0, 0.0, 0.0, 0.0, 0.0, 0.0, 1.7068829166268356E9, 0.0, 2024-02-02 15:08:36.626
92.0, 61712.25001958013, 65187.00750911326, -31055.960781092737, -1381.9413044382698, 16496.88380919502, 7398.740339129012, 27110.117925419563, 4540.779237840085, 37809.853292686144, 46486.19699313605, 36912.47545629447, 46081.36219756153, 23504.245102911605, 26076.416799594976, -6055.802828765253, -620.0150394457626, -0.08984375, 0.9861249999999999, 0.28456250000000005, 192.0, 0.0, 0.0, 0.0, 0.0, 0.0, 0.0, 0.0, 0.0, 0.0, 1.7068829166349113E9, 0.0, 2024-02-02 15:08:36.634
94.0, 61713.993455647644, 65189.46620100334, -31057.167775293325, -1380.4660893042194, 16494.35806207157, 7397.399234461694, 27107.99450969631, 4541.583900640476, 37806.1205513621, 46491.337894360775, 36905.14408411313, 46077.964732404325, 23500.378251120837, 26077.936718217938, -6060.67550905651, -618.7186382673548, -0.088921875, 0.9840625, 0.28228125000000004, 192.0, 126.5, 32.0, 15.0, 88.0, 4.0, 96.0, 0.0, 0.0, 0.0, 1.7068829166431036E9, 0.0, 2024-02-02 15:08:36.643
96.0, 61718.44145279425, 65196.30583480666, -31051.915115346328, -1375.8169264575156, 16495.83327720562, 7400.908458341177, 27109.670890530455, 4546.61304314292, 37809.20509209694, 46487.04635942535, 36911.06729639379, 46084.26792434072, 23503.08281219993, 26079.16606416298, -6055.042869453772, -613.421274831447, -0.088921875, 0.9840625, 0.28228125000000004, 192.0, 0.0, 0.0, 0.0, 0.0, 0.0, 0.0, 0.0, 0.0, 0.0, 1.7068829166509204E9, 0.0, 2024-02-02 15:08:36.650
98.0, 61721.59304876245, 65198.16102959646, -31043.95789432024, -1372.933551422781, 16500.482440052325, 7397.801565861889, 27110.922588219953, 4546.501284420644, 37812.13317062058, 46486.934600703076, 36919.91858719809, 46090.660523254934, 23506.79320177951, 26080.484817085842, -6048.851436239653, -609.196795129394, -0.088921875, 0.9840625, 0.28228125000000004, 192.0, 0.0, 0.0, 0.0, 0.0, 0.0, 0.0, 0.0, 0.0, 0.0, 1.7068829166589475E9, 0.0, 2024-02-02 15:08:36.658
100.0, 61718.68732198326, 65194.49534350578, -31049.076443800506, -1377.292141591566, 16494.17924811593, 7391.431318692126, 27102.36187009357, 4539.348726194946, 37806.366420551116, 46490.57793504929, 36917.035212163355, 46091.59929652206, 23503.7980680225, 26077.333221117642, -6050.058430440239, -612.7730742422431, -0.088921875, 0.9840625, 0.28228125000000004, 192.0, 0.0, 0.0, 0.0, 0.0, 0.0, 0.0, 0.0, 0.0, 0.0, 1.7068829166660218E9, 0.0, 2024-02-02 15:08:36.666
102.0, 61704.73983344315, 65185.12996257901, -31052.00452232415, -1379.5720195260071, 16495.766221972255, 7390.17962100263, 27110.073221930652, 4540.019278528604, 37802.521920504805, 46485.43703382457, 36914.82238946228, 46086.10076738605, 23503.351033133393, 26073.19814839341, -6049.097305428661, -613.4659783203576, -0.088921875, 0.9840625, 0.28228125000000004, 192.0, 0.0, 0.0, 0.0, 0.0, 0.0, 0.0, 0.0, 0.0, 0.0, 1.7068829166749449E9, 0.0, 2024-02-02 15:08:36.674
104.0, 61690.30060652502, 65166.75682863675, -31053.14446129137, -1382.7906707275715, 16500.12481214104, 7388.570295401847, 27113.448335343404, 4539.236967472669, 37798.09627510265, 46487.62750478119, 36908.42979054806, 46083.195040606864, 23507.03907096852, 26075.0533431832, -6048.002069950351, -613.6894957649107, -0.0914609375, 0.9860312499999999, 0.28214062500000003, 192.0, 126.5, 8.0, 15.0, 112.0, 4.0, 104.0, 0.0, 0.0, 0.0, 1.7068829166829565E9, 0.0, 2024-02-02 15:08:36.682
106.0, 61668.150027769814, 65139.89003180147, -31060.20761253925, -1391.2396301316776, 16494.514524282757, 7382.401213932182, 27103.546512549703, 4531.5032638911325, 37783.88056562908, 46467.04154813785, 36896.53866249784, 46068.375834032995, 23499.193608664707, 26067.096122157112, -6052.830046752697, -621.4902545798129, -0.0914609375, 0.9860312499999999, 0.28214062500000003, 192.0, 0.0, 0.0, 0.0, 0.0, 0.0, 0.0, 0.0, 0.0, 0.0, 1.7068829166909592E9, 0.0, 2024-02-02 15:08:36.690
108.0, 61652.79437932902, 65122.88035427098, -31055.06671131453, -1387.3280748519987, 16499.454259807382, 7388.257370979473, 27116.734041778334, 4540.846293073451, 37782.60651619513, 46460.559542245814, 36897.49978750942, 46064.956017131335, 23505.250931412094, 26069.219537880366, -6046.48215132739, -617.8692719780531, -0.0914609375, 0.9860312499999999, 0.28214062500000003, 192.0, 0.0, 0.0, 0.0, 0.0, 0.0, 0.0, 0.0, 0.0, 0.0, 1.7068829166992247E9, 0.0, 2024-02-02 15:08:36.699
110.0, 61610.393120097295, 65078.98152816076, -31068.67892368781, -1399.0180372021243, 16492.815791704154, 7381.12716449823, 27106.675756773446, 4530.3856766683675, 37766.87088809859, 46451.417678763595, 36884.37931351415, 46055.098897826545, 23497.159599919272, 26063.96687793337, -6053.277081641803, -620.1491499124944, -0.0914609375, 0.9860312499999999, 0.28214062500000003, 192.0, 0.0, 0.0, 0.0, 0.0, 0.0, 0.0, 0.0, 0.0, 0.0, 1.7068829167069807E9, 0.0, 2024-02-02 15:08:36.706
112.0, 61582.453439528166, 65043.375199243455, -31075.138577835394, -1403.1754616708115, 16490.87118993654, 7381.8424203208, 27101.266634615262, 4527.681115589276, 37747.40251867801, 46424.39441971713, 36870.744749396414, 46036.63635690646, 23491.772829505546, 26055.808491207183, -6059.356756133647, -629.0898476946173, -0.0914609375, 0.9860312499999999, 0.28214062500000003, 192.0, 0.0, 0.0, 0.0, 0.0, 0.0, 0.0, 0.0, 0.0, 0.0, 1.7068829167150316E9, 0.0, 2024-02-02 15:08:36.715
114.0, 61558.3806107498, 65019.12355650945, -31080.502996504667, -1405.2094704162444, 16486.40084104548, 7385.55280990038, 27095.03049791223, 4527.994040011649, 37738.975911018366, 46427.16603602959, 36860.060615546776, 46030.556682414615, 23491.16933240525, 26059.69769474241, -6061.994261979373, -626.1841209154273, -0.09273046875, 0.987015625, 0.28307031250000003, 192.0, 126.5, 8.0, 15.0, 112.0, 4.0, 112.0, 0.0, 0.0, 0.0, 1.7068829167220075E9, 0.0, 2024-02-02 15:08:36.722
116.0, 61548.523491445005, 65006.2936551921, -31080.77121743813, -1404.7624355271382, 16490.826486447633, 7391.431318692126, 27101.646614271, 4532.397333669345, 37730.88457952554, 46423.12037028318, 36855.00912129988, 46023.44882767783, 23490.07409692694, 26062.312848843678, -6064.520009102823, -625.6253273040447, -0.09273046875, 0.987015625, 0.28307031250000003, 192.0, 0.0, 0.0, 0.0, 0.0, 0.0, 0.0, 0.0, 0.0, 0.0, 1.706882916731408E9, 0.0, 2024-02-02 15:08:36.731
118.0, 61536.65471513924, 64992.52498060763, -31088.10258961947, -1412.473787364219, 16481.528160754224, 7378.042623763397, 27089.330803076125, 4519.768598052096, 37729.02938473575, 46415.8560533352, 36852.796298598805, 46015.312792696095, 23491.392849849803, 26059.49652904231, -6068.431564382501, -629.648641306, -0.09273046875, 0.987015625, 0.28307031250000003, 192.0, 0.0, 0.0, 0.0, 0.0, 0.0, 0.0, 0.0, 0.0, 0.0, 1.7068829167390292E9, 0.0, 2024-02-02 15:08:36.739
120.0, 61528.58573539087, 64983.316061892045, -31094.3387263225, -1417.7935025445822, 16477.907178152465, 7373.684033594613, 27085.285137329716, 4516.952278250727, 37723.21793117737, 46414.8055213458, 36847.565990396266, 46009.88131879346, 23485.44728582469, 26051.20403184939, -6080.076823243717, -642.4785426233462, -0.09273046875, 0.987015625, 0.28307031250000003, 192.0, 0.0, 0.0, 0.0, 0.0, 0.0, 0.0, 0.0, 0.0, 0.0, 1.706882916747074E9, 0.0, 2024-02-02 15:08:36.747
122.0, 61532.18436624818, 64984.34424213699, -31085.91211866285, -1414.9548309987583, 16487.69724222389, 7377.640292363202, 27093.242358355805, 4523.948374265239, 37718.38995437502, 46402.24384096192, 36851.43284218703, 46008.85313854851, 23489.98468994912, 26047.180717847434, -6075.360605163647, -643.7972955462093, -0.09273046875, 0.987015625, 0.28307031250000003, 192.0, 0.0, 0.0, 0.0, 0.0, 0.0, 0.0, 0.0, 0.0, 0.0, 1.7068829167550416E9, 0.0, 2024-02-02 15:08:36.755
124.0, 61527.69166561266, 64978.89041648989, -31094.897519933886, -1426.8906625378922, 16476.29785255168, 7363.603396845269, 27088.392029809005, 4512.79485378204, 37716.378297374045, 46406.55772764179, 36848.41535668557, 46007.556737370105, 23489.671765526746, 26043.112700356567, -6077.394613909079, -649.1170107265724, -0.09273046875, 0.987015625, 0.28307031250000003, 192.0, 0.0, 0.0, 0.0, 0.0, 0.0, 0.0, 0.0, 0.0, 0.0, 1.7068829167633398E9, 0.0, 2024-02-02 15:08:36.763
126.0, 61543.71786638712, 64995.073079475536, -31089.95778440926, -1418.866386278437, 16483.003375888275, 7372.834667305311, 27093.823503711643, 4520.729723063675, 37711.907948482985, 46406.736541597435, 36846.15783049558, 46008.1602344704, 23488.50947481507, 26042.665665467463, -6075.561770863745, -649.4522868934021, -0.092, 0.992, 0.28800000000000003, 192.0, 126.5, 16.0, 15.5, 0.0, 4.5, 0.0, 0.0, 0.0, 0.0, 1.7068829167713149E9, 0.0, 2024-02-02 15:08:36.771
128.0, 61555.20666303715, 65007.29948369259, -31091.63416524341, -1422.733238069205, 16482.802210188176, 7371.515914382448, 27095.969271179354, 4522.719028320197, 37721.78741953223, 46411.788035844336, 36848.594170641205, 46009.81426356009, 23492.957471961676, 26047.381883547532, -6076.701709830965, -649.228769448849, -0.092, 0.992, 0.28800000000000003, 192.0, 0.0, 0.0, 0.0, 0.0, 0.0, 0.0, 0.0, 0.0, 0.0, 1.7068829167780936E9, 0.0, 2024-02-02 15:08:36.778
130.0, 61565.46611374213, 65021.001103043694, -31094.897519933886, -1421.8168165465377, 16479.494152008792, 7372.007652760465, 27098.763239236265, 4524.618926598898, 37723.48615211083, 46423.12037028318, 36848.41535668557, 46010.68598159385, 23494.07505918444, 26048.275953325745, -6076.813468553241, -645.2501589358043, -0.092, 0.992, 0.28800000000000003, 192.0, 0.0, 0.0, 0.0, 0.0, 0.0, 0.0, 0.0, 0.0, 0.0, 1.7068829167873363E9, 0.0, 2024-02-02 15:08:36.787
132.0, 61586.05207038547, 65043.509309710185, -31084.123979106425, -1409.0763222070125, 16491.586445759112, 7384.41287093316, 27109.872056230553, 4537.068848260504, 37721.72036429887, 46425.08732379524, 36853.66801663256, 46015.53631014065, 23493.963300462165, 26048.477119025843, -6070.957311505951, -640.4892373668239, -0.092, 0.992, 0.28800000000000003, 192.0, 0.0, 0.0, 0.0, 0.0, 0.0, 0.0, 0.0, 0.0, 0.0, 1.7068829167951295E9, 0.0, 2024-02-02 15:08:36.795
134.0, 61594.813954211946, 65055.78041741615, -31086.67207797433, -1414.7313135542051, 16483.964500899852, 7376.433298162616, 27091.92360543294, 4524.641278343353, 37729.945806258416, 46444.980376360465, 36860.708816135986, 46026.779237601666, 23499.573588320447, 26057.171947618957, -6068.476267871412, -635.8847780090306, -0.092, 0.992, 0.28800000000000003, 192.0, 0.0, 0.0, 0.0, 0.0, 0.0, 0.0, 0.0, 0.0, 0.0, 1.706882916802169E9, 0.0, 2024-02-02 15:08:36.802
136.0, 61607.37563459583, 65068.051525122115, -31080.078313360016, -1409.679819307306, 16491.87701843703, 7378.690824352601, 27101.110172404075, 4526.518824877599, 37732.13627721504, 46443.68397518206, 36863.05574930379, 46027.44978993533, 23499.21596040916, 26052.54513651671, -6070.711442316943, -644.6019583466003, -0.094, 0.988, 0.28600000000000003, 192.0, 126.5, 8.0, 15.0, 112.0, 4.0, 120.0, 0.0, 0.0, 0.0, 1.70688291681012E9, 0.0, 2024-02-02 15:08:36.810
138.0, 61620.6972742912, 65084.59181601904, -31073.797473168073, -1405.5223948386188, 16493.463992293357, 7377.461478407559, 27105.08878291712, 4529.960993523717, 37742.93216978695, 46453.295225297836, 36875.796243643315, 46037.77629587368, 23511.956454748688, 26058.91538368647, -6061.860151512641, -641.4950658673127, -0.094, 0.988, 0.28600000000000003, 192.0, 0.0, 0.0, 0.0, 0.0, 0.0, 0.0, 0.0, 0.0, 0.0, 1.706882916819445E9, 0.0, 2024-02-02 15:08:36.819
140.0, 61625.234678415625, 65090.067993410594, -31078.67015345933, -1407.8246245175153, 16485.8420474341, 7371.337100426806, 27095.07520140114, 4524.238946943158, 37741.32284418617, 46455.19512357654, 36870.16360404058, 46032.54598767114, 23505.027413967542, 26049.63940973752, -6075.3382534191915, -652.0450892502176, -0.094, 0.988, 0.28600000000000003, 192.0, 0.0, 0.0, 0.0, 0.0, 0.0, 0.0, 0.0, 0.0, 0.0, 1.7068829168271763E9, 0.0, 2024-02-02 15:08:36.827
142.0, 61643.183129213234, 65106.1165459295, -31068.61186845444, -1393.899487721859, 16495.49800103879, 7380.881295309222, 27107.50277131829, 4534.766618581608, 37759.20423975042, 46456.13389684366, 36886.30156353731, 46040.07852555258, 23515.868010028364, 26058.24483135281, -6063.491828857878, -639.3269466551479, -0.094, 0.988, 0.28600000000000003, 192.0, 0.0, 0.0, 0.0, 0.0, 0.0, 0.0, 0.0, 0.0, 0.0, 1.7068829168341784E9, 0.0, 2024-02-02 15:08:36.834
144.0, 61633.52717560854, 65099.366319103996, -31083.118150605937, -1410.1045024519567, 16484.031556133217, 7362.955196256065, 27091.07423914364, 4520.819130041496, 37757.75137636082, 46458.79375443384, 36873.47166221996, 46034.35647897202, 23505.496800601104, 26050.48877602682, -6073.617169096133, -648.3123479261814, -0.094, 0.988, 0.28600000000000003, 192.0, 0.0, 0.0, 0.0, 0.0, 0.0, 0.0, 0.0, 0.0, 0.0, 1.706882916843449E9, 0.0, 2024-02-02 15:08:36.843
146.0, 61649.17339672726, 65115.861906512015, -31074.15510107936, -1404.2930488935767, 16494.067489393652, 7373.013481260954, 27100.73019274833, 4531.123284235392, 37765.68624564246, 46453.67520495358, 36874.253973275896, 46035.87639759498, 23505.13917268982, 26048.812395192672, -6071.270235928326, -651.1733712164606, -0.092, 0.988, 0.29, 192.0, 126.5, 16.0, 15.0, 112.0, 4.5, 8.0, 0.0, 0.0, 0.0, 1.7068829168511975E9, 0.0, 2024-02-02 15:08:36.851
148.0, 61669.64759464832, 65142.5275376472, -31059.179432294302, -1386.769281240616, 16503.11994589805, 7386.089251767308, 27117.918684234464, 4547.820037343507, 37789.60261220964, 46465.90160917063, 36892.60475547371, 46058.60812170603, 23514.437498383224, 26062.469311054865, -6058.3732793776135, -634.0295832192402, -0.092, 0.988, 0.29, 192.0, 0.0, 0.0, 0.0, 0.0, 0.0, 0.0, 0.0, 0.0, 0.0, 1.7068829168581977E9, 0.0, 2024-02-02 15:08:36.858
150.0, 61676.15195228481, 65151.53529066269, -31067.33781902049, -1391.2619818761327, 16493.59810276009, 7380.546019142392, 27105.111134661573, 4538.342897694457, 37806.835807184674, 46480.989036677965, 36897.79036018734, 46068.73346194428, 23510.12361170335, 26066.69379075692, -6062.418945124024, -629.7604000282765, -0.092, 0.988, 0.29, 192.0, 0.0, 0.0, 0.0, 0.0, 0.0, 0.0, 0.0, 0.0, 0.0, 1.7068829168662324E9, 0.0, 2024-02-02 15:08:36.866
152.0, 61685.40557448931, 65160.408933211445, -31070.28824928859, -1394.0112464441356, 16498.91781794045, 7386.335120956317, 27115.012957455274, 4546.769505354107, 37819.46454280192, 46477.30099884284, 36898.103284609715, 46070.476898011795, 23506.145001190307, 26071.097084414614, -6064.0059189803505, -629.134551183528, -0.092, 0.988, 0.29, 192.0, 0.0, 0.0, 0.0, 0.0, 0.0, 0.0, 0.0, 0.0, 0.0, 1.7068829168752427E9, 0.0, 2024-02-02 15:08:36.875
154.0, 61679.30354825301, 65161.32535473411, -31083.967516895238, -1410.059798963046, 16486.512599767757, 7375.203952217574, 27104.529989305734, 4535.794798826551, 37836.11659242113, 46487.44869082555, 36892.47064500697, 46068.75581368874, 23506.16735293476, 26073.756942004795, -6065.816410281231, -629.0227924612514, -0.092, 0.988, 0.29, 192.0, 0.0, 0.0, 0.0, 0.0, 0.0, 0.0, 0.0, 0.0, 0.0, 1.7068829168825004E9, 0.0, 2024-02-02 15:08:36.882
156.0, 61688.19954254622, 65168.90259610446, -31076.792606925086, -1408.964563484736, 16490.31239632516, 7380.635426120213, 27098.338556091614, 4536.174778482292, 37837.99413895537, 46469.41083305012, 36884.49107223643, 46057.13290657198, 23492.309271372473, 26060.323543587154, -6076.969930764429, -642.0091559897847, -0.092, 0.986, 0.29, 192.0, 126.5, 16.0, 15.0, 104.0, 4.5, 8.0, 0.0, 0.0, 0.0, 1.7068829168902895E9, 0.0, 2024-02-02 15:08:36.890
158.0, 61694.63684494935, 65174.40112524047, -31065.795548653074, -1399.4874238356858, 16499.856591207576, 7386.402176189683, 27117.583408067636, 4547.685926876775, 37860.65880783305, 46473.7694232189, 36900.11494161069, 46068.95697938884, 23506.212056423672, 26068.34781984661, -6060.876674756608, -629.7604000282765, -0.092, 0.986, 0.29, 192.0, 0.0, 0.0, 0.0, 0.0, 0.0, 0.0, 0.0, 0.0, 0.0, 1.7068829168982794E9, 0.0, 2024-02-02 15:08:36.898
160.0, 61690.45706873621, 65171.629508928, -31075.33974353549, -1406.6623338058394, 16492.145239370497, 7381.931827298621, 27104.775858494744, 4536.442999415755, 37867.23022070291, 46482.53130704538, 36898.662078221096, 46070.99098813427, 23506.882608757332, 26071.275898370255, -6061.144895690071, -629.2686616502598, -0.092, 0.986, 0.29, 192.0, 0.0, 0.0, 0.0, 0.0, 0.0, 0.0, 0.0, 0.0, 0.0, 1.7068829169074888E9, 0.0, 2024-02-02 15:08:36.907
162.0, 61693.385147259854, 65174.9822705963, -31078.401932525867, -1407.42229311732, 16496.012091161265, 7387.5421151569035, 27109.648538786, 4541.13686575137, 37865.2409154464, 46466.25923708192, 36893.52117699637, 46062.78789791917, 23501.965224977164, 26067.520805301763, -6064.341195147181, -629.6262895615447, -0.092, 0.986, 0.29, 192.0, 0.0, 0.0, 0.0, 0.0, 0.0, 0.0, 0.0, 0.0, 0.0, 1.7068829169143896E9, 0.0, 2024-02-02 15:08:36.914
164.0, 61691.86522863689, 65174.155256051454, -31085.643897729387, -1411.0879792079902, 16492.83814344861, 7384.4352226776155, 27108.396841096503, 4537.649993616342, 37870.89590679359, 46472.808298207325, 36888.76025542739, 46060.485668240275, 23501.719355788155, 26069.040723924725, -6064.609416080644, -624.9324232259302, -0.092, 0.986, 0.29, 192.0, 0.0, 0.0, 0.0, 0.0, 0.0, 0.0, 0.0, 0.0, 0.0, 1.706882916922578E9, 0.0, 2024-02-02 15:08:36.922
166.0, 61696.112060083404, 65175.54106420768, -31087.432037285813, -1412.5631943420403, 16490.64767249199, 7382.311806954362, 27104.08295441663, 4530.3856766683675, 37872.08054924972, 46469.20966735002, 36887.77677867136, 46058.16108681692, 23494.87972198483, 26064.235098866833, -6070.15264870556, -631.8614640070754, -0.09, 0.982, 0.28800000000000003, 192.0, 126.5, 24.0, 15.0, 88.0, 4.5, 0.0, 0.0, 0.0, 0.0, 1.7068829169303355E9, 0.0, 2024-02-02 15:08:36.930
168.0, 61699.21895256269, 65179.273805531724, -31086.403857040867, -1407.8916797508812, 16488.814829446655, 7384.099946510786, 27098.405611324983, 4531.436208657767, 37876.819119074244, 46466.39334754865, 36892.38123802916, 46061.312682785116, 23495.192646407206, 26066.514976801274, -6072.924265018019, -633.8954727525083, -0.09, 0.982, 0.28800000000000003, 192.0, 0.0, 0.0, 0.0, 0.0, 0.0, 0.0, 0.0, 0.0, 0.0, 1.7068829169385478E9, 0.0, 2024-02-02 15:08:36.938
170.0, 61709.90308641233, 65188.46037250285, -31080.078313360016, -1398.481595335197, 16491.9440736704, 7392.973589059543, 27098.539721791713, 4536.510054649121, 37884.105787766675, 46477.52451628739, 36895.97986888646, 46066.699453198846, 23496.13141967433, 26072.751113504306, -6074.3994801520685, -631.3697256290586, -0.09, 0.982, 0.28800000000000003, 192.0, 0.0, 0.0, 0.0, 0.0, 0.0, 0.0, 0.0, 0.0, 0.0, 1.7068829169463418E9, 0.0, 2024-02-02 15:08:36.946
172.0, 61715.200449848235, 65195.99291038429, -31070.19884231077, -1388.803289986049, 16497.6437685065, 7398.270952495451, 27102.98771893832, 4542.56737739651, 37895.72869488343, 46480.89962970014, 36910.195578360035, 46077.71886321531, 23502.479315099637, 26079.83661649664, -6061.413116623535, -619.9479842123967, -0.09, 0.982, 0.28800000000000003, 192.0, 0.0, 0.0, 0.0, 0.0, 0.0, 0.0, 0.0, 0.0, 0.0, 1.7068829169546187E9, 0.0, 2024-02-02 15:08:36.954
174.0, 61701.23060956367, 65183.23006430031, -31080.30183080457, -1399.6662377913283, 16489.731250969322, 7385.038719777909, 27104.26176837227, 4533.649031358842, 37898.81323561826, 46488.36511234821, 36908.34038357024, 46076.78008994819, 23500.132381931828, 26079.2554711408, -6060.474343356413, -621.1549784129833, -0.09, 0.982, 0.28800000000000003, 192.0, 0.0, 0.0, 0.0, 0.0, 0.0, 0.0, 0.0, 0.0, 0.0, 1.706882916963385E9, 0.0, 2024-02-02 15:08:36.963
176.0, 61699.621283962886, 65180.86077938805, -31079.497168004178, -1401.6555430478506, 16492.905198681976, 7385.6645686226575, 27104.395878839005, 4533.984307525672, 37890.63249714762, 46469.88021968368, 36894.795226430324, 46060.97740661829, 23493.583320806425, 26066.939659945925, -6062.5977590796665, -630.5874145731228, -0.08600000000000001, 0.984, 0.292, 192.0, 126.5, 40.0, 15.0, 96.0, 4.5, 16.0, 0.0, 0.0, 0.0, 1.706882916970631E9, 0.0, 2024-02-02 15:08:36.970
178.0, 61702.63876946435, 65181.95601486636, -31073.216327812235, -1392.3125138655323, 16494.6933382384, 7389.442013435604, 27107.16749515146, 4541.874473318395, 37901.80836937528, 46474.842306952756, 36902.43952303404, 46066.38652877647, 23502.345204632904, 26072.97463094886, -6054.193503164471, -622.9431179694078, -0.08600000000000001, 0.984, 0.292, 192.0, 0.0, 0.0, 0.0, 0.0, 0.0, 0.0, 0.0, 0.0, 0.0, 1.7068829169784255E9, 0.0, 2024-02-02 15:08:36.978
180.0, 61706.37151078838, 65187.096916091075, -31069.952973121763, -1389.026807430602, 16492.860495193065, 7390.760766358468, 27099.7467159923, 4539.236967472669, 37906.323421755245, 46484.63237102418, 36904.27236607938, 46072.868534668516, 23502.613425566367, 26077.31086937319, -6054.171151420016, -618.1598446559722, -0.08600000000000001, 0.984, 0.292, 192.0, 0.0, 0.0, 0.0, 0.0, 0.0, 0.0, 0.0, 0.0, 0.0, 1.7068829169874487E9, 0.0, 2024-02-02 15:08:36.987
182.0, 61706.326807299476, 65184.861741645545, -31065.86260388644, -1389.160917897334, 16496.50382953928, 7391.096042525297, 27109.42502134145, 4542.545025652054, 37911.26315727987, 46476.094004642255, 36910.30733708231, 46074.85783992503, 23504.423916867247, 26076.26033738379, -6053.075915941706, -621.6243650465448, -0.08600000000000001, 0.984, 0.292, 192.0, 0.0, 0.0, 0.0, 0.0, 0.0, 0.0, 0.0, 0.0, 0.0, 1.706882916994772E9, 0.0, 2024-02-02 15:08:36.994
184.0, 61690.59117920294, 65169.52844494921, -31072.322258034023, -1396.0452551895685, 16494.112192882563, 7385.217533733551, 27103.121829405052, 4536.510054649121, 37913.58773870322, 46481.614885522715, 36907.55807251431, 46070.81217417862, 23505.273283156548, 26076.59561355062, -6053.142971175072, -621.1773301574386, -0.08600000000000001, 0.984, 0.292, 192.0, 0.0, 0.0, 0.0, 0.0, 0.0, 0.0, 0.0, 0.0, 0.0, 1.7068829170024333E9, 0.0, 2024-02-02 15:08:37.002
186.0, 61676.397821473816, 65153.45754068584, -31072.97045862323, -1397.4981185791635, 16498.090803395608, 7383.965836044054, 27108.12862016304, 4537.113551749415, 37902.99301183141, 46465.99101614845, 36895.15285434161, 46056.44000249386, 23500.311195887472, 26068.05724716869, -6057.210988665937, -630.4309523619357, -0.084, 0.98, 0.28400000000000003, 192.0, 126.5, 48.0, 15.0, 80.0, 4.0, 112.0, 0.0, 0.0, 0.0, 1.706882917010422E9, 0.0, 2024-02-02 15:08:37.010
188.0, 61669.58053941495, 65143.44395916986, -31066.91313587584, -1389.1162144084233, 16498.470783051347, 7388.503240168481, 27106.765163751264, 4540.153388995336, 37903.84237812071, 46458.95021664503, 36899.354982299206, 46058.652825194935, 23504.401565122793, 26072.080561170646, -6049.678450784499, -627.4805220938351, -0.084, 0.98, 0.28400000000000003, 192.0, 0.0, 0.0, 0.0, 0.0, 0.0, 0.0, 0.0, 0.0, 0.0, 1.7068829170195832E9, 0.0, 2024-02-02 15:08:37.019
190.0, 61654.359001440884, 65121.874525770494, -31066.600211453464, -1385.092900406468, 16499.767184229753, 7394.426452449138, 27109.916759719465, 4544.735496608674, 37904.17765428754, 46464.00171089193, 36901.813674189296, 46060.57507521809, 23503.999233722596, 26077.713200773385, -6050.997203707362, -622.6525452914889, -0.084, 0.98, 0.28400000000000003, 192.0, 0.0, 0.0, 0.0, 0.0, 0.0, 0.0, 0.0, 0.0, 0.0, 1.7068829170264876E9, 0.0, 2024-02-02 15:08:37.026
192.0, 61629.81678602896, 65093.51016205671, -31073.238679556693, -1388.1774411413005, 16501.041233663705, 7396.08048153883, 27111.190809153417, 4547.261243732124, 37900.087285052214, 46449.7636496739, 36900.316107310784, 46053.51192397022, 23502.70283254419, 26080.238947896833, -6048.784381006287, -617.8916237225085, -0.084, 0.98, 0.28400000000000003, 192.0, 0.0, 0.0, 0.0, 0.0, 0.0, 0.0, 0.0, 0.0, 0.0, 1.706882917034508E9, 0.0, 2024-02-02 15:08:37.034
194.0, 61598.74786123609, 65058.84260640653, -31077.23964181419, -1395.061778433535, 16501.041233663705, 7395.812260605367, 27112.487210331823, 4547.9988512991495, 37890.319572725246, 46440.62178619168, 36887.195633315525, 46041.10670579752, 23498.388945864313, 26077.288517628735, -6049.72315427341, -614.3823998430253, -0.084, 0.98, 0.28400000000000003, 192.0, 0.0, 0.0, 0.0, 0.0, 0.0, 0.0, 0.0, 0.0, 0.0, 1.7068829170425353E9, 0.0, 2024-02-02 15:08:37.042
196.0, 61571.52343648952, 65026.454928690786, -31081.285307560604, -1399.7109412802388, 16495.02861440523, 7394.962894316065, 27097.489189802312, 4539.952223295239, 37870.605334115666, 46419.63349814815, 36872.644647675115, 46024.901691067425, 23489.13532365982, 26069.3536483471, -6055.691070042976, -618.9868592008185, -0.08600000000000001, 0.978, 0.28800000000000003, 192.0, 126.5, 40.0, 15.0, 72.0, 4.5, 0.0, 0.0, 0.0, 0.0, 1.7068829170505235E9, 0.0, 2024-02-02 15:08:37.050
198.0, 61555.81016013744, 65007.366538925955, -31084.77217969563, -1408.7633977846383, 16490.781782958722, 7384.010539532965, 27104.105306161084, 4531.726781335686, 37867.92312478103, 46409.7540270989, 36872.89051686413, 46024.1640835004, 23490.632890538323, 26069.420703580465, -6049.8572647401415, -615.1870626434163, -0.08600000000000001, 0.978, 0.28800000000000003, 192.0, 0.0, 0.0, 0.0, 0.0, 0.0, 0.0, 0.0, 0.0, 0.0, 1.7068829170585353E9, 0.0, 2024-02-02 15:08:37.058
200.0, 61542.95790707564, 64994.31312016406, -31088.59432799749, -1413.3902088868867, 16489.194809102395, 7382.401213932182, 27096.50571304628, 4526.764694066607, 37857.23899093139, 46407.56355614228, 36860.418243458065, 46013.703467095314, 23481.826303222933, 26057.44016855242, -6056.987471221384, -624.4630365923687, -0.08600000000000001, 0.978, 0.28800000000000003, 192.0, 0.0, 0.0, 0.0, 0.0, 0.0, 0.0, 0.0, 0.0, 0.0, 1.7068829170665414E9, 0.0, 2024-02-02 15:08:37.066
202.0, 61544.03079080949, 64993.50845736366, -31084.794531440086, -1405.9247262388142, 16496.570884772646, 7392.861830337266, 27102.875960216043, 4535.012487770616, 37852.16514494004, 46397.77349207085, 36861.44642370301, 46014.03874326214, 23483.07800091243, 26059.831805209138, -6054.975814220406, -626.6982110378995, -0.08600000000000001, 0.978, 0.28800000000000003, 192.0, 0.0, 0.0, 0.0, 0.0, 0.0, 0.0, 0.0, 0.0, 0.0, 1.7068829170748315E9, 0.0, 2024-02-02 15:08:37.074
204.0, 61524.54006964446, 64973.48129433171, -31094.96457516725, -1417.547633355574, 16484.277425322227, 7379.987225531009, 27092.12477113304, 4524.909499276817, 37848.96884548293, 46408.23410847594, 36857.49016493442, 46014.686943851346, 23484.240291624104, 26066.67143901246, -6057.546264832767, -621.1102749240727, -0.08600000000000001, 0.978, 0.28800000000000003, 192.0, 0.0, 0.0, 0.0, 0.0, 0.0, 0.0, 0.0, 0.0, 0.0, 1.7068829170816023E9, 0.0, 2024-02-02 15:08:37.081
206.0, 61522.28254345448, 64970.91084371935, -31093.221139099736, -1417.6593920778505, 16485.77499220073, 7380.300149953384, 27097.176265379938, 4524.484816132166, 37837.97178721092, 46393.50430887989, 36851.20932474248, 46002.0582082341, 23476.752457231578, 26055.853194696094, -6064.363546891635, -632.0626297071731, -0.078, 0.974, 0.28800000000000003, 192.0, 126.5, 72.0, 15.0, 56.0, 4.5, 0.0, 0.0, 0.0, 0.0, 1.706882917090665E9, 0.0, 2024-02-02 15:08:37.090
208.0, 61519.98031377558, 64970.01677394113, -31093.176435610825, -1421.4368368907974, 16486.713765467855, 7377.550885385381, 27091.5436257772, 4521.959069008716, 37839.692871533975, 46390.41976814506, 36853.556257910284, 46000.71710356678, 23478.473541554635, 26057.3507615746, -6065.5928928366775, -631.5261878402457, -0.078, 0.974, 0.28800000000000003, 192.0, 0.0, 0.0, 0.0, 0.0, 0.0, 0.0, 0.0, 0.0, 0.0, 1.7068829170988998E9, 0.0, 2024-02-02 15:08:37.098
210.0, 61516.53814512947, 64971.38023035291, -31099.367868824946, -1423.3367351694985, 16484.523294511237, 7373.8628475502555, 27087.40855305297, 4519.187452696258, 37833.03205168629, 46393.169032713064, 36845.35316769519, 45996.939658753836, 23475.232538608616, 26056.00965690728, -6069.236227182892, -632.1520366849943, -0.078, 0.974, 0.28800000000000003, 192.0, 0.0, 0.0, 0.0, 0.0, 0.0, 0.0, 0.0, 0.0, 0.0, 1.7068829171056223E9, 0.0, 2024-02-02 15:08:37.105
212.0, 61528.675142368695, 64985.081849704016, -31096.171569367838, -1418.508758367152, 16490.06652713615, 7377.9755685300315, 27097.980928180332, 4527.122321977892, 37828.226426628404, 46382.50725060788, 36844.63791187262, 45995.77736804216, 23469.286974583505, 26051.29343882721, -6068.275102171315, -633.1131616965725, -0.078, 0.974, 0.28800000000000003, 192.0, 0.0, 0.0, 0.0, 0.0, 0.0, 0.0, 0.0, 0.0, 0.0, 1.7068829171146023E9, 0.0, 2024-02-02 15:08:37.114
214.0, 61535.2242034941, 64993.97784399723, -31100.999546170184, -1420.609822345951, 16486.087916623106, 7374.8016208173785, 27091.342460077103, 4526.116493477403, 37833.903769720055, 46393.5490123688, 36847.52128690735, 46003.1087402235, 23470.69513448419, 26053.5509650172, -6068.610378338144, -629.9168622394636, -0.078, 0.974, 0.28800000000000003, 192.0, 0.0, 0.0, 0.0, 0.0, 0.0, 0.0, 0.0, 0.0, 0.0, 1.706882917122663E9, 0.0, 2024-02-02 15:08:37.122
216.0, 61554.5808141924, 65014.80966982957, -31090.315412320546, -1407.735217539694, 16494.201599860382, 7385.441051178104, 27105.6475765285, 4536.4206476713, 37839.80463025625, 46400.32159093876, 36853.355092210186, 46007.28851643664, 23471.365686817848, 26054.10975862858, -6069.996186494373, -633.5378448412234, -0.088, 0.978, 0.28600000000000003, 192.0, 126.5, 32.0, 15.0, 72.0, 4.0, 120.0, 0.0, 0.0, 0.0, 1.7068829171306477E9, 0.0, 2024-02-02 15:08:37.130
218.0, 61565.26494804203, 65025.20323100129, -31087.074409374527, -1402.1696331703226, 16494.067489393652, 7385.731623856023, 27105.245245128306, 4538.342897694457, 37854.802650785765, 46410.13400675464, 36866.52026969436, 46022.800627088625, 23479.74759098859, 26066.82790122365, -6062.977738735407, -628.7545715277877, -0.088, 0.978, 0.28600000000000003, 192.0, 0.0, 0.0, 0.0, 0.0, 0.0, 0.0, 0.0, 0.0, 0.0, 1.7068829171378553E9, 0.0, 2024-02-02 15:08:37.137
220.0, 61571.59049172288, 65031.37231247096, -31093.712877477752, -1406.3270576390098, 16489.328919569125, 7379.584894130814, 27100.953710192887, 4534.073714503493, 37852.38866238459, 46421.44398944903, 36864.93329583803, 46023.9629178003, 23475.612518264355, 26064.570375033665, -6067.0010527373615, -630.9003389954971, -0.088, 0.978, 0.28600000000000003, 192.0, 0.0, 0.0, 0.0, 0.0, 0.0, 0.0, 0.0, 0.0, 0.0, 1.7068829171466773E9, 0.0, 2024-02-02 15:08:37.146
222.0, 61585.69444247418, 65045.20804228879, -31087.856720430464, -1399.6662377913283, 16490.51356202526, 7383.854077321777, 27094.874035701043, 4534.27488020359, 37854.176801941016, 46409.57521314326, 36868.08489180623, 46024.76758060069, 23472.192701362696, 26060.368247076065, -6069.191523693982, -630.2968418952039, -0.088, 0.978, 0.28600000000000003, 192.0, 0.0, 0.0, 0.0, 0.0, 0.0, 0.0, 0.0, 0.0, 0.0, 1.7068829171549604E9, 0.0, 2024-02-02 15:08:37.154
224.0, 61595.88683794581, 65058.06029535059, -31082.067618616536, -1396.805214501049, 16492.681681237424, 7386.6033418897805, 27100.484323559325, 4539.438133172766, 37862.78222355631, 46423.20977726099, 36874.41043548709, 46030.40022020343, 23476.260718853562, 26066.67143901246, -6066.10698295915, -621.3337923686257, -0.088, 0.978, 0.28600000000000003, 192.0, 0.0, 0.0, 0.0, 0.0, 0.0, 0.0, 0.0, 0.0, 0.0, 1.7068829171617355E9, 0.0, 2024-02-02 15:08:37.161
226.0, 61614.21526839916, 65075.42760079236, -31075.518557491134, -1395.4864615781858, 16499.007224918274, 7391.207801247573, 27104.373527094547, 4542.634432629876, 37871.097072493685, 46433.13395179915, 36883.99933385841, 46039.5197319412, 23482.56391078996, 26070.694753014417, -6057.210988665937, -619.0092109452738, -0.092, 0.981, 0.28600000000000003, 192.0, 126.5, 0.0, 15.0, 96.0, 4.0, 120.0, 0.0, 0.0, 0.0, 1.70688291717068E9, 0.0, 2024-02-02 15:08:37.170
228.0, 61618.305637634476, 65083.63069100746, -31078.826615670518, -1403.354275626454, 16495.475649294334, 7384.74814709999, 27103.859436972078, 4537.448827916244, 37876.483842907415, 46438.63248093516, 36887.93324088255, 46041.196112775346, 23486.430762580727, 26070.15831114749, -6053.38884036408, -623.6360220475224, -0.092, 0.981, 0.28600000000000003, 192.0, 0.0, 0.0, 0.0, 0.0, 0.0, 0.0, 0.0, 0.0, 0.0, 1.70688291717871E9, 0.0, 2024-02-02 15:08:37.178
230.0, 61620.98784696911, 65087.09521139804, -31083.654592472863, -1406.6623338058394, 16496.749698728287, 7384.502277910981, 27110.45320158639, 4538.365249438912, 37870.65003760458, 46444.5109897269, 36877.472624477465, 46035.83169410607, 23480.395791577794, 26065.576203534154, -6061.681337556999, -631.83911226262, -0.092, 0.981, 0.28600000000000003, 192.0, 0.0, 0.0, 0.0, 0.0, 0.0, 0.0, 0.0, 0.0, 0.0, 1.706882917185996E9, 0.0, 2024-02-02 15:08:37.185
232.0, 61636.25408843209, 65102.89789472794, -31078.424284270324, -1393.5642115550295, 16502.98583543132, 7396.5275164279365, 27115.236474899826, 4549.18349375528, 37880.28363946482, 46445.673280438576, 36888.804958916306, 46046.18055178888, 23487.570701547946, 26076.237985639335, -6054.573482820211, -619.6350597900224, -0.092, 0.981, 0.28600000000000003, 192.0, 0.0, 0.0, 0.0, 0.0, 0.0, 0.0, 0.0, 0.0, 0.0, 1.706882917193771E9, 0.0, 2024-02-02 15:08:37.193
234.0, 61629.839137773415, 65102.160287160914, -31092.125903621425, -1401.7896535145824, 16491.92172192594, 7383.049414521386, 27100.864303215065, 4534.520749392599, 37878.562555141754, 46456.04448986584, 36884.06638909178, 46046.918159355904, 23484.21793987965, 26077.31086937319, -6061.815448023731, -618.9645074563632, -0.092, 0.981, 0.28600000000000003, 192.0, 0.0, 0.0, 0.0, 0.0, 0.0, 0.0, 0.0, 0.0, 0.0, 1.7068829172029543E9, 0.0, 2024-02-02 15:08:37.202
236.0, 61636.276440176545, 65106.78709826316, -31089.689563475797, -1402.3037436370546, 16493.128716126528, 7384.7257953555345, 27097.869169458052, 4534.18547322577, 37870.98531377141, 46444.53334147136, 36877.36086575519, 46037.39631621794, 23475.277242097527, 26066.2020523789, -6072.276064428815, -628.7769232722429, -0.093, 0.9815, 0.28500000000000003, 192.0, 126.5, 8.0, 15.0, 88.0, 4.0, 112.0, 0.0, 0.0, 0.0, 1.706882917211052E9, 0.0, 2024-02-02 15:08:37.211
238.0, 61645.150082725304, 65113.87260125549, -31082.984040139207, -1401.1191011809233, 16495.02861440523, 7383.004711032476, 27107.391012596014, 4537.627641871887, 37877.0873400077, 46445.38270776066, 36886.43567400404, 46043.699508154335, 23479.12174214384, 26067.990191935325, -6064.587064336189, -622.2725656357486, -0.093, 0.9815, 0.28500000000000003, 192.0, 0.0, 0.0, 0.0, 0.0, 0.0, 0.0, 0.0, 0.0, 0.0, 1.7068829172178135E9, 0.0, 2024-02-02 15:08:37.217
240.0, 61657.801170087005, 65128.26712468471, -31075.406798768858, -1395.41940634482, 16499.5436667852, 7390.313731469361, 27113.805963254687, 4543.975537297194, 37882.36235169916, 46456.7150421995, 36892.62710721816, 46050.56149370212, 23480.619309022346, 26069.800683236204, -6063.134200946593, -618.6068795450783, -0.093, 0.9815, 0.28500000000000003, 192.0, 0.0, 0.0, 0.0, 0.0, 0.0, 0.0, 0.0, 0.0, 0.0, 1.7068829172268064E9, 0.0, 2024-02-02 15:08:37.226
242.0, 61665.11019052389, 65138.48187190079, -31077.574917981023, -1393.60891504394, 16497.666120250957, 7391.163097758663, 27106.675756773446, 4539.974575039694, 37890.14075876961, 46459.240789322954, 36904.3617730572, 46060.23979905126, 23487.146018403295, 26078.137883918036, -6054.037040953283, -613.3989230869918, -0.093, 0.9815, 0.28500000000000003, 192.0, 0.0, 0.0, 0.0, 0.0, 0.0, 0.0, 0.0, 0.0, 0.0, 1.706882917234803E9, 0.0, 2024-02-02 15:08:37.234
244.0, 61659.32108870996, 65137.45369165584, -31087.789665197095, -1398.1463191683674, 16490.781782958722, 7381.194219731596, 27102.674794515944, 4532.576147624987, 37880.57421214273, 46465.38751904816, 36891.665982206585, 46055.94826411585, 23476.081904897917, 26074.606308294096, -6064.408250380547, -620.4173708459581, -0.093, 0.9815, 0.28500000000000003, 192.0, 0.0, 0.0, 0.0, 0.0, 0.0, 0.0, 0.0, 0.0, 0.0, 1.7068829172420633E9, 0.0, 2024-02-02 15:08:37.242
246.0, 61668.23943474763, 65144.58389813708, -31085.465083773743, -1390.2338016311887, 16495.83327720562, 7383.138821499208, 27107.726288762846, 4533.716086592208, 37874.5392411398, 46468.36030106072, 36892.13536884014, 46059.144563572954, 23476.283070598016, 26073.756942004795, -6064.698823058466, -622.1831586579274, -0.0905, 0.98275, 0.28650000000000003, 192.0, 126.5, 32.0, 15.0, 96.0, 4.5, 0.0, 0.0, 0.0, 0.0, 1.7068829172498207E9, 0.0, 2024-02-02 15:08:37.249
248.0, 61678.38712673034, 65154.84334884207, -31077.329048792013, -1389.093862663968, 16500.75066098579, 7386.335120956317, 27111.570788809157, 4538.767580839108, 37878.45079641948, 46471.06486213981, 36899.24322357693, 46067.481764254786, 23482.36274508986, 26077.802607751204, -6058.306224144248, -620.2162051458604, -0.0905, 0.98275, 0.28650000000000003, 192.0, 0.0, 0.0, 0.0, 0.0, 0.0, 0.0, 0.0, 0.0, 0.0, 1.706882917258855E9, 0.0, 2024-02-02 15:08:37.258
250.0, 61681.426963976264, 65153.90457557495, -31077.776083681118, -1390.546726053563, 16502.494097053303, 7390.313731469361, 27115.258826644284, 4542.165045996314, 37878.02611327483, 46476.362225575715, 36898.304450309806, 46065.93949388737, 23483.770904990542, 26075.567433305674, -6058.3732793776135, -615.2988213656928, -0.0905, 0.98275, 0.28650000000000003, 192.0, 0.0, 0.0, 0.0, 0.0, 0.0, 0.0, 0.0, 0.0, 0.0, 1.706882917266836E9, 0.0, 2024-02-02 15:08:37.266
252.0, 61688.490115224144, 65163.672287901914, -31070.95880162225, -1382.8130224720267, 16509.914876212464, 7400.662589152168, 27112.308396376182, 4549.652880388842, 37884.32930521123, 46475.55756277533, 36908.47449403697, 46072.60031373505, 23493.113934172863, 26084.083447943147, -6048.404401350546, -603.4523968043801, -0.0905, 0.98275, 0.28650000000000003, 192.0, 0.0, 0.0, 0.0, 0.0, 0.0, 0.0, 0.0, 0.0, 0.0, 1.7068829172741392E9, 0.0, 2024-02-02 15:08:37.274
254.0, 61687.7078041682, 65161.61592741203, -31072.031685356105, -1383.0365399165798, 16509.132565156528, 7399.008560062476, 27119.192733668417, 4551.418668200811, 37884.441063933504, 46485.3699785912, 36907.64747949213, 46075.88602016998, 23491.97399520564, 26086.139808433036, -6052.762991519331, -603.2512311042823, -0.0905, 0.98275, 0.28650000000000003, 192.0, 0.0, 0.0, 0.0, 0.0, 0.0, 0.0, 0.0, 0.0, 0.0, 1.7068829172818787E9, 0.0, 2024-02-02 15:08:37.281
0.0, 61675.50375169561, 65146.617906882515, -31079.608926726454, -1388.5574207970405, 16504.528105798734, 7397.488641439515, 27118.186905167928, 4549.205845499736, 37881.73650285441, 46481.413719822616, 36909.435619048556, 46076.8247934371, 23491.571663805447, 26085.223386910366, -6050.706631029443, -607.162786383961, -0.08825, 0.983375, 0.28525, 192.0, 126.5, 40.0, 15.0, 96.0, 4.0, 112.0, 0.0, 0.0, 0.0, 1.706882917290896E9, 0.0, 2024-02-02 15:08:37.290
2.0, 61665.289004479535, 65136.98430502228, -31082.559356994556, -1394.3465226109652, 16502.65055926449, 7396.5275164279365, 27110.60966379758, 4546.166008253814, 37867.34197942519, 46467.10860337122, 36900.58432824425, 46064.57603747559, 23485.067306168952, 26081.289479886233, -6060.451991611957, -614.7176760098548, -0.08825, 0.983375, 0.28525, 192.0, 0.0, 0.0, 0.0, 0.0, 0.0, 0.0, 0.0, 0.0, 0.0, 1.706882917298065E9, 0.0, 2024-02-02 15:08:37.298
