%OpenBCI Raw EXG Data
%Number of channels = 16
%Sample Rate = 125 Hz
%Board = OpenBCI_GUI$BoardCytonSerialDaisy
Sample Index, EXG Channel 0, EXG Channel 1, EXG Channel 2, EXG Channel 3, EXG Channel 4, EXG Channel 5, EXG Channel 6, EXG Channel 7, EXG Channel 8, EXG Channel 9, EXG Channel 10, EXG Channel 11, EXG Channel 12, EXG Channel 13, EXG Channel 14, EXG Channel 15, Accel Channel 0, Accel Channel 1, Accel Channel 2, Other, Other, Other, Other, Other, Other, Other, Analog Channel 0, Analog Channel 1, Analog Channel 2, Timestamp, Other, Timestamp (Formatted)
34.0, 63285.25403562237, 65661.28917471041, -26106.859875543105, -14775.084230313807, 16517.335655371626, 5287.394557880707, 22852.51293808376, 4810.4977381822755, 41696.28521159711, 47293.87727902857, 37502.78502735913, 50515.70242830544, 22836.46438556485, 27574.140140311738, -9002.321541586107, -3667.563637204604, 0.0, 0.0, 0.0, 192.0, 0.0, 0.0, 0.0, 0.0, 0.0, 0.0, 0.0, 0.0, 0.0, 1.7068833683941474E9, 0.0, 2024-02-02 15:16:08.394
36.0, 63291.62428279213, 65662.51852065546, -26101.54016036274, -14767.417581965636, 16523.772957774756, 5296.536421362927, 22868.20386269139, 4823.171177288435, 41690.92079292784, 47285.78594753575, 37507.27772799465, 50517.91525100652, 22833.737472741304, 27577.068218835382, -8999.907553184934, -3665.9766633482773, 0.0, 0.0, 0.0, 192.0, 0.0, 0.0, 0.0, 0.0, 0.0, 0.0, 0.0, 0.0, 0.0, 1.7068833683941689E9, 0.0, 2024-02-02 15:16:08.394
0.0, 31760.823042490847, 32861.668808659175, -14072.188922427766, -7852.45839982729, 8236.260203869368, 2598.1891272293483, 11362.10696245515, 2391.4801945066683, 20847.181480786978, 23648.570316859525, 18755.751103848354, 25261.09221709874, 11418.925096860541, 13790.288721357432, -4495.941638462739, -1829.490283666883, -0.051000000000000004, 0.487, 0.145, 192.0, 126.0, 104.0, 15.0, 56.0, 4.5, 8.0, 0.0, 0.0, 0.0, 1.706883368472942E9, 0.0, 2024-02-02 15:16:08.472
2.0, 63517.71217795756, 65716.07330037038, -28141.740339009804, -15705.162668843588, 16475.716707195843, 5199.395739960163, 22731.344131391543, 4785.195563458868, 41875.05446375066, 47348.482590732885, 37503.12030352596, 50506.11352993412, 22786.821161129614, 27601.65513773622, -8982.115564598509, -3839.9626421883872, -0.051000000000000004, 0.487, 0.145, 192.0, 0.0, 0.0, 0.0, 0.0, 0.0, 0.0, 0.0, 0.0, 0.0, 1.7068833684789588E9, 0.0, 2024-02-02 15:16:08.478
4.0, 63531.32439033084, 65730.75839647751, -28132.844344716592, -15695.43966000553, 16482.332823554614, 5206.481242952495, 22735.21098318231, 4793.018674018225, 41875.30033293967, 47343.43109648599, 37510.786951874135, 50511.65676255903, 22794.733678666795, 27610.774649473984, -8975.924131384389, -3831.6030897621026, -0.051000000000000004, 0.487, 0.145, 192.0, 0.0, 0.0, 0.0, 0.0, 0.0, 0.0, 0.0, 0.0, 0.0, 1.7068833684871671E9, 0.0, 2024-02-02 15:16:08.487
6.0, 63524.77532920544, 65727.27152434249, -28146.61301930106, -15706.2579043219, 16469.391163514993, 5198.881649837691, 22712.434555582353, 4783.228609946801, 41873.266324194235, 47353.55643672424, 37509.22232976226, 50515.56831783871, 22793.526684466207, 27615.42381232069, -8980.662701208914, -3830.239633350329, -0.051000000000000004, 0.487, 0.145, 192.0, 0.0, 0.0, 0.0, 0.0, 0.0, 0.0, 0.0, 0.0, 0.0, 1.7068833684949942E9, 0.0, 2024-02-02 15:16:08.494
8.0, 63533.58191652083, 65731.54070753345, -28136.0406441737, -15697.183096073044, 16485.395012544992, 5213.276173266909, 22751.237183956764, 4805.446243935376, 41866.270228179725, 47340.57007319571, 37507.16596927238, 50512.95316373744, 22787.84934137456, 27611.065222151905, -8976.929959884877, -3830.887833939533, -0.106, 0.974, 0.294, 192.0, 126.0, 88.0, 15.0, 56.0, 4.5, 24.0, 0.0, 0.0, 0.0, 1.706883368502987E9, 0.0, 2024-02-02 15:16:08.502
10.0, 63527.01050365097, 65727.1150621313, -28145.495432078296, -15706.101442110712, 16475.11321009555, 5206.593001674772, 22733.959285492812, 4795.90204905296, 41868.795975303176, 47351.075393089704, 37509.244681506716, 50517.37880913959, 22796.2312455453, 27612.629844263774, -8970.246788292741, -3827.266851337773, -0.106, 0.974, 0.294, 192.0, 0.0, 0.0, 0.0, 0.0, 0.0, 0.0, 0.0, 0.0, 0.0, 1.7068833685120237E9, 0.0, 2024-02-02 15:16:08.512
12.0, 63537.91815494516, 65737.55332679192, -28141.740339009804, -15698.457145506996, 16479.02476537523, 5213.075007566811, 22732.998160481235, 4798.830127576605, 41858.648283320465, 47347.029727343295, 37506.96480357228, 50517.334105650676, 22790.240978031277, 27614.105059397825, -8977.198180818341, -3828.5409007717253, -0.106, 0.974, 0.294, 192.0, 0.0, 0.0, 0.0, 0.0, 0.0, 0.0, 0.0, 0.0, 0.0, 1.7068833685180254E9, 0.0, 2024-02-02 15:16:08.518
14.0, 63543.57314629235, 65744.25885012852, -28137.024120929735, -15690.879904136647, 16485.17149510044, 5218.998219847467, 22747.012704254714, 4807.882584081004, 41855.80961177464, 47348.88492213308, 37514.81026587609, 50525.24662318786, 22796.521818223217, 27623.202219391136, -8973.934826127866, -3823.4670547803707, -0.106, 0.974, 0.294, 192.0, 0.0, 0.0, 0.0, 0.0, 0.0, 0.0, 0.0, 0.0, 0.0, 1.7068833685270195E9, 0.0, 2024-02-02 15:16:08.527
16.0, 63537.158195633674, 65736.12281514678, -28142.746167510293, -15700.424099019063, 16477.79541943019, 5207.017684819422, 22730.3159511466, 4794.560944385641, 41857.57539958661, 47360.23960831638, 37517.917158355376, 50530.52163487931, 22798.667585690928, 27622.777536246485, -8974.672433694892, -3821.5671565016696, -0.106, 0.974, 0.294, 192.0, 0.0, 0.0, 0.0, 0.0, 0.0, 0.0, 0.0, 0.0, 0.0, 1.706883368535137E9, 0.0, 2024-02-02 15:16:08.535
18.0, 63543.28257361443, 65744.77294025099, -28130.89974294898, -15693.159782071089, 16490.826486447633, 5212.426806977607, 22746.02922749868, 4803.255772978756, 41851.00398671675, 47347.70027967695, 37518.09597231102, 50524.79958829875, 22798.622882202017, 27616.295530354444, -8972.906645882922, -3827.691534482424, -0.11, 0.98, 0.29, 192.0, 126.0, 72.0, 15.0, 80.0, 4.5, 8.0, 0.0, 0.0, 0.0, 1.7068833685430353E9, 0.0, 2024-02-02 15:16:08.543
20.0, 63530.184451363624, 65734.58054477937, -28146.501260578785, -15711.599971246716, 16477.326032796627, 5199.485146937985, 22731.07591045808, 4789.844726305571, 41850.1769721719, 47353.243512301866, 37516.933681599345, 50523.056152231235, 22800.94746362537, 27618.016614677505, -8971.163209815408, -3827.579775760147, -0.11, 0.98, 0.29, 192.0, 0.0, 0.0, 0.0, 0.0, 0.0, 0.0, 0.0, 0.0, 0.0, 1.7068833685510645E9, 0.0, 2024-02-02 15:16:08.551
22.0, 63529.49154728551, 65736.45809131362, -28152.446824603896, -15712.270523580377, 16479.672965964433, 5202.0779492947995, 22730.472413357784, 4790.381168172499, 41829.3227945951, 47341.24062552937, 37498.068809279066, 50508.23694565737, 22786.84351287407, 27600.69401272464, -8986.943541400855, -3846.0199649357755, -0.11, 0.98, 0.29, 192.0, 0.0, 0.0, 0.0, 0.0, 0.0, 0.0, 0.0, 0.0, 0.0, 1.7068833685593398E9, 0.0, 2024-02-02 15:16:08.559
24.0, 63543.260221869976, 65749.57856530888, -28143.372016355042, -15695.618473961173, 16488.01016664626, 5214.952554101057, 22743.145852463946, 4805.088616024091, 41837.83880923257, 47350.4271925005, 37510.295213496116, 50526.990059255375, 22798.958158368845, 27621.23526587907, -8973.82306740559, -3831.111351384086, -0.11, 0.98, 0.29, 192.0, 0.0, 0.0, 0.0, 0.0, 0.0, 0.0, 0.0, 0.0, 0.0, 1.70688336856742E9, 0.0, 2024-02-02 15:16:08.567
26.0, 63535.75003573299, 65742.44835882763, -28150.122243180544, -15700.781726930349, 16477.147218840983, 5205.855394107747, 22724.88447724396, 4795.499717652764, 41835.69304176486, 47361.84893391716, 37512.28451875264, 50529.33699242318, 22798.019385101725, 27628.700748527142, -8978.852209908035, -3826.752761215301, -0.11, 0.98, 0.29, 192.0, 0.0, 0.0, 0.0, 0.0, 0.0, 0.0, 0.0, 0.0, 0.0, 1.706883368574128E9, 0.0, 2024-02-02 15:16:08.574
28.0, 63540.93564044662, 65750.0703036869, -28145.96481871186, -15698.568904229272, 16482.891617166, 5211.331571499297, 22735.389797137952, 4803.926325312415, 41826.975861427294, 47357.62445421511, 37513.223292019764, 50527.59355635566, 22796.61122520104, 27623.13516415777, -8978.44987850784, -3828.876176938555, -0.11800000000000001, 0.98, 0.294, 192.0, 126.0, 40.0, 15.0, 80.0, 4.5, 24.0, 0.0, 0.0, 0.0, 1.706883368583118E9, 0.0, 2024-02-02 15:16:08.583
30.0, 63536.73351248902, 65747.34339086335, -28149.22817340233, -15704.603875232206, 16476.253149062773, 5202.659094650638, 22723.901000487924, 4797.019636275725, 41822.19258811386, 47357.579750726196, 37509.22232976226, 50524.84429178766, 22792.006765843245, 27617.122544899292, -8981.377957031484, -3834.620575263569, -0.11800000000000001, 0.98, 0.294, 192.0, 0.0, 0.0, 0.0, 0.0, 0.0, 0.0, 0.0, 0.0, 0.0, 1.706883368591238E9, 0.0, 2024-02-02 15:16:08.591
32.0, 63539.37101833475, 65750.9643734651, -28137.582914541115, -15695.573770472261, 16488.12192536854, 5210.45985346554, 22749.091416489056, 4809.2683922372335, 41818.21397760081, 47357.915026893024, 37512.37392573046, 50525.73836156588, 22798.51112347974, 27624.02923393598, -8974.314805783606, -3830.8654821950777, -0.11800000000000001, 0.98, 0.294, 192.0, 0.0, 0.0, 0.0, 0.0, 0.0, 0.0, 0.0, 0.0, 0.0, 1.7068833685991907E9, 0.0, 2024-02-02 15:16:08.599
34.0, 63546.52357656045, 65756.8205305124, -28126.13882138, -15688.041232590824, 16491.854666692576, 5216.740693657482, 22751.08072174558, 4813.671685894929, 41820.963242168815, 47361.826582172704, 37525.248530536715, 50538.657669861044, 22807.09419335058, 27626.286760125968, -8960.747296899235, -3818.482615766837, -0.11800000000000001, 0.98, 0.294, 192.0, 0.0, 0.0, 0.0, 0.0, 0.0, 0.0, 0.0, 0.0, 0.0, 1.7068833686061609E9, 0.0, 2024-02-02 15:16:08.606
36.0, 63540.51095730197, 65751.29964963194, -28134.073690661633, -15694.232665804944, 16487.02668989023, 5211.912716855135, 22744.17403270889, 4808.508432925753, 41819.24215784576, 47369.381471798595, 37524.71208866979, 50539.842312317174, 22805.26135030524, 27630.354777616834, -8961.976642844278, -3816.873290166055, -0.11800000000000001, 0.98, 0.294, 192.0, 0.0, 0.0, 0.0, 0.0, 0.0, 0.0, 0.0, 0.0, 0.0, 1.7068833686152852E9, 0.0, 2024-02-02 15:16:08.615
38.0, 63544.98130619303, 65754.74181827805, -28137.0911761631, -15691.282235536843, 16489.664195735957, 5214.997257589967, 22744.68812283136, 4808.3296189701105, 41809.74266645225, 47354.51756173582, 37519.48178046725, 50534.83552155919, 22800.679242691906, 27622.37520484629, -8969.643291192448, -3822.952964657899, -0.11, 0.976, 0.296, 192.0, 126.0, 72.0, 15.0, 64.0, 4.5, 32.0, 0.0, 0.0, 0.0, 1.7068833686231873E9, 0.0, 2024-02-02 15:16:08.623
40.0, 63543.1484631477, 65754.63005955578, -28145.406025100474, -15695.931398383547, 16484.657404977967, 5210.45985346554, 22734.562782593108, 4803.769863101228, 41810.212053085816, 47362.430079273, 37518.94533860032, 50538.031821016295, 22804.83666716059, 27631.919399728704, -8968.77157315869, -3820.203700089896, -0.11, 0.976, 0.296, 192.0, 0.0, 0.0, 0.0, 0.0, 0.0, 0.0, 0.0, 0.0, 0.0, 1.7068833686301975E9, 0.0, 2024-02-02 15:16:08.630
42.0, 63550.54689056241, 65759.99447822505, -28133.447841816884, -15686.34250001222, 16499.70012899639, 5221.479263482006, 22754.768759580704, 4816.018619062736, 41804.51235824971, 47359.03261411579, 37514.98907983173, 50530.38752441258, 22802.60149271506, 27624.02923393598, -8973.48779123876, -3825.1210838700636, -0.11, 0.976, 0.296, 192.0, 0.0, 0.0, 0.0, 0.0, 0.0, 0.0, 0.0, 0.0, 0.0, 1.7068833686391954E9, 0.0, 2024-02-02 15:16:08.639
44.0, 63551.55271906289, 65761.40263812574, -28132.285551105208, -15686.498962223408, 16497.397899317493, 5221.9710018600235, 22754.858166558526, 4814.990438817792, 41814.99532639925, 47363.21239032893, 37530.635300950446, 50540.64697511757, 22822.38278655801, 27635.60743756383, -8953.997070073732, -3809.1842900734296, -0.11, 0.976, 0.296, 192.0, 0.0, 0.0, 0.0, 0.0, 0.0, 0.0, 0.0, 0.0, 0.0, 1.7068833686475077E9, 0.0, 2024-02-02 15:16:08.647
46.0, 63550.36807660676, 65759.14511193575, -28138.208763385865, -15689.762316913882, 16491.184114358915, 5214.706684912048, 22743.570535608596, 4807.837880592094, 41806.926346650886, 47370.007320643344, 37527.215484048786, 50537.36126868264, 22811.60924573055, 27633.484021840577, -8964.927073112378, -3818.0355808777313, -0.11, 0.976, 0.296, 192.0, 0.0, 0.0, 0.0, 0.0, 0.0, 0.0, 0.0, 0.0, 0.0, 1.7068833686541944E9, 0.0, 2024-02-02 15:16:08.654
48.0, 63550.882166729236, 65760.6203270698, -28138.76755699725, -15691.572808214762, 16492.860495193065, 5217.143025057677, 22740.75421580723, 4808.419025947932, 41803.193605326844, 47360.35136703865, 37530.009452105696, 50536.64601286007, 22811.810411430648, 27628.074899682393, -8965.77643940168, -3820.6060314900915, -0.108, 0.978, 0.292, 192.0, 126.0, 80.0, 15.0, 72.0, 4.5, 16.0, 0.0, 0.0, 0.0, 1.706883368663212E9, 0.0, 2024-02-02 15:16:08.663
50.0, 63541.226213124544, 65750.58439380937, -28149.65285654698, -15705.028558376856, 16486.22202708984, 5207.799995875358, 22733.758119792717, 4799.120700254524, 41797.628020957476, 47365.62637873011, 37523.370984002475, 50535.14844598156, 22813.240923075788, 27616.541399543454, -8968.592759203048, -3824.584642003136, -0.108, 0.978, 0.292, 192.0, 0.0, 0.0, 0.0, 0.0, 0.0, 0.0, 0.0, 0.0, 0.0, 1.7068833686712883E9, 0.0, 2024-02-02 15:16:08.671
52.0, 63538.991038679014, 65751.59022230985, -28149.362283869064, -15702.122831597666, 16490.759431214265, 5210.638667421183, 22739.68133207337, 4801.914668311438, 41783.144090550435, 47353.04234660177, 37508.48472219524, 50524.888995276575, 22804.635501460496, 27617.480172810578, -8976.371166273495, -3832.810083962689, -0.108, 0.978, 0.292, 192.0, 0.0, 0.0, 0.0, 0.0, 0.0, 0.0, 0.0, 0.0, 0.0, 1.7068833686784737E9, 0.0, 2024-02-02 15:16:08.678
54.0, 63541.38267533573, 65754.22772815559, -28147.01535070126, -15698.390090273631, 16493.30753008217, 5214.013780833934, 22738.787262295158, 4803.836918334594, 41787.189756296844, 47350.78482041178, 37517.559530444094, 50532.086256991184, 22813.352681798064, 27627.85138223784, -8967.184599302363, -3821.9024326684994, -0.108, 0.978, 0.292, 192.0, 0.0, 0.0, 0.0, 0.0, 0.0, 0.0, 0.0, 0.0, 0.0, 1.7068833686862447E9, 0.0, 2024-02-02 15:16:08.686
56.0, 63538.14167238971, 65748.2151088971, -28153.296190893197, -15702.905142653603, 16487.496076523792, 5210.8845366101905, 22734.652189570927, 4799.835956077094, 41783.25584927271, 47360.932512394495, 37513.580919931046, 50528.867605789615, 22806.781268928204, 27627.56080955992, -8972.124334826987, -3822.036543135231, -0.108, 0.978, 0.292, 192.0, 0.0, 0.0, 0.0, 0.0, 0.0, 0.0, 0.0, 0.0, 0.0, 1.7068833686952915E9, 0.0, 2024-02-02 15:16:08.695
58.0, 63535.12418688824, 65746.42696934068, -28154.547888582696, -15707.82252643377, 16486.445544534392, 5206.324780741308, 22737.580268094574, 4800.841784577583, 41771.968218322785, 47347.0744308322, 37507.99298381722, 50520.820977785705, 22802.534437481696, 27615.937902443162, -8982.495544254249, -3830.8654821950777, -0.108, 0.982, 0.294, 192.0, 126.0, 80.0, 15.0, 88.0, 4.5, 24.0, 0.0, 0.0, 0.0, 1.7068833687034435E9, 0.0, 2024-02-02 15:16:08.703
60.0, 63536.48764330002, 65746.22580364058, -28154.123205438045, -15707.889581667136, 16483.02572763273, 5205.274248751909, 22733.892230259447, 4800.730025855306, 41777.913782347896, 47358.25030305985, 37515.391411231925, 50529.918137779016, 22811.922170152924, 27624.431565336177, -8976.192352317852, -3826.6410024930246, -0.108, 0.982, 0.294, 192.0, 0.0, 0.0, 0.0, 0.0, 0.0, 0.0, 0.0, 0.0, 0.0, 1.7068833687102861E9, 0.0, 2024-02-02 15:16:08.710
62.0, 63535.88414619972, 65746.7175420186, -28152.51387983726, -15707.196677589021, 16482.556340999166, 5207.8894028531795, 22728.907791245914, 4796.952581042359, 41770.783575866655, 47352.260035545834, 37511.45750420779, 50526.38656215508, 22805.88719914999, 27618.687167011165, -8985.244808822252, -3834.2405956078287, -0.108, 0.982, 0.294, 192.0, 0.0, 0.0, 0.0, 0.0, 0.0, 0.0, 0.0, 0.0, 0.0, 1.7068833687186713E9, 0.0, 2024-02-02 15:16:08.718
64.0, 63540.734474746525, 65752.88662348827, -28145.048397189188, -15697.652482706606, 16489.21716084685, 5211.443330221574, 22745.157509464923, 4807.077921280614, 41773.62224741247, 47351.99181461237, 37518.27478626666, 50533.539120380774, 22812.27979806421, 27625.03506243647, -8976.72879418478, -3828.496197282815, -0.108, 0.982, 0.294, 192.0, 0.0, 0.0, 0.0, 0.0, 0.0, 0.0, 0.0, 0.0, 0.0, 1.7068833687273414E9, 0.0, 2024-02-02 15:16:08.727
66.0, 63529.93858217461, 65744.70588501763, -28152.200955414886, -15706.190849088533, 16481.729326454322, 5201.8991353391575, 22732.908753503412, 4797.310208953644, 41769.35306422151, 47358.38441352659, 37510.51873094067, 50528.867605789615, 22809.508181751753, 27613.79213497545, -8978.248712807741, -3829.6361362500356, -0.108, 0.982, 0.294, 192.0, 0.0, 0.0, 0.0, 0.0, 0.0, 0.0, 0.0, 0.0, 0.0, 1.706883368734516E9, 0.0, 2024-02-02 15:16:08.734
68.0, 63534.319524087856, 65749.42210309769, -28150.815147258658, -15704.737985698937, 16483.897445666487, 5205.095434796266, 22730.986503480257, 4799.299514210166, 41766.06735778658, 47348.415535499524, 37511.256338507694, 50524.732533065384, 22807.876504406515, 27613.389803575257, -8978.651044207936, -3831.848958951111, -0.11, 0.982, 0.3, 192.0, 126.0, 72.0, 15.0, 88.0, 4.5, 48.0, 0.0, 0.0, 0.0, 1.7068833687423227E9, 0.0, 2024-02-02 15:16:08.742
70.0, 63539.48277705703, 65751.41140835422, -28149.2952286357, -15702.145183342122, 16489.6418439915, 5211.130405799199, 22742.36354140801, 4807.480252680809, 41766.38028220896, 47355.09870709166, 37512.57509143056, 50526.74419006636, 22813.486792264797, 27621.682300768174, -8977.82402966309, -3830.3066885836947, -0.11, 0.982, 0.3, 192.0, 0.0, 0.0, 0.0, 0.0, 0.0, 0.0, 0.0, 0.0, 0.0, 1.7068833687513804E9, 0.0, 2024-02-02 15:16:08.751
72.0, 63550.92687021814, 65760.4191613697, -28146.23303964532, -15699.530029240852, 16493.59810276009, 5217.143025057677, 22739.480166373276, 4810.117758526535, 41770.425947955366, 47364.68760546298, 37520.37585024546, 50532.89091979157, 22817.867734178035, 27629.550114816444, -8975.186523817363, -3826.3504298151056, -0.11, 0.982, 0.3, 192.0, 0.0, 0.0, 0.0, 0.0, 0.0, 0.0, 0.0, 0.0, 0.0, 1.7068833687593937E9, 0.0, 2024-02-02 15:16:08.759
74.0, 63538.70046600109, 65747.20928039662, -28155.732531038826, -15715.735043970948, 16485.79734394519, 5203.0167225619225, 22734.808651782114, 4795.90204905296, 41768.190773509836, 47363.12298335111, 37522.76748690218, 50531.527463379796, 22820.192315601387, 27625.772670003495, -8974.068936594598, -3827.5127205267813, -0.11, 0.982, 0.3, 192.0, 0.0, 0.0, 0.0, 0.0, 0.0, 0.0, 0.0, 0.0, 0.0, 1.7068833687665317E9, 0.0, 2024-02-02 15:16:08.766
76.0, 63539.48277705703, 65748.75155076403, -28156.403083372486, -15716.316189326786, 16489.30656782467, 5202.50263243945, 22736.03799772716, 4796.885525808993, 41757.97602629376, 47356.28334954779, 37512.21746351927, 50523.1232074646, 22817.711271966848, 27618.597760033343, -8980.193314575352, -3838.956813687899, -0.11, 0.982, 0.3, 192.0, 0.0, 0.0, 0.0, 0.0, 0.0, 0.0, 0.0, 0.0, 0.0, 1.7068833687743833E9, 0.0, 2024-02-02 15:16:08.774
78.0, 63531.27968684193, 65739.47557681508, -28162.885089264524, -15718.283142838854, 16482.958672399363, 5200.759196371937, 22736.68619831636, 4796.930229297904, 41752.678662857856, 47343.43109648599, 37509.62466116246, 50520.351591152146, 22813.218571331334, 27615.244998365048, -8978.740451185759, -3834.374706074561, -0.111, 0.98, 0.297, 192.0, 126.0, 64.0, 15.0, 72.0, 4.5, 24.0, 0.0, 0.0, 0.0, 1.7068833687836287E9, 0.0, 2024-02-02 15:16:08.783
80.0, 63529.31273332986, 65742.06837917189, -28173.166891713965, -15722.440567307542, 16471.44752400488, 5193.137251512677, 22721.375253364477, 4787.944828026871, 41741.59219760802, 47338.55841619473, 37496.101855766996, 50511.5226520923, 22801.774478170217, 27610.528780284978, -8988.619922235004, -3840.297918355217, -0.111, 0.98, 0.297, 192.0, 0.0, 0.0, 0.0, 0.0, 0.0, 0.0, 0.0, 0.0, 0.0, 1.706883368790443E9, 0.0, 2024-02-02 15:16:08.790
82.0, 63536.130015388735, 65748.52803331948, -28166.304906166188, -15715.735043970948, 16477.907178152465, 5203.93314408459, 22727.320817389587, 4794.09155775208, 41741.905122030395, 47343.02876508579, 37501.42157094736, 50514.696599804956, 22804.724908438315, 27608.517123284, -8990.229247835785, -3839.1356276435413, -0.111, 0.98, 0.297, 192.0, 0.0, 0.0, 0.0, 0.0, 0.0, 0.0, 0.0, 0.0, 0.0, 1.7068833687986424E9, 0.0, 2024-02-02 15:16:08.798
84.0, 63531.19027986411, 65745.95758270712, -28166.72958931084, -15716.517355026885, 16479.807076431167, 5207.330609241797, 22732.014683725203, 4797.801947331661, 41744.6543865984, 47340.7712388958, 37506.920100083364, 50517.49056786187, 22815.341987054588, 27615.066184409403, -8983.277855310185, -3833.100656640608, -0.111, 0.98, 0.297, 192.0, 0.0, 0.0, 0.0, 0.0, 0.0, 0.0, 0.0, 0.0, 0.0, 1.7068833688074224E9, 0.0, 2024-02-02 15:16:08.807
86.0, 63534.788910721414, 65747.87983273028, -28170.81995854616, -15720.987703917946, 16479.20357933087, 5203.88844059568, 22732.819346525594, 4797.7572438427505, 41742.173342963855, 47352.058869845736, 37503.41087620388, 50517.2223469284, 22815.23022833231, 27624.833896736374, -8981.936750642866, -3832.944194429421, -0.111, 0.98, 0.297, 192.0, 0.0, 0.0, 0.0, 0.0, 0.0, 0.0, 0.0, 0.0, 0.0, 1.7068833688156843E9, 0.0, 2024-02-02 15:16:08.815
88.0, 63527.52459377344, 65741.71075126062, -28178.86658655007, -15723.602858019218, 16475.046154862186, 5200.6697893941155, 22732.05938721411, 4795.633828119496, 41731.53391260313, 47339.58659643967, 37498.35938195698, 50510.44976835844, 22807.60828347305, 27610.305262840422, -8987.189410589865, -3838.4427235654266, -0.1095, 0.983, 0.2965, 192.0, 126.0, 80.0, 15.0, 104.0, 4.5, 32.0, 0.0, 0.0, 0.0, 1.7068833688224828E9, 0.0, 2024-02-02 15:16:08.822
90.0, 63526.697579228596, 65742.26954487199, -28177.547833627206, -15715.913857926591, 16476.87899790752, 5206.45889120804, 22731.07591045808, 4800.037121777192, 41725.45423811129, 47344.41457324202, 37493.19612898781, 50510.338009636165, 22804.45668750485, 27611.042870407447, -8988.39640479045, -3837.727467742857, -0.1095, 0.983, 0.2965, 192.0, 0.0, 0.0, 0.0, 0.0, 0.0, 0.0, 0.0, 0.0, 0.0, 1.7068833688306296E9, 0.0, 2024-02-02 15:16:08.830
92.0, 63528.5974775073, 65744.01298093951, -28172.80926380268, -15712.91872416958, 16482.44458227689, 5211.666847666126, 22732.215849425298, 4805.558002657653, 41724.917796244365, 47349.399012255555, 37496.25831797819, 50514.540137593765, 22811.206914330356, 27620.028271678482, -8988.217590834807, -3833.4135810629823, -0.1095, 0.983, 0.2965, 192.0, 0.0, 0.0, 0.0, 0.0, 0.0, 0.0, 0.0, 0.0, 0.0, 1.7068833688394935E9, 0.0, 2024-02-02 15:16:08.839
94.0, 63535.61592526626, 65749.75737926453, -28167.735417811327, -15708.873058423169, 16491.675852736935, 5214.1702430451205, 22751.237183956764, 4813.6046306615635, 41725.901273000396, 47341.50884646283, 37502.58386165903, 50519.39046614057, 22814.17969634291, 27622.777536246485, -8977.131125584976, -3823.712923969379, -0.1095, 0.983, 0.2965, 192.0, 0.0, 0.0, 0.0, 0.0, 0.0, 0.0, 0.0, 0.0, 0.0, 1.7068833688464909E9, 0.0, 2024-02-02 15:16:08.846
96.0, 63529.49154728551, 65745.01880944, -28180.408856917486, -15715.422119548575, 16483.159838099462, 5208.1799755310985, 22743.659942586415, 4808.106101525557, 41723.442581110314, 47347.83439014368, 37498.62760289045, 50516.59649808366, 22814.202048087365, 27621.61524553481, -8983.031986121177, -3830.396095561516, -0.1095, 0.983, 0.2965, 192.0, 0.0, 0.0, 0.0, 0.0, 0.0, 0.0, 0.0, 0.0, 0.0, 1.7068833688547606E9, 0.0, 2024-02-02 15:16:08.854
98.0, 63531.97259092005, 65750.47263508709, -28180.207691217387, -15710.460032279496, 16483.87509392203, 5211.666847666126, 22735.63566632696, 4807.301438725167, 41709.53979605911, 47342.827599385695, 37498.202919745796, 50520.396294641054, 22810.759879441248, 27619.84945772284, -8985.937712900366, -3831.267813595273, -0.10675000000000001, 0.9824999999999999, 0.29225, 192.0, 126.0, 96.0, 15.0, 88.0, 4.5, 0.0, 0.0, 0.0, 0.0, 1.7068833688625276E9, 0.0, 2024-02-02 15:16:08.862
100.0, 63525.490585028005, 65741.88956521626, -28185.281537208743, -15720.026578906367, 16477.840122919097, 5202.390873717174, 22731.344131391543, 4799.590086888085, 41709.53979605911, 47344.45927673093, 37497.33120171204, 50520.44099812997, 22810.156382340956, 27621.123507156793, -8990.430413535883, -3834.8664444525775, -0.10675000000000001, 0.9824999999999999, 0.29225, 192.0, 0.0, 0.0, 0.0, 0.0, 0.0, 0.0, 0.0, 0.0, 0.0, 1.7068833688705485E9, 0.0, 2024-02-02 15:16:08.870
102.0, 63526.18348910612, 65741.08490241587, -28180.162987728476, -15719.311323083797, 16483.897445666487, 5203.508460939939, 22745.135157720466, 4804.060435779147, 41703.929508200825, 47329.86358760161, 37494.067847021564, 50515.031875971785, 22808.18942882889, 27605.387879060258, -8989.312826313118, -3837.593357276125, -0.10675000000000001, 0.9824999999999999, 0.29225, 192.0, 0.0, 0.0, 0.0, 0.0, 0.0, 0.0, 0.0, 0.0, 0.0, 1.706883368878545E9, 0.0, 2024-02-02 15:16:08.878
104.0, 63531.90553568668, 65749.10917867532, -28173.368057414064, -15714.192773603532, 16484.232721833316, 5207.621181919716, 22739.033131484168, 4805.3344852130995, 41704.30948785657, 47328.38837246757, 37499.40991394638, 50520.686867318975, 22813.196219586876, 27612.94276868615, -8984.127221599487, -3834.464113052382, -0.10675000000000001, 0.9824999999999999, 0.29225, 192.0, 0.0, 0.0, 0.0, 0.0, 0.0, 0.0, 0.0, 0.0, 0.0, 1.7068833688867347E9, 0.0, 2024-02-02 15:16:08.886
106.0, 63535.571221777354, 65754.94298397815, -28171.28934517972, -15709.54361075683, 16484.74681195579, 5208.783472631392, 22743.347018164044, 4808.2849154812, 41711.05971468207, 47346.51563722082, 37502.8520825925, 50525.89482377706, 22819.208838845356, 27620.497658312044, -8983.233151821274, -3830.9548891728987, -0.10675000000000001, 0.9824999999999999, 0.29225, 192.0, 0.0, 0.0, 0.0, 0.0, 0.0, 0.0, 0.0, 0.0, 0.0, 1.7068833688955607E9, 0.0, 2024-02-02 15:16:08.895
108.0, 63537.42641656714, 65755.92646073419, -28173.0998364806, -15709.63301773465, 16480.00824213126, 5207.17414703061, 22737.87084077249, 4806.407368946954, 41712.624336793946, 47339.4748377174, 37508.954108828795, 50526.364210410626, 22818.89591442298, 27613.725079742086, -8983.814297177112, -3829.6584879944908, -0.10537500000000001, 0.98425, 0.288125, 192.0, 126.0, 96.0, 15.0, 104.0, 4.0, 112.0, 0.0, 0.0, 0.0, 1.706883368902583E9, 0.0, 2024-02-02 15:16:08.902
110.0, 63535.772387477446, 65755.09944618934, -28178.44190340542, -15713.164593358588, 16472.45335250537, 5200.133347527189, 22722.02345395368, 4799.411272932443, 41717.07233394055, 47346.426230243, 37509.33408848454, 50527.817073800215, 22817.97949290031, 27619.35771934482, -8990.54217225816, -3830.6419647505245, -0.10537500000000001, 0.98425, 0.288125, 192.0, 0.0, 0.0, 0.0, 0.0, 0.0, 0.0, 0.0, 0.0, 0.0, 1.706883368910588E9, 0.0, 2024-02-02 15:16:08.910
112.0, 63541.919117202655, 65760.64267881426, -28174.53034812574, -15708.806003189804, 16478.287157808205, 5210.213984276532, 22728.930142990368, 4806.630886391507, 41724.31429914407, 47348.057907588234, 37505.824864605056, 50523.637297587076, 22815.36433879904, 27618.776573988984, -8994.610189749026, -3836.654584009002, -0.10537500000000001, 0.98425, 0.288125, 192.0, 0.0, 0.0, 0.0, 0.0, 0.0, 0.0, 0.0, 0.0, 0.0, 1.7068833689191096E9, 0.0, 2024-02-02 15:16:08.919
114.0, 63541.516785802465, 65761.268527659, -28174.507996381286, -15707.911933411591, 16485.372660800538, 5215.041961078878, 22749.270230444698, 4816.890337096494, 41741.23456969674, 47349.42136400001, 37509.35644022899, 50530.05224824575, 22820.52759176822, 27625.66091128122, -8985.289512311163, -3827.579775760147, -0.10537500000000001, 0.98425, 0.288125, 192.0, 0.0, 0.0, 0.0, 0.0, 0.0, 0.0, 0.0, 0.0, 0.0, 1.706883368926597E9, 0.0, 2024-02-02 15:16:08.926
116.0, 63532.419625809154, 65752.90897523273, -28183.359287185587, -15716.740872471437, 16478.55537874167, 5204.581344673794, 22739.25664892872, 4809.290743981689, 41749.527066889656, 47349.35430876664, 37495.85598657799, 50516.99882948385, 22810.022271874222, 27615.937902443162, -8994.118451371009, -3837.325136342661, -0.10537500000000001, 0.98425, 0.288125, 192.0, 0.0, 0.0, 0.0, 0.0, 0.0, 0.0, 0.0, 0.0, 0.0, 1.7068833689346168E9, 0.0, 2024-02-02 15:16:08.934
118.0, 63552.89382373021, 65771.01388824152, -28165.85787127708, -15698.546552484817, 16491.07235563664, 5218.618240191727, 22751.684218845872, 4823.260584266256, 41775.253924757715, 47350.717765178415, 37508.14944602841, 50526.54302436626, 22815.69961496587, 27625.12446941429, -8984.797773933145, -3828.7644182162785, -0.10468750000000002, 0.985125, 0.2900625, 192.0, 126.0, 96.0, 15.0, 104.0, 4.5, 16.0, 0.0, 0.0, 0.0, 1.706883368942907E9, 0.0, 2024-02-02 15:16:08.942
120.0, 63554.43609409763, 65772.44439988666, -28168.741246311816, -15702.34634904222, 16484.36683230005, 5213.343228500275, 22744.285791431164, 4815.929212084915, 41805.33937279456, 47368.77797469831, 37517.17955078835, 50537.540082638276, 22821.37695805752, 27633.171097418202, -8976.482924995771, -3820.650734979002, -0.10468750000000002, 0.985125, 0.2900625, 192.0, 0.0, 0.0, 0.0, 0.0, 0.0, 0.0, 0.0, 0.0, 0.0, 1.706883368950673E9, 0.0, 2024-02-02 15:16:08.950
122.0, 63555.50897783149, 65771.14799870826, -28170.61879284606, -15701.653444964106, 16483.897445666487, 5216.248955279464, 22748.331457177577, 4815.683342895906, 41819.26450959021, 47364.82171592971, 37512.01629781917, 50535.84135005967, 22811.676300963914, 27629.84068749436, -8983.769593688201, -3827.847996693611, -0.10468750000000002, 0.985125, 0.2900625, 192.0, 0.0, 0.0, 0.0, 0.0, 0.0, 0.0, 0.0, 0.0, 0.0, 1.7068833689577568E9, 0.0, 2024-02-02 15:16:08.957
124.0, 63561.231024412045, 65777.42883890019, -28169.076522478645, -15702.122831597666, 16486.959634656865, 5218.528833213906, 22750.343114178555, 4819.550194686674, 41842.04093719017, 47367.90625666455, 37519.39237348943, 50542.636280374085, 22817.197181844378, 27634.199277663145, -8972.526666227182, -3815.845109921111, -0.10468750000000002, 0.985125, 0.2900625, 192.0, 0.0, 0.0, 0.0, 0.0, 0.0, 0.0, 0.0, 0.0, 0.0, 1.7068833689669795E9, 0.0, 2024-02-02 15:16:08.966
126.0, 63559.5993470668, 65778.16644646722, -28172.42928414694, -15707.889581667136, 16482.98102414382, 5214.505519211951, 22744.665771086904, 4815.124549284524, 41853.90971349594, 47374.790593956786, 37514.206768775795, 50540.35640243965, 22812.90564690896, 27631.69588228415, -8977.645215707447, -3821.589508246125, -0.10468750000000002, 0.985125, 0.2900625, 192.0, 0.0, 0.0, 0.0, 0.0, 0.0, 0.0, 0.0, 0.0, 0.0, 1.7068833689750075E9, 0.0, 2024-02-02 15:16:08.975
128.0, 63570.05996347189, 65783.75438258104, -28166.439016632918, -15700.468802507974, 16488.479553279823, 5218.394722747174, 22746.3198001766, 4815.973915573825, 41869.80180380366, 47366.27457931931, 37518.6547659224, 50540.91519605103, 22818.337120811597, 27632.120565428802, -8973.06310809411, -3816.0462756212087, -0.10634375000000001, 0.9835625, 0.29003124999999996, 192.0, 126.0, 80.0, 15.0, 88.0, 4.5, 8.0, 0.0, 0.0, 0.0, 1.7068833689829774E9, 0.0, 2024-02-02 15:16:08.982
130.0, 63562.415666868175, 65770.49979811905, -28178.06192374968, -15712.896372425124, 16478.98006188632, 5206.0118563189335, 22737.490861116752, 4803.836918334594, 41881.7376353428, 47369.62734098761, 37518.72182115577, 50540.60227162865, 22819.23119058981, 27630.868867739307, -8975.499448239738, -3817.1191593550634, -0.10634375000000001, 0.9835625, 0.29003124999999996, 192.0, 0.0, 0.0, 0.0, 0.0, 0.0, 0.0, 0.0, 0.0, 0.0, 1.7068833689907544E9, 0.0, 2024-02-02 15:16:08.990
132.0, 63567.511864603985, 65776.02067899951, -28176.452598148895, -15708.1578026006, 16484.947977655887, 5216.606583190749, 22747.482090888276, 4812.6658573944405, 41885.224507477826, 47363.234742073386, 37516.5537019436, 50535.506073892844, 22814.358510298553, 27628.18665840467, -8978.20400931883, -3824.1152553695747, -0.10634375000000001, 0.9835625, 0.29003124999999996, 192.0, 0.0, 0.0, 0.0, 0.0, 0.0, 0.0, 0.0, 0.0, 0.0, 1.7068833689987333E9, 0.0, 2024-02-02 15:16:08.998
134.0, 63563.667364557674, 65774.47840863209, -28179.268917950263, -15710.080052623756, 16483.293948566192, 5220.495786725973, 22746.25274494323, 4810.833014349105, 41896.17686226092, 47368.397995042564, 37525.539103214636, 50547.21838798743, 22818.761803956248, 27640.23424866608, -8968.324538269584, -3816.0686273656643, -0.10634375000000001, 0.9835625, 0.29003124999999996, 192.0, 0.0, 0.0, 0.0, 0.0, 0.0, 0.0, 0.0, 0.0, 0.0, 1.706883369007096E9, 0.0, 2024-02-02 15:16:09.007
136.0, 63556.8500824988, 65769.71748706311, -28185.90738605349, -15717.813756205293, 16472.810980416656, 5208.425844720107, 22734.003988981724, 4793.689226351885, 41886.43150167841, 47363.592369984675, 37508.551777428605, 50532.86856804712, 22803.763783426737, 27621.503486812533, -8983.188448332363, -3828.1832728604404, -0.10634375000000001, 0.9835625, 0.29003124999999996, 192.0, 0.0, 0.0, 0.0, 0.0, 0.0, 0.0, 0.0, 0.0, 0.0, 1.7068833690137444E9, 0.0, 2024-02-02 15:16:09.013
138.0, 63558.1017801883, 65773.20435919813, -28182.733438340838, -15710.303570068309, 16475.381431029014, 5216.204251790554, 22737.513212861206, 4803.009903789747, 41893.606411648565, 47362.966521139926, 37517.559530444094, 50537.20480647145, 22808.18942882889, 27627.00201594854, -8970.805581904124, -3820.449569278904, -0.110171875, 0.9807812499999999, 0.289015625, 192.0, 126.0, 56.0, 15.0, 72.0, 4.5, 0.0, 0.0, 0.0, 0.0, 1.706883369022775E9, 0.0, 2024-02-02 15:16:09.022
140.0, 63561.81216976788, 65776.26654818852, -28182.10758949609, -15706.906104911102, 16477.393088029992, 5218.819405891825, 22741.55887860762, 4804.865098579538, 41895.416902949444, 47370.61081774364, 37513.6032716755, 50540.42345767301, 22803.89789389347, 27635.741548030564, -8971.565541215605, -3819.3543338005943, -0.110171875, 0.9807812499999999, 0.289015625, 192.0, 0.0, 0.0, 0.0, 0.0, 0.0, 0.0, 0.0, 0.0, 0.0, 1.7068833690309303E9, 0.0, 2024-02-02 15:16:09.030
142.0, 63570.26112917199, 65779.52990287899, -28179.112455739076, -15702.525162997863, 16483.98685264431, 5221.0322285929005, 22745.44808214284, 4808.731950370307, 41908.000935077784, 47375.125870123615, 37520.912292112385, 50548.00069904336, 22807.831800917604, 27639.295475398958, -8964.569445201094, -3814.951040142899, -0.110171875, 0.9807812499999999, 0.289015625, 192.0, 0.0, 0.0, 0.0, 0.0, 0.0, 0.0, 0.0, 0.0, 0.0, 1.706883369038793E9, 0.0, 2024-02-02 15:16:09.038
144.0, 63573.7032978181, 65779.9769377681, -28177.905461538492, -15698.077165851257, 16488.21133234636, 5215.019609334423, 22748.97965776678, 4809.424854448421, 41919.57913870563, 47374.18709685649, 37528.78010616066, 50549.833542088694, 22815.029062632213, 27637.552039331444, -8958.9144538539, -3811.7100371968795, -0.110171875, 0.9807812499999999, 0.289015625, 192.0, 0.0, 0.0, 0.0, 0.0, 0.0, 0.0, 0.0, 0.0, 0.0, 1.7068833690457945E9, 0.0, 2024-02-02 15:16:09.045
146.0, 63563.756771535496, 65773.15965570923, -28186.06384826468, -15709.141279356632, 16483.003375888275, 5210.571612187817, 22734.54043084865, 4800.595915388574, 41917.7462956603, 47375.46114629044, 37521.13580955694, 50545.027917030806, 22811.877466664013, 27630.980626461584, -8963.29539576714, -3818.8625954225777, -0.110171875, 0.9807812499999999, 0.289015625, 192.0, 0.0, 0.0, 0.0, 0.0, 0.0, 0.0, 0.0, 0.0, 0.0, 1.7068833690548084E9, 0.0, 2024-02-02 15:16:09.054
148.0, 63574.083277473845, 65782.0780017469, -28179.738304583825, -15702.458107764496, 16494.760393471766, 5222.887423382691, 22766.726942864294, 4815.61628766254, 41920.85318813958, 47361.93834089498, 37522.23104503525, 50541.76456234033, 22811.05045211917, 27631.785289261974, -8962.244863777742, -3822.103598368597, -0.1070859375, 0.978390625, 0.2875078125, 192.0, 126.0, 96.0, 15.0, 64.0, 4.0, 120.0, 0.0, 0.0, 0.0, 1.7068833690640264E9, 0.0, 2024-02-02 15:16:09.064
150.0, 63573.50213211801, 65780.15575172374, -28184.231005219342, -15704.246247320922, 16489.954768413874, 5223.22269954952, 22753.807634569126, 4811.235345749301, 41934.26423481277, 47371.52723926631, 37526.74609741522, 50550.03470778879, 22818.67239697843, 27645.352798146345, -8954.712325896302, -3813.7440459423124, -0.1070859375, 0.978390625, 0.2875078125, 192.0, 0.0, 0.0, 0.0, 0.0, 0.0, 0.0, 0.0, 0.0, 0.0, 1.706883369070875E9, 0.0, 2024-02-02 15:16:09.070
152.0, 63563.466198857575, 65769.6727835742, -28192.836426834638, -15714.170421859077, 16486.087916623106, 5219.825234392314, 22748.152643221933, 4803.546345656675, 41929.77153417725, 47361.781878683796, 37514.98907983173, 50538.098876249656, 22808.256484062254, 27633.618132307307, -8968.793924903146, -3827.579775760147, -0.1070859375, 0.978390625, 0.2875078125, 192.0, 0.0, 0.0, 0.0, 0.0, 0.0, 0.0, 0.0, 0.0, 0.0, 1.7068833690778472E9, 0.0, 2024-02-02 15:16:09.077
154.0, 63574.575015851864, 65780.73689707958, -28185.035668019733, -15705.475593265963, 16494.35806207157, 5223.55797571635, 22758.07681776009, 4811.52591842722, 41942.57908375014, 47360.68664320548, 37524.354460758506, 50542.926853052006, 22816.459574277353, 27638.982550976583, -8960.68024166587, -3823.265889080273, -0.1070859375, 0.978390625, 0.2875078125, 192.0, 0.0, 0.0, 0.0, 0.0, 0.0, 0.0, 0.0, 0.0, 0.0, 1.7068833690858624E9, 0.0, 2024-02-02 15:16:09.085
156.0, 63575.33497516334, 65782.65914710274, -28187.941394798923, -15703.218067075977, 16487.004338145773, 5220.7416559149815, 22750.03018975618, 4806.228554991312, 41947.719984974865, 47371.70605322195, 37522.6557281799, 50545.83257983119, 22810.938693396893, 27646.537440602475, -8966.782267902168, -3822.595336746614, -0.1070859375, 0.978390625, 0.2875078125, 192.0, 0.0, 0.0, 0.0, 0.0, 0.0, 0.0, 0.0, 0.0, 0.0, 1.706883369095179E9, 0.0, 2024-02-02 15:16:09.095
158.0, 63570.86462627228, 65775.23836794357, -28187.606118632095, -15704.223895576466, 16488.63601549101, 5218.707647169548, 22750.812500812113, 4807.5026044252645, 41946.87061868556, 47364.24057057388, 37524.622681691966, 50546.52548390931, 22811.162210841445, 27636.121527686304, -8960.34496549904, -3818.2590983222844, -0.10254296875, 0.9781953125, 0.28775390625, 192.0, 126.0, 120.0, 15.0, 72.0, 4.5, 0.0, 0.0, 0.0, 0.0, 1.7068833691028893E9, 0.0, 2024-02-02 15:16:09.102
160.0, 63565.544911091914, 65768.6222515848, -28190.221272733364, -15713.0081311474, 16483.517466010748, 5215.623106434716, 22744.26343968671, 4805.356836957555, 41947.988205908325, 47359.99373912737, 37522.722783413265, 50539.75290533935, 22807.250655561766, 27631.18179216168, -8959.942634098845, -3814.9957436318095, -0.10254296875, 0.9781953125, 0.28775390625, 192.0, 0.0, 0.0, 0.0, 0.0, 0.0, 0.0, 0.0, 0.0, 0.0, 1.706883369109918E9, 0.0, 2024-02-02 15:16:09.109
162.0, 63566.3048704034, 65767.19173993966, -28192.14352275652, -15715.198602104021, 16480.678794464922, 5218.84175763628, 22737.110881461012, 4800.5735636441195, 41945.70832797389, 47356.57392222571, 37515.36905948747, 50533.069733747216, 22800.634539202994, 27622.71048101312, -8967.877503380478, -3822.394171046516, -0.10254296875, 0.9781953125, 0.28775390625, 192.0, 0.0, 0.0, 0.0, 0.0, 0.0, 0.0, 0.0, 0.0, 0.0, 1.706883369118904E9, 0.0, 2024-02-02 15:16:09.118
164.0, 63575.24556818552, 65775.32777492139, -28182.599327874104, -15707.666064222583, 16490.26769283625, 5219.355847758752, 22754.74640783625, 4806.42972069141, 41953.68790074443, 47357.311529792736, 37523.84037063603, 50544.044440274774, 22808.27883580671, 27629.125431671793, -8957.998032331232, -3817.432083777438, -0.10254296875, 0.9781953125, 0.28775390625, 192.0, 0.0, 0.0, 0.0, 0.0, 0.0, 0.0, 0.0, 0.0, 0.0, 1.7068833691270952E9, 0.0, 2024-02-02 15:16:09.127
166.0, 63567.13188494824, 65768.33167890688, -28185.05801976419, -15711.979950902458, 16488.144277112995, 5213.343228500275, 22747.906774032926, 4799.5230316547195, 41955.610150767585, 47369.537934009786, 37523.23687353574, 50548.35832695464, 22811.005748630258, 27637.149707931247, -8958.780343387169, -3821.813025690678, -0.10254296875, 0.9781953125, 0.28775390625, 192.0, 0.0, 0.0, 0.0, 0.0, 0.0, 0.0, 0.0, 0.0, 0.0, 1.7068833691341767E9, 0.0, 2024-02-02 15:16:09.134
168.0, 63574.44090538513, 65773.13730396477, -28181.48174065134, -15711.756433457904, 16494.73804172731, 5217.500652968962, 22749.627858355983, 4805.423892190921, 41954.09023214463, 47354.45050650246, 37523.080411324554, 50542.97155654091, 22811.542190497184, 27626.063242681415, -8957.796866631135, -3825.3893048035275, -0.102271484375, 0.98109765625, 0.289876953125, 192.0, 126.0, 104.0, 15.0, 96.0, 4.5, 16.0, 0.0, 0.0, 0.0, 1.706883369141945E9, 0.0, 2024-02-02 15:16:09.141
170.0, 63569.612928582785, 65770.2762806745, -28192.881130323545, -15722.887602196646, 16483.36100379956, 5205.900097596657, 22731.902925002923, 4793.286894951689, 41956.57127577916, 47359.83727691618, 37523.438039235836, 50542.90450130755, 22810.871638163524, 27625.817373492406, -8959.562654443103, -3826.551595515203, -0.102271484375, 0.98109765625, 0.289876953125, 192.0, 0.0, 0.0, 0.0, 0.0, 0.0, 0.0, 0.0, 0.0, 0.0, 1.706883369150953E9, 0.0, 2024-02-02 15:16:09.150
172.0, 63567.377754137255, 65767.86229227332, -28196.233891991844, -15724.005189419413, 16486.087916623106, 5212.292696510875, 22734.249858170733, 4794.4715374078205, 41948.81522045317, 47353.176457068505, 37516.576053688055, 50535.41666691502, 22806.825972417115, 27625.012710692015, -8966.156419057419, -3831.6254415065578, -0.102271484375, 0.98109765625, 0.289876953125, 192.0, 0.0, 0.0, 0.0, 0.0, 0.0, 0.0, 0.0, 0.0, 0.0, 1.7068833691589513E9, 0.0, 2024-02-02 15:16:09.158
174.0, 63571.691640817124, 65771.19270219716, -28190.78006634475, -15717.947866672024, 16496.526181283734, 5219.132330314199, 22754.724056091793, 4806.09444452458, 41947.13883961902, 47347.76733491031, 37518.07362056657, 50535.08139074819, 22805.373109027518, 27623.64925428024, -8960.277910265673, -3828.943232171921, -0.102271484375, 0.98109765625, 0.289876953125, 192.0, 0.0, 0.0, 0.0, 0.0, 0.0, 0.0, 0.0, 0.0, 0.0, 1.706883369166282E9, 0.0, 2024-02-02 15:16:09.166
176.0, 63560.4040098672, 65760.24034741406, -28199.050211793212, -15725.25688710891, 16492.100535881586, 5214.12553955621, 22749.11376823351, 4801.177060744412, 41946.98237740784, 47361.08897460568, 37520.33114675655, 50541.92102455152, 22807.384766028496, 27632.09821368435, -8955.852264863523, -3821.2542320792954, -0.102271484375, 0.98109765625, 0.289876953125, 192.0, 0.0, 0.0, 0.0, 0.0, 0.0, 0.0, 0.0, 0.0, 0.0, 1.7068833691739967E9, 0.0, 2024-02-02 15:16:09.173
178.0, 63568.58474833784, 65768.10816146233, -28189.997755288812, -15715.891506182135, 16499.70012899639, 5225.435522250596, 22753.785282824672, 4809.067226537136, 41930.06210685517, 47343.74402090836, 37514.74321064272, 50532.46623664692, 22800.254559547255, 27625.929132214682, -8958.132142797964, -3823.8023309472005, -0.102271484375, 0.98109765625, 0.289876953125, 192.0, 0.0, 0.0, 0.0, 0.0, 0.0, 0.0, 0.0, 0.0, 0.0, 1.706883369183241E9, 0.0, 2024-02-02 15:16:09.183
180.0, 63559.8005127669, 65762.29670790395, -28194.937490813434, -15721.434738807053, 16489.50773352477, 5214.572574445317, 22741.871803029993, 4798.539554898686, 41935.337118546624, 47359.16672458252, 37525.673213681366, 50544.82675133071, 22809.709347451848, 27635.920361986206, -8950.443142705339, -3816.1580343434853, -0.108, 0.972, 0.28800000000000003, 192.0, 126.0, 80.0, 15.0, 48.0, 4.5, 0.0, 0.0, 0.0, 0.0, 1.7068833691899776E9, 0.0, 2024-02-02 15:16:09.189
182.0, 63562.32625989035, 65764.73304804957, -28190.802418089203, -15718.752529472415, 16492.21229460386, 5218.752350658459, 22743.39172165295, 4801.132357255502, 41917.925109615935, 47349.466067488924, 37515.79374263212, 50531.66157384653, 22794.84543738907, 27620.81058273442, -8964.882369623467, -3830.0384676502313, -0.108, 0.972, 0.28800000000000003, 192.0, 0.0, 0.0, 0.0, 0.0, 0.0, 0.0, 0.0, 0.0, 0.0, 1.7068833691980488E9, 0.0, 2024-02-02 15:16:09.198
184.0, 63563.24268141302, 65764.55423409394, -28190.444790177917, -15721.032407406856, 16495.945035927896, 5218.819405891825, 22747.213869954812, 4803.211069489846, 41927.782228920725, 47349.242550044364, 37530.92587362837, 50542.59157688518, 22809.955216640858, 27629.907742727726, -8953.170055528886, -3820.1589966009856, -0.108, 0.972, 0.28800000000000003, 192.0, 0.0, 0.0, 0.0, 0.0, 0.0, 0.0, 0.0, 0.0, 0.0, 1.7068833692071528E9, 0.0, 2024-02-02 15:16:09.207
186.0, 63556.49245458752, 65756.03821945646, -28198.714935626384, -15729.660180766605, 16488.16662885745, 5206.190670274576, 22735.814480282603, 4795.56677288613, 41917.299260771186, 47343.02876508579, 37514.832617620545, 50530.32046917921, 22801.41685025893, 27626.93496071517, -8967.922206869389, -3834.5311682857478, -0.108, 0.972, 0.28800000000000003, 192.0, 0.0, 0.0, 0.0, 0.0, 0.0, 0.0, 0.0, 0.0, 0.0, 1.7068833692142625E9, 0.0, 2024-02-02 15:16:09.214
188.0, 63569.747039049515, 65767.66112657322, -28185.527406397752, -15713.097538125223, 16500.638902263512, 5219.646420436671, 22748.10793973302, 4809.961296315348, 41921.45668523988, 47336.21148302692, 37521.31462351258, 50535.39431517057, 22805.686033449892, 27626.13029791478, -8962.513084711205, -3829.6361362500356, -0.108, 0.972, 0.28800000000000003, 192.0, 0.0, 0.0, 0.0, 0.0, 0.0, 0.0, 0.0, 0.0, 0.0, 1.706883369222064E9, 0.0, 2024-02-02 15:16:09.222
190.0, 63566.461332614585, 65764.24130967156, -28190.668307622473, -15718.327846327764, 16492.234646348315, 5212.851490122258, 22736.306218660622, 4802.026427033714, 41930.91147314447, 47349.667233189015, 37527.46135323779, 50541.98807978488, 22811.206914330356, 27627.76197526002, -8959.495599209738, -3823.981144902843, -0.112, 0.976, 0.28200000000000003, 192.0, 126.0, 64.0, 15.0, 64.0, 4.0, 104.0, 0.0, 0.0, 0.0, 1.7068833692300763E9, 0.0, 2024-02-02 15:16:09.230
192.0, 63568.65180357121, 65768.84576902936, -28186.57793838715, -15716.360892815697, 16494.380413816027, 5214.483167467495, 22735.83683202706, 4802.942848556381, 41926.3964207645, 47346.94032036547, 37523.28157702465, 50538.14357973857, 22806.17777182791, 27623.60455079133, -8964.703555667826, -3832.653621751502, -0.112, 0.976, 0.28200000000000003, 192.0, 0.0, 0.0, 0.0, 0.0, 0.0, 0.0, 0.0, 0.0, 0.0, 1.7068833692393236E9, 0.0, 2024-02-02 15:16:09.239
194.0, 63565.81313202538, 65766.09650446135, -28187.49435990982, -15717.411424805097, 16496.570884772646, 5210.2363360209865, 22736.4179773829, 4801.489985166787, 41935.53828424672, 47344.928663364495, 37531.64112945094, 50548.179512999006, 22815.498449265775, 27633.260504396025, -8956.478113708272, -3828.8538251941, -0.112, 0.976, 0.28200000000000003, 192.0, 0.0, 0.0, 0.0, 0.0, 0.0, 0.0, 0.0, 0.0, 0.0, 1.7068833692461145E9, 0.0, 2024-02-02 15:16:09.246
196.0, 63556.045419698414, 65758.85453925784, -28199.76546761578, -15729.883698211159, 16485.17149510044, 5203.150833028654, 22725.756195277714, 4792.459880406843, 41926.530531231234, 47344.012241841825, 37521.09110606803, 50541.13871349558, 22805.216646816334, 27622.576370546387, -8968.615110947503, -3840.0967526551194, -0.112, 0.976, 0.28200000000000003, 192.0, 0.0, 0.0, 0.0, 0.0, 0.0, 0.0, 0.0, 0.0, 0.0, 1.706883369254145E9, 0.0, 2024-02-02 15:16:09.254
198.0, 63574.843236785324, 65777.04885924446, -28187.62847037655, -15713.835145692248, 16494.492172538303, 5221.41220824864, 22735.21098318231, 4806.51912766923, 41921.367278262056, 47334.24452951486, 37521.67225142387, 50541.20576872895, 22801.953292125858, 27622.03992867946, -8968.503352225227, -3843.717735256879, -0.112, 0.976, 0.28200000000000003, 192.0, 0.0, 0.0, 0.0, 0.0, 0.0, 0.0, 0.0, 0.0, 0.0, 1.7068833692621517E9, 0.0, 2024-02-02 15:16:09.262
200.0, 63567.176588437156, 65772.31028941993, -28195.228063491355, -15718.149032372123, 16491.29587308119, 5215.220775034521, 22737.87084077249, 4802.987552045292, 41932.2972813007, 47355.836314658685, 37531.99875736222, 50555.24266424688, 22811.85511491956, 27640.793042277463, -8958.48977070925, -3828.6750112384575, -0.11, 0.98, 0.28800000000000003, 192.0, 126.0, 72.0, 15.0, 80.0, 4.5, 0.0, 0.0, 0.0, 0.0, 1.706883369270357E9, 0.0, 2024-02-02 15:16:09.270
202.0, 63554.43609409763, 65758.9215944912, -28207.141543286034, -15729.63782902215, 16482.601044488078, 5203.821385362314, 22731.567648836095, 4793.733929840795, 41912.42658047993, 47339.20661678394, 37510.54108268512, 50534.52259713681, 22795.136010066988, 27619.17890538918, -8970.313843526106, -3843.918900956977, -0.11, 0.98, 0.28800000000000003, 192.0, 0.0, 0.0, 0.0, 0.0, 0.0, 0.0, 0.0, 0.0, 0.0, 1.706883369278133E9, 0.0, 2024-02-02 15:16:09.278
204.0, 63570.797571038915, 65776.35595516633, -28189.72953435535, -15706.883753166647, 16495.542704527703, 5223.513272227439, 22740.97773325178, 4812.040008549691, 41916.20402529288, 47338.80428538374, 37519.437076978335, 50540.91519605103, 22797.2817775347, 27631.04768169495, -8961.14962829943, -3833.5923950186248, -0.11, 0.98, 0.28800000000000003, 192.0, 0.0, 0.0, 0.0, 0.0, 0.0, 0.0, 0.0, 0.0, 0.0, 1.7068833692861445E9, 0.0, 2024-02-02 15:16:09.286
206.0, 63566.5060361035, 65772.98084175358, -28188.52254015476, -15702.502811253407, 16494.559227771668, 5224.407342005652, 22745.0681024871, 4812.95643007236, 41923.11071432957, 47358.78674492678, 37526.723745670766, 50550.92877756701, 22805.03783286069, 27645.24103942407, -8958.512122453705, -3823.5788135026473, -0.11, 0.98, 0.28800000000000003, 192.0, 0.0, 0.0, 0.0, 0.0, 0.0, 0.0, 0.0, 0.0, 0.0, 1.7068833692954285E9, 0.0, 2024-02-02 15:16:09.295
208.0, 63584.499190390015, 65788.49295240558, -28172.876319036048, -15690.231703547444, 16507.478536066836, 5234.957365388556, 22753.472358402298, 4822.14299704349, 41923.937728874414, 47348.840218644174, 37537.49728649823, 50555.86851309163, 22809.686995707394, 27643.698769056653, -8951.091343294544, -3816.3592000435833, -0.11, 0.98, 0.28800000000000003, 192.0, 0.0, 0.0, 0.0, 0.0, 0.0, 0.0, 0.0, 0.0, 0.0, 1.7068833693025012E9, 0.0, 2024-02-02 15:16:09.302
210.0, 63576.63137634175, 65780.64749010176, -28183.739266841327, -15704.559171743294, 16495.565056272157, 5220.60754544825, 22735.255686671222, 4807.457900936353, 41933.72779294584, 47362.832410673196, 37550.10367037102, 50567.312606252744, 22821.42166154643, 27649.063187725926, -8943.335287968552, -3808.625496462047, -0.112, 0.984, 0.28600000000000003, 192.0, 126.0, 64.0, 15.0, 96.0, 4.0, 120.0, 0.0, 0.0, 0.0, 1.7068833693101635E9, 0.0, 2024-02-02 15:16:09.310
212.0, 63576.07258273037, 65779.95458602364, -28188.34372619912, -15702.234590319944, 16497.532009784223, 5221.926298371112, 22743.726997819784, 4810.85536609356, 41919.31091777216, 47353.35527102414, 37537.51963824268, 50554.885036335596, 22810.156382340956, 27639.22842016559, -8954.511160196205, -3818.817891933667, -0.112, 0.984, 0.28600000000000003, 192.0, 0.0, 0.0, 0.0, 0.0, 0.0, 0.0, 0.0, 0.0, 0.0, 1.7068833693181922E9, 0.0, 2024-02-02 15:16:09.318
214.0, 63572.742172806524, 65780.53573137948, -28193.842255335127, -15709.431852034551, 16497.487306295312, 5222.641554193682, 22744.375198408987, 4811.7270841273175, 41914.70645841437, 47347.49911397685, 37534.0104143632, 50554.77327761332, 22809.821106174124, 27637.775556775996, -8954.86878810749, -3819.04140937822, -0.112, 0.984, 0.28600000000000003, 192.0, 0.0, 0.0, 0.0, 0.0, 0.0, 0.0, 0.0, 0.0, 0.0, 1.7068833693264587E9, 0.0, 2024-02-02 15:16:09.326
216.0, 63562.1027424458, 65770.87977777478, -28202.04534555022, -15725.145128386634, 16495.430945805427, 5213.477338967006, 22742.184727452368, 4805.110967768546, 41906.68218215492, 47353.46702974642, 37523.16981830238, 50546.74900135386, 22811.162210841445, 27634.33338812988, -8957.640404419948, -3824.8305111921445, -0.112, 0.984, 0.28600000000000003, 192.0, 0.0, 0.0, 0.0, 0.0, 0.0, 0.0, 0.0, 0.0, 0.0, 1.7068833693344882E9, 0.0, 2024-02-02 15:16:09.334
218.0, 63560.11343718928, 65764.91186200522, -28204.034650806745, -15730.73306450046, 16493.35223357108, 5213.007952333445, 22736.2168116828, 4799.880659566004, 41894.45577793787, 47329.86358760161, 37514.94437634282, 50532.39918141356, 22807.831800917604, 27623.13516415777, -8963.474209722783, -3834.978203174854, -0.112, 0.984, 0.28600000000000003, 192.0, 0.0, 0.0, 0.0, 0.0, 0.0, 0.0, 0.0, 0.0, 0.0, 1.7068833693423116E9, 0.0, 2024-02-02 15:16:09.342
220.0, 63553.184396408134, 65756.32879213439, -28207.990909575336, -15736.119834914189, 16490.44650679189, 5203.329646984297, 22735.76977679369, 4793.309246696144, 41896.55684191667, 47338.8713406171, 37516.91132985489, 50536.13192273759, 22812.302149808664, 27629.058376438425, -8964.278872523175, -3832.9888979183315, -0.11800000000000001, 0.976, 0.28800000000000003, 192.0, 126.0, 40.0, 15.0, 64.0, 4.5, 0.0, 0.0, 0.0, 0.0, 1.7068833693512456E9, 0.0, 2024-02-02 15:16:09.351
222.0, 63555.03959119792, 65759.39098112476, -28211.880113110557, -15739.53965181585, 16486.669061978944, 5202.636742906183, 22727.991369723248, 4787.408386159943, 41886.00681853376, 47330.04240155726, 37510.988117574234, 50529.71697207892, 22801.0815740921, 27620.408251334222, -8974.046584850143, -3844.500046312815, -0.11800000000000001, 0.976, 0.28800000000000003, 192.0, 0.0, 0.0, 0.0, 0.0, 0.0, 0.0, 0.0, 0.0, 0.0, 1.7068833693575947E9, 0.0, 2024-02-02 15:16:09.357
224.0, 63556.69362028762, 65759.83801601386, -28216.551627701716, -15739.629058793673, 16480.142352597995, 5202.256763250442, 22716.390814350943, 4784.189734958379, 41883.324609199124, 47327.31548873371, 37514.31852749807, 50532.91327153603, 22805.216646816334, 27618.03896642196, -8976.035890106665, -3844.880025968555, -0.11800000000000001, 0.976, 0.28800000000000003, 192.0, 0.0, 0.0, 0.0, 0.0, 0.0, 0.0, 0.0, 0.0, 0.0, 1.7068833693662813E9, 0.0, 2024-02-02 15:16:09.366
226.0, 63558.45940809959, 65761.6708590592, -28216.350462001617, -15738.891451226647, 16481.416402031948, 5203.88844059568, 22716.234352139756, 4787.877772793505, 41886.52090865623, 47343.386392997076, 37516.7548676437, 50541.40693442905, 22804.881370649502, 27622.17403914619, -8975.790020917657, -3838.9344619434432, -0.11800000000000001, 0.976, 0.28800000000000003, 192.0, 0.0, 0.0, 0.0, 0.0, 0.0, 0.0, 0.0, 0.0, 0.0, 1.706883369374303E9, 0.0, 2024-02-02 15:16:09.374
228.0, 63561.72276279006, 65767.10233296185, -28213.467086966884, -15736.700980270027, 16488.725422468833, 5209.543431942872, 22739.435462884365, 4798.964238043337, 41874.49567013927, 47325.68381138847, 37512.19511177482, 50530.275765690305, 22798.399364757464, 27604.471457537587, -8978.561637230116, -3844.231825379351, -0.11800000000000001, 0.976, 0.28800000000000003, 192.0, 0.0, 0.0, 0.0, 0.0, 0.0, 0.0, 0.0, 0.0, 0.0, 1.7068833693825457E9, 0.0, 2024-02-02 15:16:09.382
230.0, 63556.02306795396, 65764.12955094929, -28219.14443005853, -15741.461901839008, 16478.756544441767, 5197.719359126015, 22725.197401666333, 4787.7213105823175, 41874.49567013927, 47332.63520391408, 37515.34670774302, 50538.4788559054, 22798.801696157658, 27623.313978113412, -8976.39351801795, -3840.320270099672, -0.12, 0.976, 0.28600000000000003, 192.0, 126.0, 32.0, 15.0, 64.0, 4.0, 120.0, 0.0, 0.0, 0.0, 1.7068833693905356E9, 0.0, 2024-02-02 15:16:09.390
232.0, 63553.0502859414, 65758.40750436873, -28217.266883524288, -15743.182986162066, 16482.73515495481, 5199.462795193529, 22729.846564513038, 4792.3034181956555, 41863.56566710063, 47327.76252362282, 37510.51873094067, 50531.728629079895, 22795.873617634013, 27620.341196100857, -8978.15930582992, -3843.4495143234153, -0.12, 0.976, 0.28600000000000003, 192.0, 0.0, 0.0, 0.0, 0.0, 0.0, 0.0, 0.0, 0.0, 0.0, 1.706883369398298E9, 0.0, 2024-02-02 15:16:09.398
234.0, 63552.44678884111, 65758.94394623565, -28213.377679989062, -15740.076093682777, 16483.07043112164, 5203.463757451029, 22732.12644244748, 4795.723235097317, 41859.60940833204, 47323.35922996512, 37512.77625713066, 50531.14748372406, 22797.728812423804, 27619.73769900056, -8974.292454039152, -3840.007345677298, -0.12, 0.976, 0.28600000000000003, 192.0, 0.0, 0.0, 0.0, 0.0, 0.0, 0.0, 0.0, 0.0, 0.0, 1.7068833694063425E9, 0.0, 2024-02-02 15:16:09.406
236.0, 63558.12413193275, 65765.0236207275, -28209.332014242653, -15733.884660468659, 16483.606872988566, 5209.36461798723, 22729.086605201555, 4798.852479321061, 41852.702719295354, 47335.78679988227, 37513.96089958679, 50539.06000126124, 22794.398402499963, 27622.956350202126, -8975.141820328454, -3837.2804328537504, -0.12, 0.976, 0.28600000000000003, 192.0, 0.0, 0.0, 0.0, 0.0, 0.0, 0.0, 0.0, 0.0, 0.0, 1.7068833694133348E9, 0.0, 2024-02-02 15:16:09.413
238.0, 63563.68971630213, 65770.0751149744, -28204.34757522912, -15728.676704010571, 16490.714727725357, 5221.076932081811, 22733.333436648063, 4807.323790469622, 41854.78143152969, 47334.33393649268, 37525.09206832553, 50546.16785599803, 22798.46641999083, 27632.14291717326, -8966.938730113356, -3827.8256449491555, -0.12, 0.976, 0.28600000000000003, 192.0, 0.0, 0.0, 0.0, 0.0, 0.0, 0.0, 0.0, 0.0, 0.0, 1.7068833694223874E9, 0.0, 2024-02-02 15:16:09.422
240.0, 63556.470102843065, 65763.34723989335, -28212.461258466396, -15738.533823315362, 16481.483457265313, 5208.403492975652, 22730.517116846695, 4800.104177010558, 41854.446155362864, 47338.96074759492, 37522.40985899089, 50543.57505364121, 22799.98633861379, 27629.86303923882, -8970.53736097066, -3831.200758361907, -0.122, 0.976, 0.28600000000000003, 192.0, 126.0, 24.0, 15.0, 64.0, 4.0, 120.0, 0.0, 0.0, 0.0, 1.7068833694303312E9, 0.0, 2024-02-02 15:16:09.430
242.0, 63558.16883542167, 65762.43081837069, -28208.929682842456, -15732.610611034706, 16485.149143355982, 5210.2363360209865, 22734.808651782114, 4800.908839810949, 41846.15365816995, 47336.99379408286, 37519.7052979118, 50538.0765245052, 22795.35952751154, 27629.326597371888, -8972.34785227154, -3834.2182438633736, -0.122, 0.976, 0.28600000000000003, 192.0, 0.0, 0.0, 0.0, 0.0, 0.0, 0.0, 0.0, 0.0, 0.0, 1.7068833694383767E9, 0.0, 2024-02-02 15:16:09.438
244.0, 63559.97932672255, 65768.44343762916, -28207.38741247504, -15729.615477277695, 16488.971291657843, 5213.276173266909, 22732.59582908104, 4803.501642167765, 41846.04189944767, 47335.00448882634, 37522.946300857824, 50541.384582684586, 22801.640367703483, 27634.13222242978, -8966.961081857811, -3830.3737438170606, -0.122, 0.976, 0.28600000000000003, 192.0, 0.0, 0.0, 0.0, 0.0, 0.0, 0.0, 0.0, 0.0, 0.0, 1.7068833694463532E9, 0.0, 2024-02-02 15:16:09.446
246.0, 63556.2018819096, 65767.43760912867, -28214.58467418965, -15733.079997668267, 16484.83621893361, 5205.430710963096, 22728.617218567993, 4797.913706053938, 41842.376213357, 47347.4767622324, 37514.58674843154, 50540.5799198842, 22798.421716501918, 27627.18082990418, -8971.34202377105, -3836.296956097717, -0.122, 0.976, 0.28600000000000003, 192.0, 0.0, 0.0, 0.0, 0.0, 0.0, 0.0, 0.0, 0.0, 0.0, 1.7068833694547095E9, 0.0, 2024-02-02 15:16:09.454
248.0, 63563.756771535496, 65775.68540283268, -28207.141543286034, -15722.641733007638, 16493.195771359893, 5217.232432035498, 22738.429634383876, 4810.09540678208, 41839.76105925573, 47342.671137174504, 37517.76069614419, 50546.72664960941, 22796.119486823023, 27629.61717004981, -8971.453782493327, -3833.748857229812, -0.122, 0.976, 0.28600000000000003, 192.0, 0.0, 0.0, 0.0, 0.0, 0.0, 0.0, 0.0, 0.0, 0.0, 1.7068833694613726E9, 0.0, 2024-02-02 15:16:09.461
250.0, 63569.85879777179, 65780.31221393493, -28196.52446466976, -15714.796270703826, 16497.487306295312, 5224.832025150303, 22747.280925188177, 4816.867985352038, 41846.824210503604, 47353.33291927969, 37528.06485033809, 50557.09785903667, 22808.301187551166, 27641.12831844429, -8961.797828888635, -3819.8013686897007, -0.114, 0.98, 0.28600000000000003, 192.0, 126.0, 56.0, 15.0, 80.0, 4.0, 120.0, 0.0, 0.0, 0.0, 1.706883369469427E9, 0.0, 2024-02-02 15:16:09.469
252.0, 63570.797571038915, 65779.55225462344, -28198.893749582025, -15717.031445149356, 16492.614626004055, 5218.46177798054, 22734.45102387083, 4809.894241081982, 41845.90778898094, 47358.38441352659, 37535.19505681933, 50560.182399771504, 22809.84345791858, 27643.631713823288, -8960.389668987951, -3822.5506332577033, -0.114, 0.98, 0.28600000000000003, 192.0, 0.0, 0.0, 0.0, 0.0, 0.0, 0.0, 0.0, 0.0, 0.0, 1.706883369478516E9, 0.0, 2024-02-02 15:16:09.478
254.0, 63571.423419883664, 65780.37926916829, -28196.591519903126, -15715.422119548575, 16497.420251061947, 5220.048751836866, 22745.001047253736, 4815.6609911514515, 41840.72218426731, 47349.86839888911, 37539.24072256574, 50561.434097461, 22807.384766028496, 27646.738606302573, -8958.176846286875, -3820.2260518343514, -0.114, 0.98, 0.28600000000000003, 192.0, 0.0, 0.0, 0.0, 0.0, 0.0, 0.0, 0.0, 0.0, 0.0, 1.7068833694866047E9, 0.0, 2024-02-02 15:16:09.486
0.0, 63567.57891983735, 65779.50755113453, -28197.664403636983, -15715.422119548575, 16497.666120250957, 5218.014743091434, 22744.106977475523, 4815.951563829371, 41835.2236551313, 47353.735250679885, 37533.47397249627, 50557.6343009036, 22810.46930676333, 27640.18954517717, -8958.9144538539, -3821.343639057117, -0.114, 0.98, 0.28600000000000003, 192.0, 0.0, 0.0, 0.0, 0.0, 0.0, 0.0, 0.0, 0.0, 0.0, 1.7068833694934251E9, 0.0, 2024-02-02 15:16:09.493
2.0, 63572.92098676217, 65783.32969943639, -28195.183360002444, -15711.57761950226, 16500.013053418763, 5226.016667606434, 22742.877631530482, 4817.985572574803, 41833.480219063786, 47351.67889018999, 37536.938492886846, 50560.85295210516, 22813.84442017608, 27642.80469927844, -8954.444104962839, -3818.236746577829, -0.114, 0.98, 0.28600000000000003, 192.0, 0.0, 0.0, 0.0, 0.0, 0.0, 0.0, 0.0, 0.0, 0.0, 1.7068833695014791E9, 0.0, 2024-02-02 15:16:09.501
4.0, 63567.087181459334, 65777.36178366683, -28201.44184844993, -15721.032407406856, 16494.26865509375, 5214.483167467495, 22744.68812283136, 4811.52591842722, 41831.96030044083, 47354.83048615819, 37534.77037367468, 50560.33886198269, 22812.369205042032, 27639.809565521427, -8956.791038130646, -3819.331982056139, -0.108, 0.978, 0.28200000000000003, 192.0, 126.0, 80.0, 15.0, 72.0, 4.0, 104.0, 0.0, 0.0, 0.0, 1.7068833695104785E9, 0.0, 2024-02-02 15:16:09.510
6.0, 63568.60710008229, 65779.50755113453, -28201.330089727653, -15724.362817330697, 16500.16951562995, 5216.159548301644, 22752.69004734636, 4814.521052184231, 41820.672669490894, 47347.297948276755, 37527.215484048786, 50551.442867689475, 22803.1826380709, 27631.450013095146, -8964.390631245451, -3825.9928019038207, -0.108, 0.978, 0.28200000000000003, 192.0, 0.0, 0.0, 0.0, 0.0, 0.0, 0.0, 0.0, 0.0, 0.0, 1.706883369517972E9, 0.0, 2024-02-02 15:16:09.517
8.0, 63576.6537280862, 65786.01190877103, -28194.468104179872, -15719.1101573837, 16505.466879065858, 5222.261574537942, 22747.951477521834, 4817.00209581877, 41829.99334692876, 47350.60600645614, 37539.84421966603, 50562.61873991713, 22819.320597567632, 27635.160402674726, -8952.186578772853, -3819.4437407784158, -0.108, 0.978, 0.28200000000000003, 192.0, 0.0, 0.0, 0.0, 0.0, 0.0, 0.0, 0.0, 0.0, 0.0, 1.7068833695254796E9, 0.0, 2024-02-02 15:16:09.525
10.0, 63565.12022794726, 65773.98667025407, -28206.649804908015, -15732.945887201535, 16492.256998092773, 5208.537603442383, 22731.858221514016, 4802.540517156186, 41824.45011430384, 47357.55739898174, 37534.09982134102, 50558.237798003895, 22818.247713833778, 27635.115699185815, -8959.517950954194, -3825.94809841491, -0.108, 0.978, 0.28200000000000003, 192.0, 0.0, 0.0, 0.0, 0.0, 0.0, 0.0, 0.0, 0.0, 0.0, 1.7068833695345097E9, 0.0, 2024-02-02 15:16:09.534
12.0, 63565.991945981026, 65774.94779526566, -28204.9063688405, -15731.582430789762, 16495.22978010533, 5211.286868010387, 22739.614276840006, 4808.083749781103, 41814.90591942143, 47339.02780282829, 37528.958920116296, 50550.2805769778, 22812.011577130746, 27622.24109437956, -8962.870712622489, -3833.2794705962506, -0.108, 0.978, 0.28200000000000003, 192.0, 0.0, 0.0, 0.0, 0.0, 0.0, 0.0, 0.0, 0.0, 0.0, 1.7068833695426202E9, 0.0, 2024-02-02 15:16:09.542
14.0, 63570.462294872086, 65782.56974012492, -28197.709107125895, -15723.535802785851, 16500.41538481896, 5219.087626825289, 22745.582192609574, 4815.392770217988, 41816.336431066564, 47350.20367505594, 37532.22227480677, 50557.34372822568, 22816.2360568328, 27635.89801024175, -8956.813389875102, -3826.551595515203, -0.111, 0.978, 0.281, 192.0, 126.0, 56.0, 15.0, 72.0, 4.0, 96.0, 0.0, 0.0, 0.0, 1.7068833695496733E9, 0.0, 2024-02-02 15:16:09.549
16.0, 63568.428286126655, 65778.81464705642, -28199.921929826967, -15725.63686676465, 16500.54949528569, 5214.706684912048, 22740.59775359604, 4811.414159704943, 41814.28007057668, 47359.01026237134, 37534.56920797458, 50558.70718463745, 22814.80554518766, 27635.741548030564, -8954.757029385213, -3824.6069937475913, -0.111, 0.978, 0.281, 192.0, 0.0, 0.0, 0.0, 0.0, 0.0, 0.0, 0.0, 0.0, 0.0, 1.7068833695575778E9, 0.0, 2024-02-02 15:16:09.557
18.0, 63567.71303030408, 65775.84186504387, -28202.358269972596, -15730.73306450046, 16497.97904467333, 5208.247030764464, 22744.956343764825, 4808.128453270013, 41811.79902694214, 47344.36986975311, 37537.45258300931, 50555.91321658054, 22816.034891132702, 27631.315902628412, -8955.338174741051, -3824.942269914421, -0.111, 0.978, 0.281, 192.0, 0.0, 0.0, 0.0, 0.0, 0.0, 0.0, 0.0, 0.0, 0.0, 1.7068833695665617E9, 0.0, 2024-02-02 15:16:09.566
20.0, 63564.784951780435, 65771.25975743053, -28204.52638918476, -15734.242288379943, 16495.40859406097, 5210.906888354646, 22737.513212861206, 4806.876755580515, 41803.23830881576, 47348.1249628216, 37529.24949279422, 50550.81701884473, 22813.911475409448, 27626.33146361488, -8966.469343479794, -3834.844092708122, -0.111, 0.978, 0.281, 192.0, 0.0, 0.0, 0.0, 0.0, 0.0, 0.0, 0.0, 0.0, 0.0, 1.7068833695737903E9, 0.0, 2024-02-02 15:16:09.573
22.0, 63565.075524458356, 65771.19270219716, -28202.62649090606, -15729.30255285532, 16498.78370747372, 5216.450120979563, 22738.295523917142, 4813.626982406018, 41802.38894252646, 47343.98989009737, 37534.77037367468, 50552.426344445514, 22816.906609166457, 27636.680321297685, -8958.221549775786, -3824.003496647298, -0.111, 0.978, 0.281, 192.0, 0.0, 0.0, 0.0, 0.0, 0.0, 0.0, 0.0, 0.0, 0.0, 1.7068833695816076E9, 0.0, 2024-02-02 15:16:09.581
24.0, 63561.52159708996, 65771.527978364, -28203.788781617735, -15731.761244745405, 16498.537838284712, 5220.808711148347, 22740.97773325178, 4814.699866139873, 41796.08575059006, 47344.66044243103, 37526.45552473731, 50548.06775427673, 22814.38086204301, 27628.924265971695, -8963.563616700605, -3824.3834763030386, -0.1125, 0.977, 0.2795, 192.0, 126.0, 56.0, 15.0, 64.0, 4.0, 88.0, 0.0, 0.0, 0.0, 1.7068833695896409E9, 0.0, 2024-02-02 15:16:09.589
26.0, 63562.14744593471, 65771.68444057518, -28205.420458962973, -15729.59312553324, 16501.063585408163, 5219.624068692216, 22742.765872808206, 4816.644467907485, 41795.526956978676, 47350.13661982258, 37526.67904218186, 50551.42051594502, 22819.074728378622, 27633.14874567375, -8962.066049822099, -3821.5671565016696, -0.1125, 0.977, 0.2795, 192.0, 0.0, 0.0, 0.0, 0.0, 0.0, 0.0, 0.0, 0.0, 0.0, 1.7068833695986016E9, 0.0, 2024-02-02 15:16:09.598
28.0, 63557.945317977115, 65768.5775480959, -28211.656595666005, -15730.330733100265, 16492.30170158168, 5215.466644223528, 22732.864050014505, 4811.011828304748, 41790.43075924287, 47343.65461393054, 37528.62364394947, 50552.76162061234, 22817.823030689127, 27635.13805093027, -8964.748259156735, -3820.1589966009856, -0.1125, 0.977, 0.2795, 192.0, 0.0, 0.0, 0.0, 0.0, 0.0, 0.0, 0.0, 0.0, 0.0, 1.7068833696056492E9, 0.0, 2024-02-02 15:16:09.605
30.0, 63564.58378608034, 65775.28307143248, -28207.275653752764, -15726.799157476325, 16497.107326639572, 5216.181900046098, 22746.67742808788, 4816.532709185209, 41790.631924942965, 47348.415535499524, 37530.25532129471, 50559.28832999329, 22817.018367888733, 27636.389748619767, -8961.551959699627, -3818.9296506559435, -0.1125, 0.977, 0.2795, 192.0, 0.0, 0.0, 0.0, 0.0, 0.0, 0.0, 0.0, 0.0, 0.0, 1.7068833696136184E9, 0.0, 2024-02-02 15:16:09.613
32.0, 63560.69458254512, 65772.91378652022, -28206.33688048564, -15731.73889300095, 16496.41442256146, 5212.896193611168, 22739.770739051193, 4810.09540678208, 41784.10521556201, 47334.445695214956, 37529.98710036124, 50551.55462641175, 22813.2856265647, 27617.27900711048, -8962.691898666848, -3826.015153648276, -0.1125, 0.977, 0.2795, 192.0, 0.0, 0.0, 0.0, 0.0, 0.0, 0.0, 0.0, 0.0, 0.0, 1.7068833696226401E9, 0.0, 2024-02-02 15:16:09.622
34.0, 63557.63239355474, 65774.34429816536, -28206.940377585935, -15733.951715702024, 16496.70499523938, 5210.482205209995, 22738.74255880625, 4810.207165504356, 41782.92057310588, 47343.63226218608, 37528.69069918284, 50551.26405373384, 22819.03002488971, 27634.51220208552, -8958.333308498062, -3821.7683222017677, -0.11325, 0.9784999999999999, 0.27875000000000005, 192.0, 126.0, 56.0, 15.0, 80.0, 4.0, 88.0, 0.0, 0.0, 0.0, 1.7068833696296625E9, 0.0, 2024-02-02 15:16:09.629
36.0, 63562.46037035708, 65780.20045521265, -28203.96759557338, -15729.168442388589, 16503.87990520953, 5216.427769235107, 22749.627858355983, 4817.851462108071, 41779.54545969313, 47348.25907328833, 37528.31071952709, 50550.14646651107, 22818.784155700705, 27631.159440417225, -8960.121448054488, -3825.881043181544, -0.11325, 0.9784999999999999, 0.27875000000000005, 192.0, 0.0, 0.0, 0.0, 0.0, 0.0, 0.0, 0.0, 0.0, 0.0, 1.7068833696377597E9, 0.0, 2024-02-02 15:16:09.637
38.0, 63571.62458558376, 65790.03522277299, -28196.166836758475, -15718.752529472415, 16510.876001224042, 5225.927260628612, 22753.89704154695, 4830.033162836214, 41788.55321270862, 47351.54477972326, 37541.34178654454, 50565.74798414087, 22830.429414561917, 27642.84940276735, -8949.593776416037, -3815.174557587452, -0.11325, 0.9784999999999999, 0.27875000000000005, 192.0, 0.0, 0.0, 0.0, 0.0, 0.0, 0.0, 0.0, 0.0, 0.0, 1.7068833696457376E9, 0.0, 2024-02-02 15:16:09.645
40.0, 63565.00846922499, 65781.51920813552, -28205.733383385348, -15725.234535364454, 16499.878942952033, 5220.428731492607, 22741.916506518904, 4819.796063875683, 41789.17906155337, 47366.36398629713, 37539.97833013276, 50566.73146089691, 22830.049434906177, 27645.442205124167, -8952.253634006218, -3813.4758250088485, -0.11325, 0.9784999999999999, 0.27875000000000005, 192.0, 0.0, 0.0, 0.0, 0.0, 0.0, 0.0, 0.0, 0.0, 0.0, 1.706883369654756E9, 0.0, 2024-02-02 15:16:09.654
42.0, 63561.54394883442, 65777.98763251158, -28214.562322445196, -15732.767073245894, 16494.134544627017, 5215.645458179171, 22739.45781462882, 4813.135244028002, 41774.829241613064, 47347.14148606557, 37530.74705967272, 50557.589597414684, 22818.1359551115, 27630.80181250594, -8964.25652077872, -3827.4680170378706, -0.11325, 0.9784999999999999, 0.27875000000000005, 192.0, 0.0, 0.0, 0.0, 0.0, 0.0, 0.0, 0.0, 0.0, 0.0, 1.706883369661962E9, 0.0, 2024-02-02 15:16:09.661
44.0, 63547.26118412748, 65764.04014397146, -28227.503982484817, -15746.714561786004, 16486.043213134195, 5205.967152830023, 22728.080776701066, 4802.741682856284, 41769.934209577346, 47350.47189598941, 37522.78983864663, 50552.71691712343, 22816.906609166457, 27636.27798989749, -8965.8658463795, -3830.6643164949796, -0.113625, 0.98025, 0.27737500000000004, 192.0, 126.0, 56.0, 15.0, 88.0, 4.0, 80.0, 0.0, 0.0, 0.0, 1.7068833696697347E9, 0.0, 2024-02-02 15:16:09.669
46.0, 63541.785006735925, 65756.06057120093, -28233.67306395448, -15754.381210134175, 16482.601044488078, 5201.273286494409, 22721.956398720315, 4796.572601386619, 41755.91966580387, 47336.47970396039, 37506.450713449805, 50536.60130937115, 22803.964949126836, 27616.94373094365, -8981.310901798119, -3845.7293922578565, -0.113625, 0.98025, 0.27737500000000004, 192.0, 0.0, 0.0, 0.0, 0.0, 0.0, 0.0, 0.0, 0.0, 0.0, 1.7068833696787436E9, 0.0, 2024-02-02 15:16:09.678
48.0, 63547.77527424995, 65761.80496952594, -28228.330997029665, -15749.329715887276, 16486.60200674558, 5205.274248751909, 22726.940837733848, 4803.166366000934, 41752.097517502014, 47329.90829109053, 37507.74711462821, 50535.46137040394, 22812.0339288752, 27618.620111777796, -8979.522762241693, -3843.0695346676753, -0.113625, 0.98025, 0.27737500000000004, 192.0, 0.0, 0.0, 0.0, 0.0, 0.0, 0.0, 0.0, 0.0, 0.0, 1.706883369684746E9, 0.0, 2024-02-02 15:16:09.684
50.0, 63543.66255327017, 65758.89924274675, -28231.661406953506, -15753.978878733978, 16484.903274166976, 5200.938010327579, 22727.54433483414, 4800.260639221745, 41752.07516575756, 47340.34655575115, 37507.344783228014, 50537.473027404914, 22816.526629510718, 27627.829030493383, -8978.047547107642, -3840.4096770774936, -0.113625, 0.98025, 0.27737500000000004, 192.0, 0.0, 0.0, 0.0, 0.0, 0.0, 0.0, 0.0, 0.0, 0.0, 1.7068833696941683E9, 0.0, 2024-02-02 15:16:09.694
52.0, 63549.00462019499, 65762.7213910486, -28230.38735751955, -15752.526015344385, 16490.98294865882, 5207.442367964073, 22730.74063429125, 4803.2781247232115, 41747.426002910855, 47325.03561079927, 37506.89774833891, 50532.91327153603, 22814.93965565439, 27619.201257133634, -8978.87456165249, -3843.5389213012368, -0.113625, 0.98025, 0.27737500000000004, 192.0, 0.0, 0.0, 0.0, 0.0, 0.0, 0.0, 0.0, 0.0, 0.0, 1.706883369701799E9, 0.0, 2024-02-02 15:16:09.701
54.0, 63539.706294501586, 65755.14414967825, -28242.30083731423, -15762.338431160264, 16482.64574797699, 5197.339379470275, 22721.934046975857, 4797.37726418701, 41748.56594187808, 47331.003526568835, 37504.17083551536, 50532.06390524673, 22814.626731232016, 27620.050623422936, -8981.690881453858, -3843.1589416454963, -0.11181250000000001, 0.977125, 0.27868750000000003, 192.0, 126.0, 72.0, 15.0, 56.0, 4.0, 96.0, 0.0, 0.0, 0.0, 1.706883369710762E9, 0.0, 2024-02-02 15:16:09.710
56.0, 63540.175681135144, 65756.35114387884, -28245.40772979352, -15762.561948604816, 16482.131657854516, 5200.64743764966, 22726.046767955635, 4798.517203154231, 41737.45712488379, 47331.80818936923, 37494.24666097721, 50525.648954588054, 22806.647158461474, 27621.928169957184, -8987.524686756693, -3845.9305579579545, -0.11181250000000001, 0.977125, 0.27868750000000003, 192.0, 0.0, 0.0, 0.0, 0.0, 0.0, 0.0, 0.0, 0.0, 0.0, 1.7068833697180152E9, 0.0, 2024-02-02 15:16:09.718
58.0, 63553.36321036377, 65765.49300736106, -28232.93545638746, -15751.006096721423, 16493.888675438007, 5213.611449433738, 22737.35675065002, 4812.978781816814, 41738.79822955111, 47331.159988780026, 37498.895823823914, 50532.354477924644, 22817.107774866556, 27622.777536246485, -8981.847343665046, -3839.6720695104686, -0.11181250000000001, 0.977125, 0.27868750000000003, 192.0, 0.0, 0.0, 0.0, 0.0, 0.0, 0.0, 0.0, 0.0, 0.0, 1.7068833697257855E9, 0.0, 2024-02-02 15:16:09.725
60.0, 63544.48956781502, 65754.9206322337, -28244.737177459858, -15760.863216026213, 16480.432925275913, 5204.871917351713, 22723.588076065553, 4804.529822412708, 41745.9060842879, 47345.24158778687, 37503.924966326354, 50539.082353005695, 22820.348777812575, 27635.13805093027, -8977.376994773984, -3832.3854008180383, -0.11181250000000001, 0.977125, 0.27868750000000003, 192.0, 0.0, 0.0, 0.0, 0.0, 0.0, 0.0, 0.0, 0.0, 0.0, 1.706883369734171E9, 0.0, 2024-02-02 15:16:09.734
62.0, 63545.4506928266, 65754.85357700034, -28248.022883894788, -15762.472541626996, 16477.326032796627, 5203.17318477311, 22721.375253364477, 4804.306304968155, 41728.69524105731, 47325.25912824382, 37495.9006900669, 50529.53815812328, 22810.514010252242, 27611.445201807644, -8988.195239090353, -3846.0646684246863, -0.11181250000000001, 0.977125, 0.27868750000000003, 192.0, 0.0, 0.0, 0.0, 0.0, 0.0, 0.0, 0.0, 0.0, 0.0, 1.7068833697408087E9, 0.0, 2024-02-02 15:16:09.740
64.0, 63549.80928299538, 65761.80496952594, -28241.630284980572, -15757.577509591283, 16478.197750830383, 5206.347132485764, 22718.625988796473, 4804.887450323993, 41733.523217859656, 47335.36211673762, 37502.13682676993, 50536.556605882244, 22811.139859096987, 27618.93303620017, -8985.982416389277, -3843.4495143234153, -0.11090625000000001, 0.9775625, 0.27934375, 192.0, 126.0, 72.0, 15.0, 72.0, 4.0, 96.0, 0.0, 0.0, 0.0, 1.706883369750074E9, 0.0, 2024-02-02 15:16:09.750
66.0, 63551.508015573985, 65765.80593178344, -28236.511735500306, -15753.196567678044, 16486.98198640132, 5209.074045309311, 22739.279000673178, 4812.218822505334, 41729.54460734661, 47341.12886680709, 37504.103780282, 50535.304908192746, 22813.71030970935, 27628.65604503823, -8983.657834965925, -3845.148246902019, -0.11090625000000001, 0.9775625, 0.27934375, 192.0, 0.0, 0.0, 0.0, 0.0, 0.0, 0.0, 0.0, 0.0, 0.0, 1.7068833697578228E9, 0.0, 2024-02-02 15:16:09.757
68.0, 63557.83355925484, 65773.51728362052, -28232.153145331522, -15745.664029796604, 16489.574788758135, 5211.577440688306, 22740.284829173666, 4814.074017295125, 41733.34440390401, 47345.822733142704, 37515.816094376576, 50545.60906238664, 22820.058205134657, 27636.121527686304, -8971.63259644897, -3837.168674131474, -0.11090625000000001, 0.9775625, 0.27934375, 192.0, 0.0, 0.0, 0.0, 0.0, 0.0, 0.0, 0.0, 0.0, 0.0, 1.7068833697661557E9, 0.0, 2024-02-02 15:16:09.766
70.0, 63550.41278009568, 65768.1752166957, -28239.126889601575, -15754.135340945166, 16486.534951512214, 5205.855394107747, 22734.294561659644, 4806.116796269035, 41725.63305206693, 47352.66236694603, 37509.021164062164, 50541.40693442905, 22816.19135334389, 27637.596742820355, -8979.790983175157, -3843.203645134407, -0.11090625000000001, 0.9775625, 0.27934375, 192.0, 0.0, 0.0, 0.0, 0.0, 0.0, 0.0, 0.0, 0.0, 0.0, 1.706883369772859E9, 0.0, 2024-02-02 15:16:09.772
72.0, 63556.06777144287, 65773.11495222032, -28237.674026211982, -15750.78257927687, 16491.608797503566, 5215.310182012342, 22738.340227406054, 4811.660028893952, 41718.21227290777, 47337.731401649886, 37505.3554779715, 50535.90840529304, 22816.61603648854, 27633.28285614048, -8980.975625631288, -3848.9927469483314, -0.11090625000000001, 0.9775625, 0.27934375, 192.0, 0.0, 0.0, 0.0, 0.0, 0.0, 0.0, 0.0, 0.0, 0.0, 1.706883369782268E9, 0.0, 2024-02-02 15:16:09.782
74.0, 63551.32920161834, 65768.51049286252, -28241.049139624734, -15756.482274112974, 16485.529123011725, 5209.319914498319, 22726.650265055927, 4805.602706146563, 41725.2977759001, 47349.15314306655, 37511.63631816344, 50545.13967575308, 22824.260333092254, 27639.876620754796, -8975.365337773006, -3842.175464889463, -0.11145312500000001, 0.9807812499999999, 0.278671875, 192.0, 126.0, 64.0, 15.0, 96.0, 4.0, 88.0, 0.0, 0.0, 0.0, 1.7068833697899084E9, 0.0, 2024-02-02 15:16:09.789
76.0, 63559.3534778778, 65775.57364411041, -28231.34848253113, -15745.619326307695, 16496.749698728287, 5214.863147123236, 22746.610372854517, 4816.912688840948, 41718.01110720767, 47345.91214012053, 37508.30590823959, 50541.161065240034, 22817.644216733483, 27631.450013095146, -8979.522762241693, -3848.0316219367533, -0.11145312500000001, 0.9807812499999999, 0.278671875, 192.0, 0.0, 0.0, 0.0, 0.0, 0.0, 0.0, 0.0, 0.0, 0.0, 1.7068833697969365E9, 0.0, 2024-02-02 15:16:09.796
78.0, 63566.126056447756, 65782.30151919145, -28225.179401061465, -15739.472596582485, 16497.08497489512, 5216.919507613124, 22750.633686856472, 4824.601688933574, 41729.36579339097, 47346.20271279845, 37522.92394911336, 50552.515751423336, 22829.065958150146, 27635.652141052742, -8968.145724313943, -3837.682764253946, -0.11145312500000001, 0.9807812499999999, 0.278671875, 192.0, 0.0, 0.0, 0.0, 0.0, 0.0, 0.0, 0.0, 0.0, 0.0, 1.7068833698060672E9, 0.0, 2024-02-02 15:16:09.806
80.0, 63565.567262836375, 65781.0274697575, -28231.035558108757, -15744.658201296115, 16492.480515537325, 5212.98560058899, 22745.425730398387, 4825.607517434063, 41739.78170630714, 47357.04330885927, 37523.48274272475, 50555.30971948025, 22828.864792450047, 27638.624923065297, -8972.079631338076, -3835.112313641586, -0.11145312500000001, 0.9807812499999999, 0.278671875, 192.0, 0.0, 0.0, 0.0, 0.0, 0.0, 0.0, 0.0, 0.0, 0.0, 1.7068833698139884E9, 0.0, 2024-02-02 15:16:09.813
82.0, 63563.13092269075, 65778.05468774494, -28232.399014520528, -15745.909898985614, 16494.380413816027, 5212.180937788598, 22745.559840865117, 4825.048723822681, 41751.44931691281, 47348.01320409933, 37520.9569956013, 50550.258225233345, 22824.19327785889, 27631.002978206037, -8973.197218560841, -3836.8781014535552, -0.11145312500000001, 0.9807812499999999, 0.278671875, 192.0, 0.0, 0.0, 0.0, 0.0, 0.0, 0.0, 0.0, 0.0, 0.0, 1.7068833698219557E9, 0.0, 2024-02-02 15:16:09.821
84.0, 63559.57699532235, 65778.54642612296, -28236.44468026694, -15754.604727578728, 16487.294910823693, 5205.251897007453, 22739.435462884365, 4819.214918519845, 41766.96142756479, 47352.192980312466, 37516.66546066588, 50547.77718159881, 22822.494545280286, 27629.974797961095, -8976.572331973593, -3841.4378573224376, -0.11272656250000002, 0.983390625, 0.2793359375, 192.0, 126.0, 56.0, 15.0, 104.0, 4.0, 96.0, 0.0, 0.0, 0.0, 1.7068833698289602E9, 0.0, 2024-02-02 15:16:09.828
86.0, 63560.26989940047, 65777.78646681148, -28242.21143033641, -15760.885567770669, 16489.21716084685, 5205.3636557297295, 22741.223602440787, 4819.550194686674, 41780.0595498156, 47349.823695400206, 37509.62466116246, 50541.29517570677, 22817.957141155857, 27619.93886470066, -8983.188448332363, -3845.9529097024097, -0.11272656250000002, 0.983390625, 0.2793359375, 192.0, 0.0, 0.0, 0.0, 0.0, 0.0, 0.0, 0.0, 0.0, 0.0, 1.7068833698382573E9, 0.0, 2024-02-02 15:16:09.838
88.0, 63573.07744897336, 65785.25194945955, -28235.550610488728, -15753.598899078239, 16496.436774305916, 5214.214946534032, 22747.660904843917, 4829.876700625026, 41807.66395421791, 47346.15800930953, 37517.24660602172, 50546.4807804204, 22821.71223422435, 27625.32563511439, -8976.281759295674, -3840.946118944421, -0.11272656250000002, 0.983390625, 0.2793359375, 192.0, 0.0, 0.0, 0.0, 0.0, 0.0, 0.0, 0.0, 0.0, 0.0, 1.7068833698460531E9, 0.0, 2024-02-02 15:16:09.846
90.0, 63566.193111681125, 65776.80299005544, -28244.558363504217, -15761.086733470767, 16489.46303003586, 5206.168318530121, 22739.413111139907, 4816.800930118672, 41829.43455331738, 47354.629320458094, 37516.06196356559, 50548.514789165834, 22820.996978401778, 27628.924265971695, -8977.91343664091, -3841.0578776666976, -0.11272656250000002, 0.983390625, 0.2793359375, 192.0, 0.0, 0.0, 0.0, 0.0, 0.0, 0.0, 0.0, 0.0, 0.0, 1.706883369853072E9, 0.0, 2024-02-02 15:16:09.853
92.0, 63566.66249831468, 65776.40065865526, -28245.87711642708, -15761.064381726312, 16486.22202708984, 5206.45889120804, 22740.17307045139, 4812.621153905529, 41837.05649817664, 47338.424305728, 37510.51873094067, 50544.33501295269, 22811.139859096987, 27625.057414180927, -8983.143744843454, -3846.5787585471585, -0.11272656250000002, 0.983390625, 0.2793359375, 192.0, 0.0, 0.0, 0.0, 0.0, 0.0, 0.0, 0.0, 0.0, 0.0, 1.7068833698620148E9, 0.0, 2024-02-02 15:16:09.862
94.0, 63566.14840819221, 65772.8243795424, -28246.704130971928, -15765.624137595194, 16480.768201442745, 5201.072120794311, 22734.808651782114, 4805.692113124384, 41853.77560302921, 47337.999622583346, 37511.546911185615, 50544.53617865279, 22812.83859167559, 27623.02340543549, -8983.121393098998, -3848.389249848038, -0.10936328125, 0.9816953125, 0.28266796875, 192.0, 126.0, 88.0, 15.0, 80.0, 4.0, 120.0, 0.0, 0.0, 0.0, 1.7068833698703797E9, 0.0, 2024-02-02 15:16:09.870
96.0, 63570.88697801674, 65775.48423713258, -28247.06175888321, -15758.44922762504, 16481.483457265313, 5206.503594696951, 22732.953456992323, 4805.1556712574575, 41863.34214965608, 47340.54772145125, 37508.99881231771, 50541.2281204734, 22808.74822244027, 27622.08463216837, -8984.037814621666, -3850.2891481267393, -0.10936328125, 0.9816953125, 0.28266796875, 192.0, 0.0, 0.0, 0.0, 0.0, 0.0, 0.0, 0.0, 0.0, 0.0, 1.7068833698770485E9, 0.0, 2024-02-02 15:16:09.877
98.0, 63577.41368739768, 65779.5746063679, -28243.73134895937, -15755.387038634664, 16484.053907877675, 5209.69989415406, 22734.093395959546, 4805.245078235278, 41882.832870821105, 47339.63129992859, 37522.52161771317, 50553.09689677917, 22817.398347544473, 27629.147783416247, -8975.790020917657, -3839.359145088094, -0.10936328125, 0.9816953125, 0.28266796875, 192.0, 0.0, 0.0, 0.0, 0.0, 0.0, 0.0, 0.0, 0.0, 0.0, 1.7068833698850832E9, 0.0, 2024-02-02 15:16:09.885
100.0, 63575.08910597434, 65772.91378652022, -28249.49809902884, -15761.444361382051, 16481.46110552086, 5203.642571406672, 22727.633741811962, 4798.539554898686, 41889.18076624641, 47348.30377677725, 37519.19120778933, 50553.56628341273, 22812.927998653413, 27623.89512346925, -8978.069898852098, -3842.1307614005523, -0.10936328125, 0.9816953125, 0.28266796875, 192.0, 0.0, 0.0, 0.0, 0.0, 0.0, 0.0, 0.0, 0.0, 0.0, 1.7068833698943503E9, 0.0, 2024-02-02 15:16:09.894
102.0, 63573.99387049602, 65772.66791733121, -28246.30179957173, -15758.695096814048, 16488.814829446655, 5205.877745852202, 22742.9670385083, 4803.94867705687, 41887.727902856815, 47336.680869660486, 37518.36419324448, 50545.83257983119, 22812.436260275397, 27628.700748527142, -8978.472230252293, -3844.0530114237085, -0.10936328125, 0.9816953125, 0.28266796875, 192.0, 0.0, 0.0, 0.0, 0.0, 0.0, 0.0, 0.0, 0.0, 0.0, 1.7068833699010603E9, 0.0, 2024-02-02 15:16:09.901
104.0, 63573.792704795924, 65774.00902199853, -28251.509756029816, -15762.584300349272, 16482.31047181016, 5200.356864971741, 22731.07591045808, 4795.656179863951, 41894.3887227045, 47344.68279417548, 37519.75000140071, 50548.023050787815, 22812.70448120886, 27632.500545084542, -8972.504314482727, -3838.5768340321583, -0.10768164062499999, 0.9788476562499999, 0.283333984375, 192.0, 126.0, 88.0, 15.0, 64.0, 4.0, 112.0, 0.0, 0.0, 0.0, 1.7068833699091337E9, 0.0, 2024-02-02 15:16:09.909
106.0, 63579.335937420845, 65774.97014701011, -28244.290142570753, -15756.50462585743, 16488.188980601906, 5209.36461798723, 22735.79212853815, 4801.959371800348, 41898.00970530626, 47345.24158778687, 37519.39237348943, 50544.893806564076, 22809.821106174124, 27628.678396782685, -8975.387689517462, -3843.8294939791554, -0.10768164062499999, 0.9788476562499999, 0.283333984375, 192.0, 0.0, 0.0, 0.0, 0.0, 0.0, 0.0, 0.0, 0.0, 0.0, 1.7068833699171093E9, 0.0, 2024-02-02 15:16:09.917
108.0, 63575.11145771879, 65769.29280391846, -28248.55932576172, -15759.723277058993, 16484.344480555592, 5207.17414703061, 22736.909715760914, 4800.931191555404, 41902.10007454158, 47337.64199467206, 37523.84037063603, 50546.212559486936, 22812.257446319752, 27630.04185319446, -8968.34689001404, -3839.783828232745, -0.10768164062499999, 0.9788476562499999, 0.283333984375, 192.0, 0.0, 0.0, 0.0, 0.0, 0.0, 0.0, 0.0, 0.0, 0.0, 1.7068833699262922E9, 0.0, 2024-02-02 15:16:09.926
110.0, 63576.22904494155, 65771.01388824152, -28248.78284320627, -15758.248061924944, 16481.908140409963, 5203.396702217663, 22732.50642210322, 4799.143051998979, 41906.95040308838, 47353.08705009068, 37524.28740552514, 50549.27474847731, 22813.486792264797, 27630.71240552812, -8965.307052768118, -3837.2580811092953, -0.10768164062499999, 0.9788476562499999, 0.283333984375, 192.0, 0.0, 0.0, 0.0, 0.0, 0.0, 0.0, 0.0, 0.0, 0.0, 1.7068833699331477E9, 0.0, 2024-02-02 15:16:09.933
112.0, 63575.49143737453, 65767.05762947293, -28251.39799730754, -15757.376343891186, 16484.16566659995, 5205.006027818445, 22727.320817389587, 4797.4666711648315, 41911.10782755707, 47338.24549177236, 37522.07458282406, 50544.446771674964, 22809.061146862645, 27627.31494037091, -8973.06310809411, -3845.9976131913204, -0.10768164062499999, 0.9788476562499999, 0.283333984375, 192.0, 0.0, 0.0, 0.0, 0.0, 0.0, 0.0, 0.0, 0.0, 0.0, 1.706883369941147E9, 0.0, 2024-02-02 15:16:09.941
114.0, 63576.184341452645, 65768.01875448451, -28252.515584530305, -15758.963317747513, 16481.88578866551, 5203.530812684395, 22722.246971398232, 4797.041988020181, 41916.91928111545, 47343.85577963064, 37521.51578921268, 50549.632376388596, 22809.239960818286, 27635.316864885914, -8969.844456892546, -3839.6720695104686, -0.10768164062499999, 0.9788476562499999, 0.283333984375, 192.0, 0.0, 0.0, 0.0, 0.0, 0.0, 0.0, 0.0, 0.0, 0.0, 1.7068833699501743E9, 0.0, 2024-02-02 15:16:09.950
116.0, 63587.24845495802, 65776.42301039971, -28238.43398552346, -15749.799102520838, 16500.013053418763, 5213.656152922649, 22748.756140322228, 4811.212994004845, 41923.311880029665, 47346.35917500963, 37525.94143461483, 50555.10855378015, 22818.22536208932, 27635.540382330466, -8966.134067312965, -3838.2192061208734, -0.108, 0.978, 0.28, 192.0, 126.0, 80.0, 15.0, 72.0, 4.0, 96.0, 0.0, 0.0, 0.0, 1.7068833699571705E9, 0.0, 2024-02-02 15:16:09.957
118.0, 63579.045364742924, 65769.65043182975, -28242.569058247693, -15758.113951458212, 16494.98391091632, 5205.944801085568, 22742.765872808206, 4803.90397356796, 41928.36337427657, 47338.8713406171, 37531.35055677302, 50553.25335899036, 22821.444013290886, 27636.456803853132, -8957.43923871985, -3836.14049388653, -0.108, 0.978, 0.28, 192.0, 0.0, 0.0, 0.0, 0.0, 0.0, 0.0, 0.0, 0.0, 0.0, 1.7068833699651818E9, 0.0, 2024-02-02 15:16:09.965
120.0, 63569.65763207169, 65762.38611488177, -28250.570982762696, -15765.624137595194, 16485.909102667465, 5198.479318437496, 22730.45006161333, 4794.493889152275, 41927.46930449835, 47341.5759016962, 37523.370984002475, 50544.42441993051, 22811.765707941737, 27622.37520484629, -8965.8658463795, -3844.008307934798, -0.108, 0.978, 0.28, 192.0, 0.0, 0.0, 0.0, 0.0, 0.0, 0.0, 0.0, 0.0, 0.0, 1.7068833699733489E9, 0.0, 2024-02-02 15:16:09.973
122.0, 63578.285405431445, 65771.90795801973, -28241.20560183592, -15750.02261996539, 16497.08497489512, 5207.375312730707, 22743.59288735305, 4805.669761379929, 41926.37406902004, 47334.37863998159, 37525.04736483662, 50542.77039084082, 22812.0339288752, 27630.690053783663, -8962.446029477838, -3841.23669162234, -0.108, 0.978, 0.28, 192.0, 0.0, 0.0, 0.0, 0.0, 0.0, 0.0, 0.0, 0.0, 0.0, 1.7068833699821942E9, 0.0, 2024-02-02 15:16:09.982
124.0, 63580.43117289915, 65773.80785629843, -28240.915029158, -15749.620288565195, 16492.50286728178, 5207.777644130903, 22735.233334926765, 4804.127491012513, 41938.82399068165, 47345.73332616488, 37533.56337947409, 50556.069678791726, 22825.444975548384, 27633.79694626295, -8954.19823577383, -3832.13953162903, -0.108, 0.978, 0.28, 192.0, 0.0, 0.0, 0.0, 0.0, 0.0, 0.0, 0.0, 0.0, 0.0, 1.7068833699892232E9, 0.0, 2024-02-02 15:16:09.989
126.0, 63580.6099868548, 65775.57364411041, -28244.58071524867, -15751.54253858835, 16487.920759668443, 5207.799995875358, 22739.100186717533, 4803.613400890041, 41935.71709820236, 47346.247416287355, 37529.00362360521, 50555.779106113805, 22811.922170152924, 27632.74641427355, -8959.741468398746, -3835.335831086139, -0.114, 0.98, 0.28, 192.0, 126.0, 56.0, 15.0, 80.0, 4.0, 96.0, 0.0, 0.0, 0.0, 1.7068833699972205E9, 0.0, 2024-02-02 15:16:09.997
128.0, 63587.47197240257, 65782.88266454729, -28243.038444881255, -15747.83214900877, 16486.914931167954, 5213.857318622747, 22734.74159654875, 4805.446243935376, 41944.03194713974, 47346.113305820625, 37538.03372836515, 50565.41270797404, 22812.2350945753, 27639.966027732615, -8952.655965406415, -3828.6079560050916, -0.114, 0.98, 0.28, 192.0, 0.0, 0.0, 0.0, 0.0, 0.0, 0.0, 0.0, 0.0, 0.0, 1.706883370006472E9, 0.0, 2024-02-02 15:16:10.006
130.0, 63578.33010892035, 65778.43466740068, -28255.55542177623, -15755.923480501591, 16478.22010257484, 5208.336437742286, 22725.55502957762, 4798.919534554427, 41942.98141515034, 47356.663329203526, 37532.9598823738, 50565.30094925177, 22802.266216548232, 27640.390710877266, -8960.389668987951, -3832.653621751502, -0.114, 0.98, 0.28, 192.0, 0.0, 0.0, 0.0, 0.0, 0.0, 0.0, 0.0, 0.0, 0.0, 1.7068833700133064E9, 0.0, 2024-02-02 15:16:10.013
132.0, 63593.84221957234, 65791.39867918476, -28240.73621520236, -15739.338486115754, 16497.107326639572, 5226.866033895735, 22747.12446297699, 4817.337371985599, 41944.32251981766, 47353.19880881296, 37535.41857426388, 50568.63135917561, 22805.686033449892, 27644.525783601497, -8954.39940147393, -3825.4116565479826, -0.114, 0.98, 0.28, 192.0, 0.0, 0.0, 0.0, 0.0, 0.0, 0.0, 0.0, 0.0, 0.0, 1.706883370021266E9, 0.0, 2024-02-02 15:16:10.021
134.0, 63592.72463234957, 65793.76796409702, -28237.226991322877, -15738.757340759916, 16499.40955631847, 5228.408304263152, 22753.382951424475, 4818.969049330837, 41952.615017010576, 47361.89363740607, 37541.00651037771, 50571.47003072143, 22818.068899878133, 27656.416911651722, -8942.798846101625, -3817.454435521893, -0.114, 0.98, 0.28, 192.0, 0.0, 0.0, 0.0, 0.0, 0.0, 0.0, 0.0, 0.0, 0.0, 1.7068833700292919E9, 0.0, 2024-02-02 15:16:10.029
136.0, 63591.24941721552, 65791.46573441813, -28238.67985471247, -15739.673762282582, 16500.437736563414, 5232.766894431937, 22753.606468869028, 4818.969049330837, 41954.24669435581, 47369.13560260959, 37541.63235922246, 50573.2358185334, 22817.46540277784, 27663.32360068841, -8942.687087379347, -3817.9908773888205, -0.114, 0.974, 0.28600000000000003, 192.0, 126.0, 56.0, 15.0, 56.0, 4.0, 120.0, 0.0, 0.0, 0.0, 1.7068833700383282E9, 0.0, 2024-02-02 15:16:10.038
138.0, 63581.86168454429, 65779.37344066781, -28249.565154262207, -15749.329715887276, 16491.92172192594, 5221.6804291821045, 22739.860146029016, 4807.860232336549, 41950.06691814267, 47353.601140213155, 37540.17949583286, 50571.380623743615, 22818.247713833778, 27653.555888361443, -8943.782322857658, -3820.404865789994, -0.114, 0.974, 0.28600000000000003, 192.0, 0.0, 0.0, 0.0, 0.0, 0.0, 0.0, 0.0, 0.0, 0.0, 1.706883370045305E9, 0.0, 2024-02-02 15:16:10.045
140.0, 63569.00943148249, 65763.01196372652, -28262.104482901632, -15763.299556171842, 16481.997547387786, 5207.017684819422, 22723.20809640981, 4792.191659473379, 41933.28075805673, 47340.61477668462, 37522.78983864663, 50556.33789972519, 22803.22734155981, 27638.982550976583, -8962.334270755562, -3837.8615782095885, -0.114, 0.974, 0.28600000000000003, 192.0, 0.0, 0.0, 0.0, 0.0, 0.0, 0.0, 0.0, 0.0, 0.0, 1.7068833700533102E9, 0.0, 2024-02-02 15:16:10.053
142.0, 63581.30289093291, 65771.34916440836, -28251.800328707737, -15754.716486301004, 16493.016957404252, 5214.12553955621, 22737.73673030576, 4800.394749688477, 41931.51497024477, 47331.60702366913, 37527.17078055987, 50553.58863515719, 22805.50721949425, 27635.495678841555, -8957.43923871985, -3836.9675084313762, -0.114, 0.974, 0.28600000000000003, 192.0, 0.0, 0.0, 0.0, 0.0, 0.0, 0.0, 0.0, 0.0, 0.0, 1.7068833700613263E9, 0.0, 2024-02-02 15:16:10.061
144.0, 63577.63720484224, 65769.56102485192, -28254.840165953658, -15760.237367181466, 16486.713765467855, 5203.843737106769, 22726.694968544838, 4793.398653673966, 41931.8949499005, 47341.19592204045, 37530.43413525035, 50556.74023112538, 22807.76474568424, 27640.837745766374, -8953.259462506707, -3833.9723746743653, -0.114, 0.974, 0.28600000000000003, 192.0, 0.0, 0.0, 0.0, 0.0, 0.0, 0.0, 0.0, 0.0, 0.0, 1.7068833700696657E9, 0.0, 2024-02-02 15:16:10.069
146.0, 63586.01910901298, 65777.04885924446, -28246.54766876074, -15750.000268220934, 16499.92364644094, 5213.0526558223555, 22744.44225364235, 4805.937982313393, 41926.955214375885, 47341.93352960748, 37530.81411490609, 50555.46618169143, 22806.378937528007, 27639.2731236545, -8951.851302606023, -3833.5923950186248, -0.116, 0.97, 0.28800000000000003, 192.0, 126.0, 48.0, 15.0, 40.0, 4.5, 0.0, 0.0, 0.0, 0.0, 1.7068833700773416E9, 0.0, 2024-02-02 15:16:10.077
148.0, 63580.74409732153, 65769.96335625212, -28253.096729886143, -15757.175178191088, 16494.000434160287, 5206.905926097146, 22739.904849517927, 4804.038084034692, 41921.88136838453, 47336.90438710504, 37532.78106841815, 50557.0308038033, 22810.64812071897, 27638.982550976583, -8951.068991550088, -3832.430104306949, -0.116, 0.97, 0.28800000000000003, 192.0, 0.0, 0.0, 0.0, 0.0, 0.0, 0.0, 0.0, 0.0, 0.0, 1.7068833700853703E9, 0.0, 2024-02-02 15:16:10.085
150.0, 63578.978309509555, 65767.30349866195, -28255.801290965235, -15761.489064870962, 16491.5417422702, 5211.197461032565, 22736.797957038638, 4806.943810813882, 41915.77934214823, 47342.49232321887, 37525.38264100345, 50553.49922817937, 22804.27787354921, 27637.28381839798, -8956.366354985996, -3835.8946246975215, -0.116, 0.97, 0.28800000000000003, 192.0, 0.0, 0.0, 0.0, 0.0, 0.0, 0.0, 0.0, 0.0, 0.0, 1.706883370094367E9, 0.0, 2024-02-02 15:16:10.094
152.0, 63579.87237928777, 65769.4269143852, -28252.24736359684, -15756.1693496906, 16495.810925461166, 5216.293658768375, 22735.702721560327, 4812.040008549691, 41912.4936357133, 47334.2221777704, 37524.57797820306, 50551.15229501156, 22805.373109027518, 27638.200239920647, -8956.835741619558, -3836.341659586628, -0.116, 0.97, 0.28800000000000003, 192.0, 0.0, 0.0, 0.0, 0.0, 0.0, 0.0, 0.0, 0.0, 0.0, 1.7068833701005604E9, 0.0, 2024-02-02 15:16:10.100
154.0, 63573.27861467345, 65767.50466436204, -28254.68370374247, -15756.057590968323, 16494.98391091632, 5211.845661621769, 22738.988427995257, 4812.017656805237, 41918.148627060495, 47344.638090686574, 37527.12607707096, 50555.82380960272, 22810.715175952337, 27645.129280701793, -8954.622918918481, -3832.206586862396, -0.116, 0.97, 0.28800000000000003, 192.0, 0.0, 0.0, 0.0, 0.0, 0.0, 0.0, 0.0, 0.0, 0.0, 1.706883370109393E9, 0.0, 2024-02-02 15:16:10.109
156.0, 63563.332088390845, 65756.015867712, -28265.256078869832, -15768.082829485278, 16486.199675345382, 5204.6036964182495, 22728.684273801362, 4802.965200300837, 41904.2905454982, 47339.407782484035, 37513.87149260897, 50545.027917030806, 22802.087402592588, 27632.299379384447, -8964.524741712183, -3845.818799235678, -0.11, 0.978, 0.28, 192.0, 126.0, 72.0, 15.0, 72.0, 4.0, 96.0, 0.0, 0.0, 0.0, 1.7068833701175516E9, 0.0, 2024-02-02 15:16:10.117
158.0, 63575.24556818552, 65765.60476608334, -28258.662314255515, -15761.846692782246, 16491.832314948122, 5212.829138377802, 22738.049654728136, 4812.576450416619, 41910.57138569014, 47334.31158474822, 37518.16302754438, 50548.00069904336, 22801.79682991467, 27639.161364932224, -8963.787134145157, -3844.14241840153, -0.11, 0.978, 0.28, 192.0, 0.0, 0.0, 0.0, 0.0, 0.0, 0.0, 0.0, 0.0, 0.0, 1.706883370125418E9, 0.0, 2024-02-02 15:16:10.125
160.0, 63562.19214942362, 65750.69615253164, -28272.051009184244, -15775.861236555726, 16479.06946886414, 5201.630914405694, 22724.526849332673, 4799.8136043326385, 41913.186539791415, 47343.34168950817, 37515.0561350651, 50547.57601589871, 22802.065050848134, 27634.4227951077, -8967.564578958105, -3846.3105376136946, -0.11, 0.978, 0.28, 192.0, 0.0, 0.0, 0.0, 0.0, 0.0, 0.0, 0.0, 0.0, 0.0, 1.7068833701336465E9, 0.0, 2024-02-02 15:16:10.133
162.0, 63576.609024597296, 65761.91672824821, -28260.092825900654, -15761.466713126507, 16495.118021383052, 5214.773740145414, 22741.02243674069, 4811.347104471577, 41909.051467067184, 47332.3222794917, 37510.87635885196, 50540.177588484, 22799.539303724683, 27626.197353148145, -8969.017442347698, -3850.043278937731, -0.11, 0.978, 0.28, 192.0, 0.0, 0.0, 0.0, 0.0, 0.0, 0.0, 0.0, 0.0, 0.0, 1.7068833701414454E9, 0.0, 2024-02-02 15:16:10.141
164.0, 63570.14937044971, 65751.41140835422, -28270.888718472568, -15774.631890610683, 16480.321166553636, 5198.121690526211, 22716.524924817673, 4793.108080996047, 41917.41101949347, 47339.43013422849, 37517.58188218855, 50549.073582777215, 22808.077670106613, 27640.77069053301, -8965.642328934948, -3845.4164678354823, -0.11, 0.978, 0.28, 192.0, 0.0, 0.0, 0.0, 0.0, 0.0, 0.0, 0.0, 0.0, 0.0, 1.7068833701484628E9, 0.0, 2024-02-02 15:16:10.148
166.0, 63569.99290823852, 65748.4162745972, -28273.749741762847, -15773.938986532568, 16478.913006652954, 5199.395739960163, 22712.859238727004, 4789.643560605474, 41911.644269423996, 47334.84802661515, 37510.40697221839, 50539.775257083806, 22800.008690358245, 27633.014635207015, -8976.527628484682, -3856.8605609965994, -0.11, 0.98, 0.28600000000000003, 192.0, 126.0, 72.0, 15.0, 80.0, 4.0, 120.0, 0.0, 0.0, 0.0, 1.7068833701564393E9, 0.0, 2024-02-02 15:16:10.156
168.0, 63575.1561612077, 65751.1655391652, -28267.178328892987, -15770.295652186353, 16481.796381687687, 5200.870955094213, 22717.86602948499, 4792.571639129119, 41909.96788858985, 47327.673116645, 37511.837483863535, 50537.16010298254, 22799.159324068944, 27633.819298007405, -8976.34881452904, -3859.0957354421303, -0.11, 0.98, 0.28600000000000003, 192.0, 0.0, 0.0, 0.0, 0.0, 0.0, 0.0, 0.0, 0.0, 0.0, 1.7068833701656704E9, 0.0, 2024-02-02 15:16:10.165
170.0, 63574.17268445167, 65753.6689345442, -28266.485424814873, -15774.207207466032, 16483.40570728847, 5196.959399814535, 22717.955436462813, 4790.783499572694, 41920.87553988404, 47344.5263319643, 37524.66738518088, 50548.648899632564, 22808.74822244027, 27634.17692591869, -8970.872637137489, -3851.272624882773, -0.11, 0.98, 0.28600000000000003, 192.0, 0.0, 0.0, 0.0, 0.0, 0.0, 0.0, 0.0, 0.0, 0.0, 1.7068833701735373E9, 0.0, 2024-02-02 15:16:10.173
172.0, 63574.17268445167, 65754.9653357226, -28265.45724456993, -15771.07796324229, 16492.21229460386, 5198.009931803934, 22735.76977679369, 4800.841784577583, 41912.9406706024, 47332.56814868071, 37523.147466557915, 50547.41955368752, 22805.015481116236, 27628.968969460606, -8971.207913304319, -3855.1171249290855, -0.11, 0.98, 0.28600000000000003, 192.0, 0.0, 0.0, 0.0, 0.0, 0.0, 0.0, 0.0, 0.0, 0.0, 1.7068833701804833E9, 0.0, 2024-02-02 15:16:10.180
174.0, 63575.49143737453, 65759.25687065804, -28268.810006238225, -15772.731992331981, 16490.848838192087, 5197.629952148193, 22731.858221514016, 4800.4618049218425, 41908.33621124461, 47335.473875459895, 37518.878283366954, 50547.28544322079, 22803.629672960007, 27626.286760125968, -8971.878465637978, -3857.7099272859014, -0.11, 0.98, 0.28600000000000003, 192.0, 0.0, 0.0, 0.0, 0.0, 0.0, 0.0, 0.0, 0.0, 0.0, 1.7068833701896493E9, 0.0, 2024-02-02 15:16:10.189
176.0, 63581.10172523281, 65763.54840559345, -28263.11031140212, -15760.639698581661, 16496.83910570611, 5209.901059854157, 22741.31300941861, 4810.542441671186, 41911.75602814627, 47350.27073028931, 37526.656690437405, 50557.4331352035, 22807.22830381731, 27636.881486997783, -8963.25069227823, -3848.791581248234, -0.11, 0.982, 0.28800000000000003, 192.0, 126.0, 72.0, 15.0, 88.0, 4.5, 0.0, 0.0, 0.0, 0.0, 1.7068833701975098E9, 0.0, 2024-02-02 15:16:10.197
178.0, 63583.046327000426, 65766.49883586155, -28258.751721233337, -15752.794236277849, 16498.4931347958, 5214.46081572304, 22741.044788485146, 4811.749435871772, 41912.91831885795, 47348.16966631051, 37537.31847254258, 50565.90444635206, 22813.0844608646, 27641.93298124468, -8951.024288061177, -3835.067610152675, -0.11, 0.982, 0.28800000000000003, 192.0, 0.0, 0.0, 0.0, 0.0, 0.0, 0.0, 0.0, 0.0, 0.0, 1.706883370204527E9, 0.0, 2024-02-02 15:16:10.204
180.0, 63566.90836750369, 65753.17719616619, -28277.437779597974, -15770.608576608727, 16482.06460262115, 5199.686312638082, 22717.195477151334, 4792.526935640209, 41896.31097272765, 47345.88978837607, 37519.97351884526, 50555.42147820252, 22800.343966525077, 27634.780423018983, -8968.659814436414, -3849.730354515357, -0.11, 0.982, 0.28800000000000003, 192.0, 0.0, 0.0, 0.0, 0.0, 0.0, 0.0, 0.0, 0.0, 0.0, 1.7068833702125468E9, 0.0, 2024-02-02 15:16:10.212
182.0, 63579.09006823183, 65764.06249571592, -28268.005343437835, -15760.572643348294, 16496.950864428385, 5214.594926189772, 22739.144890206444, 4807.256735236256, 41892.95821105936, 47337.19495978296, 37522.946300857824, 50551.91225432304, 22800.12044908052, 27642.670588811707, -8965.530570212672, -3847.8304562366557, -0.11, 0.982, 0.28800000000000003, 192.0, 0.0, 0.0, 0.0, 0.0, 0.0, 0.0, 0.0, 0.0, 0.0, 1.7068833702217577E9, 0.0, 2024-02-02 15:16:10.221
184.0, 63576.251396686006, 65764.35306839384, -28269.74877950535, -15759.566814847805, 16496.07914639463, 5216.0477895793665, 22735.479204115774, 4807.368493958533, 41895.86393783855, 47349.22019829991, 37527.215484048786, 50560.24945500487, 22801.014518858734, 27651.164251704726, -8958.623881175981, -3838.4203718209715, -0.11, 0.982, 0.28800000000000003, 192.0, 0.0, 0.0, 0.0, 0.0, 0.0, 0.0, 0.0, 0.0, 0.0, 1.7068833702295496E9, 0.0, 2024-02-02 15:16:10.229
186.0, 63573.07744897336, 65761.38028638129, -28272.185119650978, -15766.0711724843, 16491.720556225846, 5212.1138825552325, 22733.40049188143, 4803.211069489846, 41887.19146098989, 47346.672099432006, 37519.593539189525, 50553.67804213501, 22804.791963671683, 27637.552039331444, -8967.206951046819, -3843.918900956977, -0.11, 0.984, 0.294, 192.0, 126.0, 72.0, 15.0, 96.0, 4.5, 24.0, 0.0, 0.0, 0.0, 1.7068833702365856E9, 0.0, 2024-02-02 15:16:10.236
188.0, 63580.14060022123, 65769.71748706311, -28262.797386979746, -15754.671782812095, 16499.141335385008, 5217.41124599114, 22739.726035562282, 4810.274220737722, 41890.47716742482, 47347.49911397685, 37526.88020788196, 50558.12603928162, 22811.810411430648, 27647.409158636234, -8959.048564320632, -3837.012211920287, -0.11, 0.984, 0.294, 192.0, 0.0, 0.0, 0.0, 0.0, 0.0, 0.0, 0.0, 0.0, 0.0, 1.7068833702445858E9, 0.0, 2024-02-02 15:16:10.244
190.0, 63581.6605188442, 65770.58920509687, -28260.338695089664, -15752.704829300026, 16501.8458964641, 5220.987525103989, 22742.050616985634, 4813.04583705018, 41892.04178953669, 47366.095765363665, 37530.90352188391, 50569.123097553624, 22815.677263221416, 27659.724969831106, -8953.259462506707, -3825.8363396926334, -0.11, 0.984, 0.294, 192.0, 0.0, 0.0, 0.0, 0.0, 0.0, 0.0, 0.0, 0.0, 0.0, 1.7068833702538435E9, 0.0, 2024-02-02 15:16:10.253
192.0, 63569.255300671495, 65756.66406830121, -28270.35227660564, -15763.657184083128, 16492.5922742596, 5211.689199410582, 22736.730901805273, 4805.222726490823, 41874.33920792809, 47342.827599385695, 37522.34280375753, 50555.30971948025, 22804.568446227127, 27644.27991441249, -8959.9649858433, -3831.714848484379, -0.11, 0.984, 0.294, 192.0, 0.0, 0.0, 0.0, 0.0, 0.0, 0.0, 0.0, 0.0, 0.0, 1.7068833702605956E9, 0.0, 2024-02-02 15:16:10.260
194.0, 63568.09300995982, 65755.88175724528, -28277.393076109063, -15775.190684222065, 16489.395974802494, 5202.167356272621, 22730.539468591152, 4797.444319420376, 41868.39364390298, 47340.27950051779, 37517.067792066075, 50551.42051594502, 22800.031042102702, 27635.272161397002, -8965.843494635046, -3839.8285317216555, -0.11, 0.984, 0.294, 192.0, 0.0, 0.0, 0.0, 0.0, 0.0, 0.0, 0.0, 0.0, 0.0, 1.7068833702686462E9, 0.0, 2024-02-02 15:16:10.268
196.0, 63565.85783551429, 65750.517338576, -28283.606861067638, -15783.170256992611, 16489.59714050259, 5198.658132393138, 22731.858221514016, 4795.790290330683, 41864.32562641211, 47337.03849757177, 37511.88218735244, 50543.86562631913, 22799.76282116924, 27630.108908427825, -8970.872637137489, -3848.8362847371445, -0.114, 0.974, 0.29, 192.0, 126.0, 56.0, 15.0, 56.0, 4.5, 8.0, 0.0, 0.0, 0.0, 1.70688337027791E9, 0.0, 2024-02-02 15:16:10.277
198.0, 63571.95986175059, 65756.44055085666, -28278.488311587374, -15779.102239501744, 16490.290044580703, 5205.944801085568, 22730.673579057882, 4800.506508410753, 41861.57636184411, 47332.836369614175, 37513.17858853085, 50542.52452165181, 22799.718117680328, 27631.71823402861, -8973.308977283117, -3851.742011516334, -0.114, 0.974, 0.29, 192.0, 0.0, 0.0, 0.0, 0.0, 0.0, 0.0, 0.0, 0.0, 0.0, 1.7068833702856753E9, 0.0, 2024-02-02 15:16:10.285
200.0, 63569.72468730506, 65750.49498683155, -28281.662259300025, -15780.97978603599, 16483.673928221935, 5203.039074306378, 22725.68914004435, 4794.315075196633, 41860.14585019897, 47343.16287555252, 37513.53621644214, 50544.26795771933, 22800.634539202994, 27630.64535029475, -8975.477096495282, -3848.5457120592255, -0.114, 0.974, 0.29, 192.0, 0.0, 0.0, 0.0, 0.0, 0.0, 0.0, 0.0, 0.0, 0.0, 1.7068833702927463E9, 0.0, 2024-02-02 15:16:10.292
202.0, 63576.117286219276, 65757.78165552398, -28273.660334785025, -15770.094486486256, 16485.93145441192, 5208.783472631392, 22726.3149888891, 4799.388921187988, 41857.97773098681, 47334.713916148416, 37521.09110606803, 50549.09593452167, 22798.22055080182, 27628.164306660216, -8969.553884214627, -3843.0471829232197, -0.114, 0.974, 0.29, 192.0, 0.0, 0.0, 0.0, 0.0, 0.0, 0.0, 0.0, 0.0, 0.0, 1.7068833703007462E9, 0.0, 2024-02-02 15:16:10.300
204.0, 63577.68190833115, 65760.88854800326, -28267.982991693378, -15766.249986439943, 16487.004338145773, 5205.3636557297295, 22729.980674979768, 4802.47346192282, 41854.20028617386, 47339.72070690641, 37523.68390842485, 50554.21448400194, 22799.76282116924, 27632.388786362266, -8969.330366770073, -3840.1414561440297, -0.114, 0.974, 0.29, 192.0, 0.0, 0.0, 0.0, 0.0, 0.0, 0.0, 0.0, 0.0, 0.0, 1.7068833703099928E9, 0.0, 2024-02-02 15:16:10.309
206.0, 63577.39133565323, 65758.74278053555, -28269.592317294162, -15770.318003930808, 16488.16662885745, 5202.50263243945, 22727.96901797879, 4796.751415342262, 41852.12157393951, 47344.36986975311, 37527.10372532651, 50557.79076311478, 22807.831800917604, 27634.33338812988, -8966.558750457616, -3839.8955869550214, -0.114, 0.97, 0.28600000000000003, 192.0, 126.0, 56.0, 15.0, 40.0, 4.0, 120.0, 0.0, 0.0, 0.0, 1.7068833703168995E9, 0.0, 2024-02-02 15:16:10.316
208.0, 63572.38454489524, 65756.12762643429, -28274.554404563238, -15774.0730969993, 16489.55243701368, 5200.401568460652, 22729.421881368387, 4799.008941532247, 41850.80282101665, 47334.24452951486, 37529.11538232749, 50555.19796075797, 22809.75405094076, 27629.79598400545, -8962.669546922392, -3835.134665386041, -0.114, 0.97, 0.28600000000000003, 192.0, 0.0, 0.0, 0.0, 0.0, 0.0, 0.0, 0.0, 0.0, 0.0, 1.7068833703247511E9, 0.0, 2024-02-02 15:16:10.324
210.0, 63567.57891983735, 65752.52899557698, -28279.717657532416, -15775.41420166662, 16485.462067778357, 5200.356864971741, 22725.331512133063, 4797.779595587206, 41833.88255046398, 47329.684773645975, 37513.33505074204, 50543.128018752104, 22794.197236799864, 27626.622036292796, -8976.527628484682, -3845.3270608576613, -0.114, 0.97, 0.28600000000000003, 192.0, 0.0, 0.0, 0.0, 0.0, 0.0, 0.0, 0.0, 0.0, 0.0, 1.7068833703339968E9, 0.0, 2024-02-02 15:16:10.333
212.0, 63578.15129496471, 65763.59310908236, -28273.481520829384, -15767.83696029627, 16493.039309148706, 5209.878708109702, 22724.593904566038, 4802.47346192282, 41839.068155177614, 47329.48360794588, 37525.22617879226, 50553.45452469045, 22803.02617585971, 27637.976722476094, -8964.792962645646, -3836.8333979646445, -0.114, 0.97, 0.28600000000000003, 192.0, 0.0, 0.0, 0.0, 0.0, 0.0, 0.0, 0.0, 0.0, 0.0, 1.7068833703417528E9, 0.0, 2024-02-02 15:16:10.341
214.0, 63574.06092572939, 65759.30157414694, -28275.046142941257, -15773.871931299202, 16491.56409401466, 5205.006027818445, 22728.63957031245, 4801.914668311438, 41838.21878888831, 47329.528311434784, 37522.81219039109, 50555.220312502424, 22801.79682991467, 27635.048643952447, -8969.464477236805, -3842.175464889463, -0.114, 0.97, 0.28600000000000003, 192.0, 0.0, 0.0, 0.0, 0.0, 0.0, 0.0, 0.0, 0.0, 0.0, 1.706883370348804E9, 0.0, 2024-02-02 15:16:10.348
216.0, 63569.411762882686, 65755.05474270043, -28278.398904609552, -15775.615367366716, 16492.949902170887, 5202.50263243945, 22730.226544168778, 4803.7475113567725, 41830.1721608844, 47330.8247126132, 37516.71016415479, 50546.36902169813, 22801.03687060319, 27631.51706832851, -8967.25165453573, -3839.7391247438345, -0.111, 0.974, 0.28500000000000003, 192.0, 126.0, 80.0, 15.0, 72.0, 4.0, 112.0, 0.0, 0.0, 0.0, 1.7068833703567793E9, 0.0, 2024-02-02 15:16:10.356
218.0, 63564.024992468956, 65751.43376009868, -28284.970317479412, -15781.627986625193, 16486.870227679043, 5198.971056815512, 22719.34124461904, 4796.751415342262, 41827.51230329422, 47322.956898564924, 37517.85010312201, 50543.843274574676, 22802.89206539298, 27632.366434617812, -8969.933863870367, -3842.846017223122, -0.111, 0.974, 0.28500000000000003, 192.0, 0.0, 0.0, 0.0, 0.0, 0.0, 0.0, 0.0, 0.0, 0.0, 1.706883370366042E9, 0.0, 2024-02-02 15:16:10.366
220.0, 63559.17466392215, 65745.89052747376, -28291.005288482345, -15785.628948882693, 16481.50580900977, 5194.008969546434, 22719.274189385676, 4793.286894951689, 41818.07986713408, 47331.69643064695, 37508.954108828795, 50540.177588484, 22794.37605075551, 27624.632731036276, -8979.947445386344, -3851.384383605049, -0.111, 0.974, 0.28500000000000003, 192.0, 0.0, 0.0, 0.0, 0.0, 0.0, 0.0, 0.0, 0.0, 0.0, 1.706883370372774E9, 0.0, 2024-02-02 15:16:10.372
222.0, 63565.03082096945, 65750.56204206492, -28286.98197448039, -15775.011870266424, 16482.891617166, 5199.999237060456, 22716.748442262226, 4795.879697308505, 41812.38017229798, 47325.88497708857, 37508.61883266197, 50542.54687339626, 22791.671489676417, 27624.252751380536, -8984.998939633244, -3853.8207237506776, -0.111, 0.974, 0.28500000000000003, 192.0, 0.0, 0.0, 0.0, 0.0, 0.0, 0.0, 0.0, 0.0, 0.0, 1.706883370380829E9, 0.0, 2024-02-02 15:16:10.380
224.0, 63564.717896547074, 65751.23259439858, -28286.669050058015, -15776.822361567303, 16481.55051249868, 5192.824327090303, 22713.909770716404, 4791.074072250613, 41817.7222392228, 47335.898558604546, 37518.833579878046, 50555.44382994698, 22803.920245637924, 27639.250771910047, -8975.477096495282, -3844.209473634896, -0.111, 0.974, 0.28500000000000003, 192.0, 0.0, 0.0, 0.0, 0.0, 0.0, 0.0, 0.0, 0.0, 0.0, 1.7068833703888237E9, 0.0, 2024-02-02 15:16:10.388
226.0, 63568.852969271305, 65753.40071361074, -28284.724448290403, -15778.990480779468, 16483.651576477478, 5193.0925480237665, 22720.056500441613, 4793.890392051982, 41808.870948418495, 47335.049192315244, 37514.02795482015, 50546.905463565054, 22799.628710702505, 27623.403385091235, -8982.96493088781, -3853.261930139295, -0.1095, 0.977, 0.28350000000000003, 192.0, 126.0, 80.0, 15.0, 80.0, 4.0, 104.0, 0.0, 0.0, 0.0, 1.7068833703978746E9, 0.0, 2024-02-02 15:16:10.397
228.0, 63569.38941113823, 65755.34531537835, -28284.03154421229, -15779.884550557681, 16486.02086138974, 5196.042978291867, 22727.87961100097, 4796.8184705756275, 41808.75918969622, 47326.77904686678, 37518.14067579993, 50547.35249845416, 22802.17680957041, 27624.722138014098, -8975.67826219538, -3848.4786568258596, -0.1095, 0.977, 0.28350000000000003, 192.0, 0.0, 0.0, 0.0, 0.0, 0.0, 0.0, 0.0, 0.0, 0.0, 1.7068833704048278E9, 0.0, 2024-02-02 15:16:10.404
230.0, 63566.70720180359, 65755.30061188944, -28284.210358167933, -15775.481256899984, 16488.300739324182, 5200.915658583124, 22728.661922056905, 4803.725159612317, 41809.09446586305, 47342.08999181867, 37517.26895776617, 50551.018184544824, 22805.350757283064, 27629.70657702763, -8974.9183028839, -3849.171560903974, -0.1095, 0.977, 0.28350000000000003, 192.0, 0.0, 0.0, 0.0, 0.0, 0.0, 0.0, 0.0, 0.0, 0.0, 1.706883370412868E9, 0.0, 2024-02-02 15:16:10.412
232.0, 63573.01039373999, 65759.7262572916, -28279.78471276578, -15769.490989385962, 16492.905198681976, 5208.1799755310985, 22730.20419242432, 4807.435549191899, 41804.60176522753, 47333.84219811466, 37516.777219388154, 50550.124114766615, 22808.36824278453, 27634.75807127453, -8975.208875561819, -3846.7352207583453, -0.1095, 0.977, 0.28350000000000003, 192.0, 0.0, 0.0, 0.0, 0.0, 0.0, 0.0, 0.0, 0.0, 0.0, 1.70688337042212E9, 0.0, 2024-02-02 15:16:10.422
234.0, 63568.47298961556, 65756.5746613234, -28282.153997678044, -15772.97786152099, 16488.07722187963, 5204.111958040233, 22722.582247565064, 4800.171232243923, 41807.686305962365, 47341.352384251644, 37523.572149702566, 50559.95888232695, 22812.816239931137, 27640.390710877266, -8970.000919103733, -3841.326098600161, -0.1095, 0.977, 0.28350000000000003, 192.0, 0.0, 0.0, 0.0, 0.0, 0.0, 0.0, 0.0, 0.0, 0.0, 1.7068833704279268E9, 0.0, 2024-02-02 15:16:10.427
236.0, 63564.650841313705, 65749.71267577562, -28288.12191344761, -15783.1255535037, 16491.31822482565, 5204.089606295777, 22729.332474390565, 4802.495813667276, 41798.455035502324, 47336.390296982565, 37514.631451920446, 50551.64403338957, 22804.389632271486, 27632.07586193989, -8976.572331973593, -3848.076325425664, -0.11175, 0.9764999999999999, 0.28475000000000006, 192.0, 126.0, 56.0, 15.0, 64.0, 4.0, 120.0, 0.0, 0.0, 0.0, 1.7068833704369228E9, 0.0, 2024-02-02 15:16:10.436
238.0, 63570.506998360994, 65755.25590840053, -28284.344468634663, -15781.69504185856, 16495.810925461166, 5204.558992929339, 22734.227506426276, 4806.385017202499, 41797.493910490746, 47331.94229983596, 37517.47012346627, 50550.682908377996, 22806.736565439292, 27627.18082990418, -8969.129201069976, -3843.784790490245, -0.11175, 0.9764999999999999, 0.28475000000000006, 192.0, 0.0, 0.0, 0.0, 0.0, 0.0, 0.0, 0.0, 0.0, 0.0, 1.706883370444945E9, 0.0, 2024-02-02 15:16:10.444
240.0, 63557.498283088, 65743.18596639467, -28296.257948429342, -15788.087640772777, 16481.997547387786, 5196.780585858892, 22718.290712629645, 4795.276200208211, 41788.530860964165, 47336.72557314939, 37505.51194018268, 50542.90450130755, 22805.12723983851, 27626.89025722626, -8977.712270940814, -3848.2104358923957, -0.11175, 0.9764999999999999, 0.28475000000000006, 192.0, 0.0, 0.0, 0.0, 0.0, 0.0, 0.0, 0.0, 0.0, 0.0, 1.7068833704531112E9, 0.0, 2024-02-02 15:16:10.453
242.0, 63565.65666981419, 65754.85357700034, -28284.813855268225, -15776.531788889384, 16497.241437106306, 5210.392798232174, 22739.346055906542, 4809.938944570893, 41784.060512073105, 47325.281479988276, 37504.70727738229, 50539.3282221947, 22802.04269910368, 27625.3703386033, -8974.82889590608, -3847.3834213475493, -0.11175, 0.9764999999999999, 0.28475000000000006, 192.0, 0.0, 0.0, 0.0, 0.0, 0.0, 0.0, 0.0, 0.0, 0.0, 1.7068833704609582E9, 0.0, 2024-02-02 15:16:10.460
244.0, 63562.14744593471, 65754.09361768885, -28292.435800127485, -15783.661995370627, 16487.093745123595, 5200.155699271643, 22717.039014940146, 4798.181926987401, 41790.87779413197, 47339.117209806114, 37514.497341453716, 50549.45356243296, 22808.54705674017, 27627.404347348733, -8971.364375515506, -3841.460209066893, -0.11175, 0.9764999999999999, 0.28475000000000006, 192.0, 0.0, 0.0, 0.0, 0.0, 0.0, 0.0, 0.0, 0.0, 0.0, 1.7068833704689753E9, 0.0, 2024-02-02 15:16:10.468
246.0, 63561.16396917868, 65753.44541709965, -28291.07234371571, -15786.523018660906, 16486.26673057875, 5200.222754505009, 22724.50449758822, 4798.6960171098735, 41782.65235217242, 47337.1726080385, 37508.01533556168, 50542.74803909636, 22803.339100282086, 27628.499582827044, -8983.613131477015, -3852.971357461376, -0.110875, 0.97625, 0.28337500000000004, 192.0, 126.0, 72.0, 15.0, 64.0, 4.0, 104.0, 0.0, 0.0, 0.0, 1.7068833704780977E9, 0.0, 2024-02-02 15:16:10.478
248.0, 63563.84617851331, 65754.9653357226, -28287.563119836228, -15783.1255535037, 16490.781782958722, 5206.548298185861, 22734.003988981724, 4808.888412581493, 41777.623209669975, 47328.43307595648, 37509.55760592909, 50543.50799840785, 22801.79682991467, 27627.583161304377, -8978.941616885855, -3852.881950483555, -0.110875, 0.97625, 0.28337500000000004, 192.0, 0.0, 0.0, 0.0, 0.0, 0.0, 0.0, 0.0, 0.0, 0.0, 1.7068833704839816E9, 0.0, 2024-02-02 15:16:10.483
250.0, 63561.432190112144, 65756.8652340013, -28294.78273329529, -15788.735841361982, 16485.260902078262, 5203.687274895582, 22720.123555674978, 4801.937020055892, 41780.23836377125, 47347.09678257666, 37510.54108268512, 50551.241701989384, 22805.12723983851, 27636.881486997783, -8977.48875349626, -3846.5787585471585, -0.110875, 0.97625, 0.28337500000000004, 192.0, 0.0, 0.0, 0.0, 0.0, 0.0, 0.0, 0.0, 0.0, 0.0, 1.7068833704929576E9, 0.0, 2024-02-02 15:16:10.492
252.0, 63560.806341267395, 65754.1159694333, -28291.787599538282, -15786.388908194174, 16491.653500992477, 5207.576478430806, 22734.473375615285, 4804.820395090627, 41769.19660201033, 47333.171645781, 37504.640222148926, 50543.686812363485, 22803.294396793175, 27632.589952062364, -8981.802640176134, -3853.7089650284015, -0.110875, 0.97625, 0.28337500000000004, 192.0, 0.0, 0.0, 0.0, 0.0, 0.0, 0.0, 0.0, 0.0, 0.0, 1.706883370501024E9, 0.0, 2024-02-02 15:16:10.501
254.0, 63558.32529763285, 65750.98672520957, -28295.497989117863, -15788.758193106438, 16484.769163700243, 5200.4909754384735, 22724.2139249103, 4800.059473521647, 41767.38611070944, 47337.12790454959, 37505.266070993675, 50545.18437924199, 22802.534437481696, 27632.858172995828, -8980.103907597531, -3850.356203360105, -0.110875, 0.97625, 0.28337500000000004, 192.0, 0.0, 0.0, 0.0, 0.0, 0.0, 0.0, 0.0, 0.0, 0.0, 1.7068833705092888E9, 0.0, 2024-02-02 15:16:10.509
0.0, 63565.36609713628, 65758.1169316908, -28288.680707058993, -15781.98561453648, 16491.385280059014, 5207.487071452984, 22734.78630003766, 4808.173156758923, 41766.022654297674, 47337.865512116616, 37508.261204750685, 50547.64307113208, 22798.578178713105, 27625.258579881025, -8984.73071869978, -3853.7983720062225, -0.1124375, 0.979125, 0.28568750000000004, 192.0, 126.0, 56.0, 15.0, 88.0, 4.5, 0.0, 0.0, 0.0, 0.0, 1.706883370517162E9, 0.0, 2024-02-02 15:16:10.517
