%OpenBCI Raw EXG Data
%Number of channels = 16
%Sample Rate = 125 Hz
%Board = OpenBCI_GUI$BoardCytonSerialDaisy
Sample Index, EXG Channel 0, EXG Channel 1, EXG Channel 2, EXG Channel 3, EXG Channel 4, EXG Channel 5, EXG Channel 6, EXG Channel 7, EXG Channel 8, EXG Channel 9, EXG Channel 10, EXG Channel 11, EXG Channel 12, EXG Channel 13, EXG Channel 14, EXG Channel 15, Accel Channel 0, Accel Channel 1, Accel Channel 2, Other, Other, Other, Other, Other, Other, Other, Analog Channel 0, Analog Channel 1, Analog Channel 2, Timestamp, Other, Timestamp (Formatted)
0.0, 62277.615043832666, 64894.84785733794, -28763.476462778624, -821.2477947768921, 16669.77455255682, 6642.111437572413, 25710.02700448358, 6072.007843495351, 0.0, 0.0, 0.0, 0.0, 0.0, 0.0, 0.0, 0.0, 0.0, 0.0, 0.0, 192.0, 0.0, 0.0, 0.0, 0.0, 0.0, 0.0, 0.0, 0.0, 0.0, 1.7068830858097324E9, 0.0, 2024-02-02 15:11:25.809
254.0, 62292.99304401792, 64907.94597958875, -28761.084826121907, -780.2993989347696, 16667.427619389015, 6667.8382954404715, 25706.786001537563, 6075.181791208004, 41786.295686518635, 47227.82787416314, 37297.61836500387, 47595.62582917522, 23399.415421416215, 26297.229683068956, -7898.368882938491, -858.4187458060677, 0.0, 0.0, 0.0, 192.0, 0.0, 0.0, 0.0, 0.0, 0.0, 0.0, 0.0, 0.0, 0.0, 1.7068830858097517E9, 0.0, 2024-02-02 15:11:25.809
0.0, 31243.89424847296, 32737.05783332084, -15113.109661711414, -1002.8333667318067, 8350.477618035986, 3298.2234118251104, 12712.979342100543, 2864.8230868367064, 20875.210568333932, 23611.44406931926, 18637.68918963542, 23785.854731304018, 11695.259713561501, 13135.449664050302, -3954.291815077283, -431.6792406653453, -0.094, 0.986, 0.26, 192.0, 126.5, 8.0, 15.0, 104.0, 4.0, 16.0, 0.0, 0.0, 0.0, 1.706883085887503E9, 0.0, 2024-02-02 15:11:25.887
2.0, 62520.60085780631, 65495.416879107586, -30225.07938445561, -2005.1526433411414, 16699.36826221565, 6594.636332349341, 25424.774041744953, 5728.416827728371, 40131.1713613476, 47151.29550114817, 37308.391905831326, 47858.683509669725, 23420.426061204205, 26569.920965423702, -8099.065196402693, -1316.741265862139, -0.094, 0.986, 0.26, 192.0, 0.0, 0.0, 0.0, 0.0, 0.0, 0.0, 0.0, 0.0, 0.0, 1.7068830858947377E9, 0.0, 2024-02-02 15:11:25.894
4.0, 62508.597971033814, 65479.591844033224, -30230.287340913696, -2012.5063672669373, 16694.741451113397, 6589.048396235514, 25418.78377423093, 5723.65590615939, 40119.21317806401, 47151.13903893698, 37305.15090288531, 47855.66602416826, 23410.300720965948, 26558.74509319605, -8110.777510497273, -1329.7052776462172, -0.094, 0.986, 0.26, 192.0, 0.0, 0.0, 0.0, 0.0, 0.0, 0.0, 0.0, 0.0, 0.0, 1.7068830859024956E9, 0.0, 2024-02-02 15:11:25.902
6.0, 62501.49011629703, 65475.277957353355, -30225.92875074491, -2010.651172477147, 16695.322596469236, 6589.450727635709, 25419.811954475877, 5727.3662957389715, 40105.19863429054, 47143.89707373346, 37308.034277920044, 47852.22385552214, 23417.140354769275, 26561.226136830588, -8104.228449371869, -1322.932699076259, -0.094, 0.986, 0.26, 192.0, 0.0, 0.0, 0.0, 0.0, 0.0, 0.0, 0.0, 0.0, 0.0, 1.706883085910578E9, 0.0, 2024-02-02 15:11:25.910
8.0, 62492.03532839243, 65465.75611421539, -30229.661492068946, -2017.803730702845, 16688.192389987995, 6582.63344557684, 25414.559294528877, 5718.4479497013035, 40110.294832026346, 47153.95535873835, 37310.51532155458, 47853.27438751154, 23417.00624430254, 26561.673171719693, -8106.105995906115, -1325.0114113106026, -0.088, 0.988, 0.266, 192.0, 126.5, 32.0, 15.0, 112.0, 4.0, 40.0, 0.0, 0.0, 0.0, 1.7068830859185193E9, 0.0, 2024-02-02 15:11:25.918
10.0, 62520.80202350641, 65493.74049827344, -30211.757744760245, -2004.6832567075799, 16700.239980249404, 6596.715044583684, 25419.677844009144, 5732.4177899858705, 40120.24135830896, 47142.93594872188, 37318.27137688058, 47853.34144274491, 23419.86726759282, 26560.265011819007, -8099.22165861388, -1320.8763385863708, -0.088, 0.988, 0.266, 192.0, 0.0, 0.0, 0.0, 0.0, 0.0, 0.0, 0.0, 0.0, 0.0, 1.706883085926676E9, 0.0, 2024-02-02 15:11:25.926
12.0, 62525.585296819845, 65504.96107399, -30217.07745994061, -2005.1749950855965, 16695.50141042488, 6593.630503848852, 25433.267704637972, 5735.435275487337, 40147.689300500075, 47165.95824551085, 37324.79808626152, 47867.847724896405, 23422.10244203835, 26579.06282890592, -8100.585115025654, -1320.2504897416222, -0.088, 0.988, 0.266, 192.0, 0.0, 0.0, 0.0, 0.0, 0.0, 0.0, 0.0, 0.0, 0.0, 1.7068830859335704E9, 0.0, 2024-02-02 15:11:25.933
14.0, 62520.958485717594, 65500.06604195429, -30225.07938445561, -2009.1089021097307, 16691.075765022728, 6590.277742180556, 25424.259951622484, 5726.673391660856, 40149.164515634126, 47158.269245418225, 37318.38313560285, 47866.26075104008, 23412.334729711383, 26557.605154228826, -8100.942742936939, -1317.7247426181725, -0.088, 0.988, 0.266, 192.0, 0.0, 0.0, 0.0, 0.0, 0.0, 0.0, 0.0, 0.0, 0.0, 1.7068830859425604E9, 0.0, 2024-02-02 15:11:25.942
16.0, 62527.17227067617, 65508.62676008067, -30224.677053055413, -2005.0185328744094, 16694.137954013106, 6594.435166649243, 25423.678806266646, 5727.299240505605, 40169.66106529964, 47156.54816109517, 37320.126571670364, 47870.68639644222, 23411.083032021885, 26577.00646841603, -8102.775585982274, -1318.4176466962872, -0.088, 0.988, 0.266, 192.0, 0.0, 0.0, 0.0, 0.0, 0.0, 0.0, 0.0, 0.0, 0.0, 1.7068830859505696E9, 0.0, 2024-02-02 15:11:25.950
18.0, 62529.51920384398, 65511.37602464867, -30223.201837921362, -2005.9796578859875, 16696.127259269626, 6593.988131760137, 25423.87997196674, 5725.444045715814, 40183.832071284305, 47157.419879128924, 37313.9574902007, 47864.8972946283, 23404.891598807764, 26569.295116578953, -8104.988408683349, -1318.5964606519296, -0.094, 0.986, 0.27, 192.0, 126.5, 8.0, 15.0, 104.0, 4.0, 56.0, 0.0, 0.0, 0.0, 1.7068830859586153E9, 0.0, 2024-02-02 15:11:25.958
20.0, 62553.346163433336, 65537.75108310593, -30223.82768676611, -2008.2371840759736, 16692.68509062351, 6592.423509648265, 25408.054936892386, 5717.486824689726, 40213.04580128739, 47149.48500984729, 37323.568740316485, 47871.66987319826, 23407.55145639795, 26576.492378293562, -8098.908734191506, -1315.578975150463, -0.094, 0.986, 0.27, 192.0, 0.0, 0.0, 0.0, 0.0, 0.0, 0.0, 0.0, 0.0, 0.0, 1.7068830859666307E9, 0.0, 2024-02-02 15:11:25.966
22.0, 62562.4656751711, 65543.38372270868, -30216.295148884674, -2004.5044427519374, 16698.16126801506, 6596.178602716756, 25416.660358507677, 5726.6063364274905, 40232.87179861925, 47158.06807971813, 37324.01577520559, 47873.32390228795, 23405.62920637479, 26574.63718350377, -8106.396568584034, -1322.8879955873485, -0.094, 0.986, 0.27, 192.0, 0.0, 0.0, 0.0, 0.0, 0.0, 0.0, 0.0, 0.0, 0.0, 1.7068830859748557E9, 0.0, 2024-02-02 15:11:25.974
24.0, 62572.14398052025, 65554.11256004722, -30215.870465740023, -2000.4587770055268, 16703.346872728693, 6602.168870230779, 25434.877030238753, 5736.552862710102, 40245.52288598095, 47164.52773386571, 37331.72712704267, 47881.92932390324, 23406.791497086466, 26581.476817307095, -8094.907771934006, -1309.678114614262, -0.094, 0.986, 0.27, 192.0, 0.0, 0.0, 0.0, 0.0, 0.0, 0.0, 0.0, 0.0, 0.0, 1.7068830859829972E9, 0.0, 2024-02-02 15:11:25.982
26.0, 62578.89420734575, 65559.11935080521, -30220.02789020871, -2003.7221316960017, 16701.44697444999, 6595.798623061017, 25427.16567840167, 5728.573289939558, 40252.764851184475, 47163.94658850987, 37328.37436537437, 47881.59404773641, 23406.85855231983, 26582.080314407387, -8097.813498713196, -1312.7179518601838, -0.094, 0.986, 0.27, 192.0, 0.0, 0.0, 0.0, 0.0, 0.0, 0.0, 0.0, 0.0, 0.0, 1.7068830859896564E9, 0.0, 2024-02-02 15:11:25.989
28.0, 62599.34605352236, 65581.60520572725, -30216.74218377378, -1999.6317624606804, 16705.78321287432, 6602.59355337543, 25428.864410980277, 5732.171920796862, 40271.003874660004, 47178.36346368354, 37332.75530728761, 47886.89141117232, 23411.239494233072, 26588.69643076616, -8096.382987068056, -1311.8015303375162, -0.098, 0.984, 0.28, 192.0, 126.0, 120.0, 15.0, 96.0, 4.0, 96.0, 0.0, 0.0, 0.0, 1.7068830859987051E9, 0.0, 2024-02-02 15:11:25.998
30.0, 62616.15456535275, 65600.31361583633, -30214.104677928055, -2000.1905560720631, 16713.44986122249, 6605.074597009969, 25440.889649497232, 5737.08930457703, 40282.53737479894, 47178.36346368354, 37338.29853991253, 47888.411329795286, 23410.63599713278, 26587.93647145468, -8091.264437587791, -1311.421550681776, -0.098, 0.984, 0.28, 192.0, 0.0, 0.0, 0.0, 0.0, 0.0, 0.0, 0.0, 0.0, 0.0, 1.7068830860066571E9, 0.0, 2024-02-02 15:11:26.006
32.0, 62613.897039162766, 65605.70038625007, -30225.481715855803, -2007.4772247644933, 16699.25650349337, 6595.306884682999, 25422.47181206606, 5723.812368370577, 40289.13113941326, 47190.67927487842, 37337.42682187877, 47890.28887632953, 23405.96448254162, 26586.30479410944, -8096.2712283457795, -1314.2825739720554, -0.098, 0.984, 0.28, 192.0, 0.0, 0.0, 0.0, 0.0, 0.0, 0.0, 0.0, 0.0, 0.0, 1.70688308601487E9, 0.0, 2024-02-02 15:11:26.014
34.0, 62619.48497527659, 65609.47783106302, -30228.275683912718, -2007.2090038310296, 16699.36826221565, 6597.743224828628, 25417.12974514124, 5721.890118347421, 40285.24193587803, 47176.82119331613, 37328.55317933002, 47882.175193092255, 23393.71572658011, 26586.9753464431, -8109.5928680411425, -1328.967670079192, -0.098, 0.984, 0.28, 192.0, 0.0, 0.0, 0.0, 0.0, 0.0, 0.0, 0.0, 0.0, 0.0, 1.7068830860216491E9, 0.0, 2024-02-02 15:11:26.021
36.0, 62629.07387364792, 65625.68284579311, -30225.101736200064, -2002.6715997066021, 16703.190410517505, 6600.626599863363, 25422.158887643684, 5725.086417804529, 40297.1107121838, 47181.112728251544, 37335.83984802244, 47893.32871357545, 23398.521351638003, 26594.619643046815, -8106.798899984229, -1324.229100254667, -0.098, 0.984, 0.28, 192.0, 0.0, 0.0, 0.0, 0.0, 0.0, 0.0, 0.0, 0.0, 0.0, 1.706883086030697E9, 0.0, 2024-02-02 15:11:26.030
38.0, 62632.65015276077, 65629.08031095032, -30225.74993678927, -2002.582192728781, 16702.87748609513, 6597.966742273181, 25424.7516900005, 5724.862900359977, 40309.22535767858, 47191.93097256792, 37343.23827543715, 47902.42587356876, 23405.025709274498, 26596.519541325517, -8101.523888292777, -1319.6246408968736, -0.096, 0.98, 0.276, 192.0, 126.5, 0.0, 15.0, 80.0, 4.0, 80.0, 0.0, 0.0, 0.0, 1.706883086038712E9, 0.0, 2024-02-02 15:11:26.038
40.0, 62644.16130115525, 65640.12207271124, -30217.435087851896, -1997.2177740595073, 16713.31575075576, 6604.940486543237, 25439.660303552188, 5733.513025464181, 40311.50523561302, 47174.407204914954, 37338.455002123716, 47897.28497234404, 23397.694337093155, 26584.986041186577, -8103.133213893559, -1325.8160741109937, -0.096, 0.98, 0.276, 192.0, 0.0, 0.0, 0.0, 0.0, 0.0, 0.0, 0.0, 0.0, 0.0, 1.7068830860460281E9, 0.0, 2024-02-02 15:11:26.046
42.0, 62649.50336808007, 65646.26880243645, -30213.210608149842, -1992.0768728347866, 16716.959085101975, 6602.97353303117, 25447.304600155905, 5736.329345265549, 40336.36037544732, 47195.328437725126, 37351.06138599651, 47910.65131552832, 23411.351252955348, 26595.446657591663, -8083.016643883782, -1308.0911407579351, -0.096, 0.98, 0.276, 192.0, 0.0, 0.0, 0.0, 0.0, 0.0, 0.0, 0.0, 0.0, 0.0, 1.7068830860537426E9, 0.0, 2024-02-02 15:11:26.053
44.0, 62653.99606871558, 65652.10260773929, -30211.08719242659, -1988.2994280218397, 16722.457614237977, 6609.366131945388, 25450.255030424003, 5745.4488570033145, 40343.37882320629, 47188.66761787744, 37347.77567956158, 47901.97883867966, 23407.506752909037, 26586.863587720825, -8086.682329974453, -1314.7519606056167, -0.096, 0.98, 0.276, 192.0, 0.0, 0.0, 0.0, 0.0, 0.0, 0.0, 0.0, 0.0, 0.0, 1.7068830860627887E9, 0.0, 2024-02-02 15:11:26.062
46.0, 62655.58304257191, 65656.41649441916, -30211.802448249156, -1994.423806002594, 16719.484832225422, 6605.387521432343, 25444.89061175473, 5744.733601180745, 40359.2262100251, 47193.09326327959, 37354.883534298366, 47910.628963783856, 23416.939189069177, 26609.528256598504, -8078.903922904006, -1307.0629605129911, -0.096, 0.98, 0.276, 192.0, 0.0, 0.0, 0.0, 0.0, 0.0, 0.0, 0.0, 0.0, 0.0, 1.706883086070154E9, 0.0, 2024-02-02 15:11:26.070
48.0, 62644.720094766635, 65645.06180823587, -30224.811163522147, -2010.293544565862, 16703.25746575087, 6592.267047437078, 25426.31631211237, 5729.6014701845015, 40351.02311981, 47190.81338534515, 37342.6124265924, 47896.12268163236, 23404.57867438539, 26592.25035813455, -8097.254705101813, -1324.519672932586, -0.088, 0.984, 0.278, 192.0, 126.5, 32.0, 15.0, 96.0, 4.0, 88.0, 0.0, 0.0, 0.0, 1.7068830860777888E9, 0.0, 2024-02-02 15:11:26.077
50.0, 62651.58208031441, 65655.7459420855, -30209.924901714912, -1994.6026199582363, 16715.64033217911, 6605.946315043726, 25441.56020183089, 5745.694726192323, 40351.73837563257, 47183.347902697074, 37347.68627258376, 47897.28497234404, 23406.25505521954, 26590.126942411298, -8098.573458024676, -1324.4302659547648, -0.088, 0.984, 0.278, 192.0, 0.0, 0.0, 0.0, 0.0, 0.0, 0.0, 0.0, 0.0, 0.0, 1.7068830860867467E9, 0.0, 2024-02-02 15:11:26.086
52.0, 62676.526627126535, 65675.34842197281, -30205.92393945741, -1995.809614158823, 16716.534401957324, 6600.380730674355, 25449.04803622342, 5745.314746536583, 40368.949218863156, 47196.088397036605, 37355.62114186539, 47909.26550737209, 23413.184096000685, 26604.700279796158, -8093.432556799956, -1321.770408364583, -0.088, 0.984, 0.278, 192.0, 0.0, 0.0, 0.0, 0.0, 0.0, 0.0, 0.0, 0.0, 0.0, 1.7068830860937812E9, 0.0, 2024-02-02 15:11:26.093
54.0, 62708.08729029743, 65707.55728573291, -30196.06682015262, -1990.2216780449962, 16718.07667232474, 6607.957972044704, 25449.22685017906, 5748.823970416066, 40385.377751037806, 47201.07283605014, 37371.06619728401, 47920.44137959974, 23414.7263663681, 26588.74113425507, -8092.672597488475, -1321.7257048756726, -0.088, 0.984, 0.278, 192.0, 0.0, 0.0, 0.0, 0.0, 0.0, 0.0, 0.0, 0.0, 0.0, 1.7068830861018193E9, 0.0, 2024-02-02 15:11:26.101
56.0, 62698.341929714916, 65702.95282637511, -30200.470113810316, -1988.3441315107505, 16710.119451298648, 6600.73835858564, 25435.502879083502, 5738.095133077519, 40398.47587328862, 47211.309935010664, 37382.10795904493, 47933.71831580619, 23421.11896528232, 26600.475800094107, -8086.011777640793, -1313.3438007049324, -0.088, 0.984, 0.278, 192.0, 0.0, 0.0, 0.0, 0.0, 0.0, 0.0, 0.0, 0.0, 0.0, 1.7068830861099784E9, 0.0, 2024-02-02 15:11:26.109
58.0, 62707.57320017496, 65714.46397476959, -30193.295203840164, -1982.48797446346, 16717.964913602464, 6608.852041822915, 25447.19284143363, 5743.370144768971, 40394.743131964584, 47211.98048734433, 37373.72605487419, 47929.40442912632, 23416.44745069116, 26607.158971686244, -8085.765908451785, -1311.9579925487033, -0.088, 0.986, 0.28200000000000003, 192.0, 126.5, 32.0, 15.0, 104.0, 4.0, 104.0, 0.0, 0.0, 0.0, 1.7068830861188111E9, 0.0, 2024-02-02 15:11:26.118
60.0, 62710.21070602068, 65715.13452710325, -30202.191198133376, -1990.3110850228175, 16714.455689722978, 6602.414739419787, 25435.45817559459, 5733.0659905750745, 40399.05701864446, 47213.276888522734, 37376.9223543313, 47932.645432072335, 23414.77106985701, 26604.879093751802, -8082.033167127749, -1311.6897716152396, -0.088, 0.986, 0.28200000000000003, 192.0, 0.0, 0.0, 0.0, 0.0, 0.0, 0.0, 0.0, 0.0, 0.0, 1.7068830861258235E9, 0.0, 2024-02-02 15:11:26.125
62.0, 62701.80645010548, 65708.80898342241, -30214.663471539436, -1999.5423554828592, 16704.531515184823, 6597.184431217245, 25428.26091387998, 5726.807502127588, 40392.150329607764, 47213.90273736748, 37363.84658382495, 47922.54244357854, 23405.942130797164, 26600.25228264955, -8096.450042301422, -1323.1338647763569, -0.088, 0.986, 0.28200000000000003, 192.0, 0.0, 0.0, 0.0, 0.0, 0.0, 0.0, 0.0, 0.0, 0.0, 1.706883086133848E9, 0.0, 2024-02-02 15:11:26.133
64.0, 62675.58785385941, 65690.52525645796, -30218.12799193001, -2007.454873020038, 16702.475154694934, 6598.816108562482, 25427.568009801867, 5727.32159225006, 40390.94333540718, 47210.840548377106, 37362.19255473525, 47920.709600533206, 23404.06458426292, 26598.88882623778, -8098.774623724774, -1325.3019839885217, -0.088, 0.986, 0.28200000000000003, 192.0, 0.0, 0.0, 0.0, 0.0, 0.0, 0.0, 0.0, 0.0, 0.0, 1.70688308614303E9, 0.0, 2024-02-02 15:11:26.143
66.0, 62710.501278698604, 65725.10340513031, -30210.01430869273, -1989.2158495445074, 16708.130146042127, 6604.895783054327, 25430.630198792245, 5732.4177899858705, 40394.49726277558, 47214.37212400104, 37366.93112455978, 47923.43651335675, 23404.802191829946, 26594.88786398028, -8099.020492913783, -1325.7937223665385, -0.088, 0.986, 0.28200000000000003, 192.0, 0.0, 0.0, 0.0, 0.0, 0.0, 0.0, 0.0, 0.0, 0.0, 1.7068830861498752E9, 0.0, 2024-02-02 15:11:26.149
68.0, 62723.17471780476, 65733.06062615641, -30206.59449179107, -1988.4782419774822, 16707.616055919654, 6605.87925981036, 25422.583570788334, 5729.1320835509405, 40399.302887833466, 47231.11358059807, 37380.38687472187, 47941.67553683228, 23406.389165686272, 26614.9820822456, -8096.226524856869, -1312.226213482167, -0.088, 0.986, 0.276, 192.0, 126.5, 32.0, 15.0, 104.0, 4.0, 80.0, 0.0, 0.0, 0.0, 1.7068830861581655E9, 0.0, 2024-02-02 15:11:26.158
70.0, 62660.388667629806, 65677.58359641834, -30213.769401761223, -2001.1740328280966, 16705.31382624076, 6595.664512594284, 25420.571913787357, 5721.756007880689, 40396.061884887444, 47220.407095003975, 37379.269287499104, 47933.02541172808, 23408.95961629863, 26603.046250706466, -8095.354806823112, -1316.875376328871, -0.088, 0.986, 0.276, 192.0, 0.0, 0.0, 0.0, 0.0, 0.0, 0.0, 0.0, 0.0, 0.0, 1.7068830861659586E9, 0.0, 2024-02-02 15:11:26.165
72.0, 62596.14975406525, 65640.36794190024, -30220.340814631083, -2007.7230939535016, 16701.35756747217, 6592.512916626087, 25413.866390450763, 5716.436292700326, 40360.52261120351, 47200.22346976084, 37343.75236555962, 47902.35881833539, 23398.521351638003, 26582.79557022996, -8104.496670305332, -1331.9628038362032, -0.088, 0.986, 0.276, 192.0, 0.0, 0.0, 0.0, 0.0, 0.0, 0.0, 0.0, 0.0, 0.0, 1.706883086175089E9, 0.0, 2024-02-02 15:11:26.175
74.0, 62662.6908973087, 65682.99271857653, -30216.809239007147, -2004.5938497297586, 16700.932884327518, 6597.9890940176365, 25414.872218951252, 5719.431426457337, 40357.70629140214, 47208.38185648702, 37361.790223335054, 47920.50843483311, 23402.857590062333, 26603.56034082894, -8096.673559745975, -1322.8432920984378, -0.088, 0.986, 0.276, 192.0, 0.0, 0.0, 0.0, 0.0, 0.0, 0.0, 0.0, 0.0, 0.0, 1.7068830861818905E9, 0.0, 2024-02-02 15:11:26.181
76.0, 62622.23423984459, 65619.1337846677, -30215.22226515082, -1986.8242128877896, 16702.96689307295, 6598.883163795849, 25415.52041954046, 5722.2030427697955, 40344.831686595884, 47215.75793215727, 37381.48211020018, 47933.986536739656, 23405.8750755638, 26617.954864258154, -8085.609446240598, -1308.1805477357564, -0.088, 0.986, 0.276, 192.0, 0.0, 0.0, 0.0, 0.0, 0.0, 0.0, 0.0, 0.0, 0.0, 1.7068830861901367E9, 0.0, 2024-02-02 15:11:26.190
78.0, 62526.32290438687, 65554.04550481385, -30223.738279788293, -1999.2070793160296, 16699.882352338118, 6604.0911202539355, 25416.79446897441, 5713.1058827764855, 40264.499517023505, 47190.76868185624, 37354.458851153715, 47903.31994334697, 23401.40472667274, 26597.34655587036, -8089.163373608992, -1304.1125302448906, -0.089, 0.993, 0.27, 192.0, 126.5, 24.0, 15.5, 32.0, 4.0, 32.0, 0.0, 0.0, 0.0, 1.7068830861979272E9, 0.0, 2024-02-02 15:11:26.197
80.0, 62579.60946316832, 65540.88032732968, -30198.637270764983, -1994.8261374027895, 16703.905666340073, 6606.013370277092, 25414.06755615086, 5701.885307059921, 40167.694111787576, 47184.130213753015, 37353.564781375506, 47904.01284742509, 23400.443601661158, 26584.65076501975, -8075.148829835514, -1287.4604806256868, -0.089, 0.993, 0.27, 192.0, 0.0, 0.0, 0.0, 0.0, 0.0, 0.0, 0.0, 0.0, 0.0, 1.7068830862059572E9, 0.0, 2024-02-02 15:11:26.205
82.0, 62496.97506391705, 65367.58725256768, -30183.885119424478, -1995.5413932253593, 16704.26329425136, 6604.493451654131, 25408.725489226043, 5679.958245749265, 40014.33879307971, 47190.43340568941, 37357.185763977264, 47911.16540565078, 23415.709843124136, 26592.69739302366, -8053.110009802582, -1265.0193291925584, -0.089, 0.993, 0.27, 192.0, 0.0, 0.0, 0.0, 0.0, 0.0, 0.0, 0.0, 0.0, 0.0, 1.7068830862139883E9, 0.0, 2024-02-02 15:11:26.213
84.0, 62481.619415476256, 65225.988951443316, -30158.11355806751, -1994.6249717026917, 16711.393500732604, 6605.454576665709, 25416.570951529855, 5674.280902657617, 39679.62141986149, 47167.79108855619, 37345.160525460306, 47898.55902177799, 23415.39691870176, 26593.792628501968, -8048.952585333895, -1261.353643101888, -0.089, 0.993, 0.27, 192.0, 0.0, 0.0, 0.0, 0.0, 0.0, 0.0, 0.0, 0.0, 0.0, 1.706883086222001E9, 0.0, 2024-02-02 15:11:26.222
86.0, 62409.91501926363, 64977.99634671168, -30135.381833956464, -1997.2401258039627, 16718.233134535927, 6613.791777347538, 25412.681747994633, 5671.129306689419, 39323.40166847726, 47163.633664087494, 37352.87187729739, 47913.60174579641, 23423.689415894678, 26587.869416221314, -8041.822378852651, -1265.5110675705753, -0.089, 0.993, 0.27, 192.0, 0.0, 0.0, 0.0, 0.0, 0.0, 0.0, 0.0, 0.0, 0.0, 1.7068830862310708E9, 0.0, 2024-02-02 15:11:26.231
88.0, 62362.082286129276, 64664.49077898155, -30140.20981075881, -2007.6560387201357, 16717.741396157908, 6605.275762710066, 25399.002480387986, 5653.0020419361645, 38992.14881564961, 47147.227483657305, 37339.59494109094, 47916.30630687551, 23419.911971081732, 26573.474892792095, -8044.906919587484, -1269.2661606390668, -0.0885, 0.9955, 0.266, 192.0, 126.5, 32.0, 15.5, 24.0, 4.0, 24.0, 0.0, 0.0, 0.0, 1.7068830862370203E9, 0.0, 2024-02-02 15:11:26.237
90.0, 62315.83652685124, 64398.70618566349, -30126.664653618893, -1998.3800647711832, 16734.70637019949, 6624.677076897273, 25421.577742287845, 5673.811516024055, 38668.070872792116, 47127.11091364753, 37338.20913293471, 47923.414161612294, 23427.556267685446, 26573.564299769914, -8032.658163625975, -1269.0202914500585, -0.0885, 0.9955, 0.266, 192.0, 0.0, 0.0, 0.0, 0.0, 0.0, 0.0, 0.0, 0.0, 0.0, 1.7068830862462091E9, 0.0, 2024-02-02 15:11:26.246
92.0, 62271.62477631865, 64187.526904049744, -30140.410976458905, -2014.1827481010853, 16720.669474681556, 6616.339876215444, 25398.913073410164, 5660.9816147067095, 38349.51381081508, 47123.40052406795, 37334.319929399484, 47928.9126907483, 23426.036349062488, 26568.088122378365, -8040.145998018504, -1275.2787798975444, -0.0885, 0.9955, 0.266, 192.0, 0.0, 0.0, 0.0, 0.0, 0.0, 0.0, 0.0, 0.0, 0.0, 1.7068830862540112E9, 0.0, 2024-02-02 15:11:26.254
94.0, 62206.20122029796, 64048.34259132655, -30155.118424310498, -2026.8785389516997, 16711.773480388343, 6610.506070912608, 25385.345564525793, 5651.348012846472, 38174.11967207428, 47094.09738708704, 37313.53280705605, 47910.11487366139, 23420.403709459748, 26555.92877339468, -8047.812646366674, -1284.2418294241227, -0.0885, 0.9955, 0.266, 192.0, 0.0, 0.0, 0.0, 0.0, 0.0, 0.0, 0.0, 0.0, 0.0, 1.7068830862620907E9, 0.0, 2024-02-02 15:11:26.262
96.0, 62230.83284268771, 63988.73048886425, -30144.188421271854, -2009.578288743292, 16714.567448445254, 6623.335972229955, 25385.25615754797, 5663.954396719265, 38097.36378161476, 47079.613456679996, 37302.40163831731, 47912.73002776266, 23412.602950644847, 26562.63429673127, -8054.6522801699975, -1287.0805009699466, -0.0885, 0.9955, 0.266, 192.0, 0.0, 0.0, 0.0, 0.0, 0.0, 0.0, 0.0, 0.0, 0.0, 1.7068830862700615E9, 0.0, 2024-02-02 15:11:26.270
98.0, 62225.58018274071, 63913.44981353877, -30137.706415379813, -2006.292582308362, 16712.26521876636, 6622.620716407385, 25391.514645995456, 5672.4257078678265, 38007.554472393334, 47097.785424922164, 37311.92348145527, 47929.9632227377, 23419.934322826186, 26572.06673289141, -8049.3102132451795, -1278.8327072659383, -0.09125, 0.99675, 0.267, 192.0, 126.5, 8.0, 15.5, 24.0, 4.0, 48.0, 0.0, 0.0, 0.0, 1.7068830862783887E9, 0.0, 2024-02-02 15:11:26.278
100.0, 62200.16624929503, 63804.507411063605, -30145.55187768363, -2016.9320126690882, 16702.519858183845, 6618.329181471966, 25374.34850625378, 5676.404318380871, 37890.47603493644, 47086.050759083126, 37315.83503673495, 47928.7115250482, 23425.052872306453, 26560.2203083301, -8046.4491899549, -1278.7209485436617, -0.09125, 0.99675, 0.267, 192.0, 0.0, 0.0, 0.0, 0.0, 0.0, 0.0, 0.0, 0.0, 0.0, 1.706883086287079E9, 0.0, 2024-02-02 15:11:26.287
102.0, 62138.60954506511, 63704.684520326206, -30160.05815983512, -2034.1428558996745, 16692.796849345785, 6605.409873176798, 25367.933555595107, 5675.465545113748, 37844.36438612513, 47063.02846229416, 37295.6514114918, 47914.98755395265, 23419.129660025796, 26556.0181803725, -8056.865102871073, -1286.3875968918321, -0.09125, 0.99675, 0.267, 192.0, 0.0, 0.0, 0.0, 0.0, 0.0, 0.0, 0.0, 0.0, 0.0, 1.7068830862931683E9, 0.0, 2024-02-02 15:11:26.293
104.0, 62161.63184185408, 63700.638854579796, -30152.838546376057, -2028.4878645524818, 16698.697709881988, 6612.093044768935, 25360.35631422476, 5683.311007417561, 37902.38951473111, 47053.104287756, 37287.73889395462, 47909.936059705746, 23416.693319880167, 26548.753863424525, -8061.536617462232, -1293.2719341840666, -0.09125, 0.99675, 0.267, 192.0, 0.0, 0.0, 0.0, 0.0, 0.0, 0.0, 0.0, 0.0, 0.0, 1.706883086302256E9, 0.0, 2024-02-02 15:11:26.302
106.0, 62167.28683320127, 63738.39095096481, -30153.218526031797, -2027.9737744300098, 16701.335215727715, 6611.73541685765, 25369.63228817371, 5693.726920333734, 38008.739114849464, 47058.82633433656, 37301.23934760563, 47922.810664512, 23424.672892650713, 26558.25335481803, -8055.948681348405, -1286.96874224767, -0.09125, 0.99675, 0.267, 192.0, 0.0, 0.0, 0.0, 0.0, 0.0, 0.0, 0.0, 0.0, 0.0, 1.7068830863101356E9, 0.0, 2024-02-02 15:11:26.310
108.0, 62153.20523419443, 63774.13139034884, -30168.842395406056, -2044.0446786933755, 16689.332328955214, 6596.268009694578, 25349.06868327483, 5680.4723358717365, 38123.180046460635, 47057.75345060271, 37292.43276029024, 47912.77473125157, 23420.44841294866, 26549.0667878469, -8062.855370385096, -1294.5012801291086, -0.08762500000000001, 0.987375, 0.2695, 192.0, 126.5, 48.0, 15.0, 72.0, 4.0, 64.0, 0.0, 0.0, 0.0, 1.7068830863171556E9, 0.0, 2024-02-02 15:11:26.317
110.0, 62170.59489138066, 63857.72691461169, -30162.762720914212, -2038.970832702021, 16694.473230179934, 6600.425434163265, 25354.120177521727, 5689.614199353958, 38265.62771387431, 47045.3035289411, 37288.43179803274, 47908.2596788716, 23420.984854815586, 26545.848136645334, -8068.3315477766455, -1302.3020389440107, -0.08762500000000001, 0.987375, 0.2695, 192.0, 0.0, 0.0, 0.0, 0.0, 0.0, 0.0, 0.0, 0.0, 0.0, 1.7068830863262012E9, 0.0, 2024-02-02 15:11:26.326
112.0, 62203.04962432977, 63973.84422705701, -30161.868651136003, -2036.936823956588, 16691.455744678467, 6599.799585318517, 25360.333962480305, 5700.275981459139, 38426.49321871915, 47053.685433111845, 37282.70975145218, 47908.9078794608, 23422.77299437201, 26547.39040701275, -8076.892265903029, -1309.0075622806028, -0.08762500000000001, 0.987375, 0.2695, 192.0, 0.0, 0.0, 0.0, 0.0, 0.0, 0.0, 0.0, 0.0, 0.0, 1.706883086334354E9, 0.0, 2024-02-02 15:11:26.334
114.0, 62240.06411314775, 64104.22195246482, -30153.39733998744, -2025.962117429032, 16701.044643049794, 6611.333085457455, 25367.195948028082, 5719.3867229684265, 38587.671647986375, 47054.803020334606, 37286.21897533166, 47912.19358589573, 23418.414404203228, 26549.24560180254, -8085.497687518322, -1318.5964606519296, -0.08762500000000001, 0.987375, 0.2695, 192.0, 0.0, 0.0, 0.0, 0.0, 0.0, 0.0, 0.0, 0.0, 0.0, 1.7068830863421783E9, 0.0, 2024-02-02 15:11:26.342
116.0, 62255.196244144, 64222.79795680022, -30160.415787746406, -2030.4995215534595, 16704.86679135165, 6614.328219214466, 25384.429143003126, 5742.654888946401, 38761.165888448464, 47053.327805200555, 37290.801082945, 47915.56869930848, 23424.896410095265, 26557.24752631754, -8087.621103241576, -1323.6032514099184, -0.08762500000000001, 0.987375, 0.2695, 192.0, 0.0, 0.0, 0.0, 0.0, 0.0, 0.0, 0.0, 0.0, 0.0, 1.706883086349204E9, 0.0, 2024-02-02 15:11:26.349
118.0, 62277.88326476613, 64348.8394437837, -30168.037732605666, -2037.540321056881, 16706.677282652534, 6613.389445947343, 25386.664317448656, 5754.121333851974, 38948.07117558375, 47058.51340991419, 37282.866213663365, 47907.544423049025, 23421.454241449148, 26556.82284317289, -8096.047710901226, -1341.5069987186193, -0.08581250000000001, 0.9856875, 0.27275000000000005, 192.0, 126.5, 48.0, 15.0, 96.0, 4.0, 80.0, 0.0, 0.0, 0.0, 1.7068830863583865E9, 0.0, 2024-02-02 15:11:26.358
120.0, 62300.57028538827, 64479.79831454734, -30170.9211076404, -2044.1564374156521, 16700.59760816069, 6615.423454692776, 25373.074456819828, 5761.9444444113315, 39174.337884704815, 47060.14508725943, 37285.19079508672, 47905.018675925574, 23417.050947791453, 26557.202822828633, -8104.854298216617, -1356.7061849482282, -0.08581250000000001, 0.9856875, 0.27275000000000005, 192.0, 0.0, 0.0, 0.0, 0.0, 0.0, 0.0, 0.0, 0.0, 0.0, 1.706883086366206E9, 0.0, 2024-02-02 15:11:26.366
122.0, 62315.25538149541, 64596.83204851533, -30177.648982721446, -2049.4985043404704, 16695.00967204686, 6610.617829634885, 25385.189102314605, 5775.7131189958, 39431.98644304114, 47074.584314177555, 37278.90995489478, 47902.649391013314, 23408.691395365167, 26555.973476883588, -8112.610353542609, -1361.0871268614683, -0.08581250000000001, 0.9856875, 0.27275000000000005, 192.0, 0.0, 0.0, 0.0, 0.0, 0.0, 0.0, 0.0, 0.0, 0.0, 1.7068830863734393E9, 0.0, 2024-02-02 15:11:26.373
124.0, 62344.446759754035, 64704.94743644565, -30175.324401298098, -2040.647213536169, 16700.910532583064, 6614.864661081393, 25405.350375813294, 5796.4555378503255, 39709.5727574316, 47080.865154369494, 37281.1004258514, 47897.66495199978, 23403.036404017974, 26555.88406990577, -8112.99033319835, -1358.3155105490102, -0.08581250000000001, 0.9856875, 0.27275000000000005, 192.0, 0.0, 0.0, 0.0, 0.0, 0.0, 0.0, 0.0, 0.0, 0.0, 1.706883086382236E9, 0.0, 2024-02-02 15:11:26.382
126.0, 62371.00063216694, 64795.24848404509, -30170.317610540107, -2029.8513209642556, 16700.754070371877, 6619.6479343948295, 25404.03162289043, 5804.166889687406, 39969.210621024446, 47101.5181662462, 37297.61836500387, 47904.14695789182, 23409.76427909902, 26568.713971223115, -8100.3168940921905, -1343.9880423531583, -0.08581250000000001, 0.9856875, 0.27275000000000005, 192.0, 0.0, 0.0, 0.0, 0.0, 0.0, 0.0, 0.0, 0.0, 0.0, 1.706883086390234E9, 0.0, 2024-02-02 15:11:26.390
128.0, 62376.14153339166, 64850.07731319396, -30182.74518045726, -2039.0825914242973, 16689.44408767749, 6596.759748072594, 25392.185198329116, 5789.638255791457, 40155.98179769299, 47122.752323478744, 37298.82535920446, 47896.368550821375, 23408.378470942793, 26569.697447979146, -8104.027283671771, -1349.5759784669851, -0.08590625000000002, 0.98684375, 0.27437500000000004, 192.0, 126.5, 40.0, 15.0, 112.0, 4.0, 80.0, 0.0, 0.0, 0.0, 1.7068830863984237E9, 0.0, 2024-02-02 15:11:26.398
130.0, 62406.58460933979, 64910.337616245466, -30186.16499735892, -2033.740524499479, 16702.519858183845, 6597.787928317539, 25420.370748087258, 5800.501203596736, 40280.41395907569, 47111.151768106436, 37302.91572843978, 47880.65527446929, 23408.937264554177, 26556.845194917347, -8107.514155806799, -1365.5574757525296, -0.08590625000000002, 0.98684375, 0.27437500000000004, 192.0, 0.0, 0.0, 0.0, 0.0, 0.0, 0.0, 0.0, 0.0, 0.0, 1.7068830864052403E9, 0.0, 2024-02-02 15:11:26.405
132.0, 62422.56610662534, 64938.858442170436, -30199.441933565373, -2043.4858850819928, 16695.233189491413, 6587.327311912455, 25412.771154972455, 5788.922999968887, 40382.583782980895, 47134.486989317775, 37324.127533927865, 47893.79810020902, 23424.091747294875, 26567.886956678267, -8094.6842544894525, -1352.392298268354, -0.08590625000000002, 0.98684375, 0.27437500000000004, 192.0, 0.0, 0.0, 0.0, 0.0, 0.0, 0.0, 0.0, 0.0, 0.0, 1.7068830864143684E9, 0.0, 2024-02-02 15:11:26.414
134.0, 62444.69433363609, 64971.89432047538, -30201.63240452199, -2036.1545129006522, 16698.049509292785, 6596.312713183488, 25412.614692761268, 5788.543020313146, 40444.81103954447, 47132.408277083436, 37320.215978648186, 47888.43368153974, 23412.67000587821, 26560.39912228574, -8107.357693595612, -1363.1434873513565, -0.08590625000000002, 0.98684375, 0.27437500000000004, 192.0, 0.0, 0.0, 0.0, 0.0, 0.0, 0.0, 0.0, 0.0, 0.0, 1.7068830864223075E9, 0.0, 2024-02-02 15:11:26.422
136.0, 62457.25601401997, 64996.77181205414, -30205.387497590484, -2037.3391553567835, 16700.195276760493, 6595.306884682999, 25411.295939838405, 5784.229133633272, 40506.99359261913, 47145.685213289886, 37334.99048173314, 47904.10225440291, 23422.16949727172, 26584.002564430546, -8100.272190603279, -1353.6216442133957, -0.08590625000000002, 0.98684375, 0.27437500000000004, 192.0, 0.0, 0.0, 0.0, 0.0, 0.0, 0.0, 0.0, 0.0, 0.0, 1.7068830864296181E9, 0.0, 2024-02-02 15:11:26.429
138.0, 62469.08008683683, 65017.76010009767, -30205.476904568306, -2035.4616088225378, 16715.573276945743, 6604.851079565416, 25439.280323896448, 5797.90840123992, 40537.48137205617, 47151.831943015095, 37325.379231617364, 47898.55902177799, 23416.648616391256, 26580.8733202068, -8102.060330159704, -1354.292196547055, -0.08995312500000001, 0.988421875, 0.27518750000000003, 192.0, 126.5, 8.0, 15.0, 120.0, 4.0, 80.0, 0.0, 0.0, 0.0, 1.7068830864383292E9, 0.0, 2024-02-02 15:11:26.438
140.0, 62478.42311601915, 65044.58219344404, -30209.813142992636, -2041.161303658641, 16714.276875767337, 6604.359341187399, 25436.46400409508, 5798.891877995954, 40589.04684651457, 47155.184704683394, 37334.27522591058, 47903.78932998054, 23424.136450783786, 26590.708087767136, -8087.911675919495, -1339.5400452065523, -0.08995312500000001, 0.988421875, 0.27518750000000003, 192.0, 0.0, 0.0, 0.0, 0.0, 0.0, 0.0, 0.0, 0.0, 0.0, 1.706883086446365E9, 0.0, 2024-02-02 15:11:26.446
142.0, 62494.628130749246, 65083.921263685384, -30208.65085228096, -2042.5024083259593, 16718.791928147308, 6606.393349932832, 25436.352245372804, 5800.590610574557, 40617.478265461716, 47153.75419303825, 37324.84278975044, 47894.84863219841, 23419.73315712609, 26586.148331898254, -8094.997178911827, -1344.5915394534516, -0.08995312500000001, 0.988421875, 0.27518750000000003, 192.0, 0.0, 0.0, 0.0, 0.0, 0.0, 0.0, 0.0, 0.0, 0.0, 1.7068830864533353E9, 0.0, 2024-02-02 15:11:26.453
144.0, 62513.358892602795, 65124.377921149484, -30211.89185522698, -2039.7978472468671, 16716.713215912965, 6607.868565066882, 25428.775004002455, 5798.735415784767, 40656.19148685831, 47160.61617858603, 37339.28201666856, 47905.42100732577, 23429.72438689761, 26592.02684069, -8089.699815475919, -1340.4117632403093, -0.08995312500000001, 0.988421875, 0.27518750000000003, 192.0, 0.0, 0.0, 0.0, 0.0, 0.0, 0.0, 0.0, 0.0, 0.0, 1.7068830864613605E9, 0.0, 2024-02-02 15:11:26.461
146.0, 62524.17713691916, 65146.841424327074, -30220.54198033118, -2042.1894839035851, 16708.711291397965, 6604.180527231757, 25426.092794667817, 5797.461366350814, 40675.436338834326, 47161.30908266414, 37342.54537135904, 47910.96423995069, 23425.96929382912, 26597.234797148085, -8097.254705101813, -1341.194074296245, -0.08995312500000001, 0.988421875, 0.27518750000000003, 192.0, 0.0, 0.0, 0.0, 0.0, 0.0, 0.0, 0.0, 0.0, 0.0, 1.7068830864703872E9, 0.0, 2024-02-02 15:11:26.470
148.0, 62518.879773483255, 65159.53721517768, -30230.108526958054, -2054.840571265289, 16709.001864075883, 6595.195125960723, 25435.525230827956, 5790.599380803034, 40678.07384468005, 47167.45581238935, 37335.32575789998, 47909.220803883174, 23419.420232703716, 26605.907273996745, -8104.183745882959, -1347.4749144881862, -0.0899765625, 0.9922109375, 0.27459375, 192.0, 126.5, 24.0, 15.5, 16.0, 4.0, 72.0, 0.0, 0.0, 0.0, 1.7068830864783528E9, 0.0, 2024-02-02 15:11:26.478
150.0, 62534.123663201775, 65191.12023009303, -30225.012329222245, -2040.155475158152, 16716.892029868606, 6598.413777162287, 25439.07915819635, 5793.929790726876, 40681.09133018152, 47155.89996050596, 37333.04587996553, 47903.18583288024, 23420.8283926044, 26586.08127666489, -8102.909696449005, -1353.9569203802253, -0.0899765625, 0.9922109375, 0.27459375, 192.0, 0.0, 0.0, 0.0, 0.0, 0.0, 0.0, 0.0, 0.0, 0.0, 1.706883086485492E9, 0.0, 2024-02-02 15:11:26.485
152.0, 62531.01677072248, 65199.94916915288, -30234.51182061575, -2055.2429026654845, 16702.855134350673, 6583.751032799606, 25425.444594078614, 5779.267046364194, 40683.617077304974, 47166.42763214441, 37330.05074620852, 47907.79029223804, 23417.743851869567, 26592.853855234847, -8106.12834765057, -1358.6060832269293, -0.0899765625, 0.9922109375, 0.27459375, 192.0, 0.0, 0.0, 0.0, 0.0, 0.0, 0.0, 0.0, 0.0, 0.0, 1.7068830864933932E9, 0.0, 2024-02-02 15:11:26.493
154.0, 62542.147939461225, 65227.86649797756, -30229.303864157664, -2052.8512660087667, 16707.660759408565, 6582.029948476547, 25429.981998203042, 5777.3224445965825, 40687.171004673364, 47166.40528039996, 37333.15763868781, 47909.17610039427, 23416.58156115789, 26588.092933665866, -8109.212888385402, -1369.3349205654765, -0.0899765625, 0.9922109375, 0.27459375, 192.0, 0.0, 0.0, 0.0, 0.0, 0.0, 0.0, 0.0, 0.0, 0.0, 1.706883086502427E9, 0.0, 2024-02-02 15:11:26.502
156.0, 62521.740796773534, 65224.983122942824, -30230.019119980232, -2056.36048988825, 16703.995073317896, 6577.49254435212, 25415.855695707287, 5767.733546225256, 40696.02229547767, 47161.21967568633, 37339.371423646386, 47910.29368761703, 23424.58348567289, 26579.778084728492, -8107.044769173238, -1371.6371502443733, -0.0899765625, 0.9922109375, 0.27459375, 192.0, 0.0, 0.0, 0.0, 0.0, 0.0, 0.0, 0.0, 0.0, 0.0, 1.7068830865095751E9, 0.0, 2024-02-02 15:11:26.509
158.0, 62550.0157535095, 65244.697361552404, -30224.20766642185, -2044.3128996268392, 16705.2914744963, 6584.39923338881, 25407.227922347538, 5766.6383107469455, 40684.62290580546, 47174.340149681586, 37333.984653232656, 47910.8077777395, 23423.5776571724, 26593.189131401676, -8116.0525221887265, -1370.5195630216078, -0.08598828124999999, 0.99110546875, 0.275296875, 192.0, 126.5, 56.0, 15.0, 120.0, 4.0, 80.0, 0.0, 0.0, 0.0, 1.7068830865174513E9, 0.0, 2024-02-02 15:11:26.517
160.0, 62550.820416309885, 65244.0491609632, -30216.02692795121, -2032.8241029768114, 16716.69086416851, 6599.576067873963, 25433.670036038166, 5784.564409800102, 40691.70840879779, 47182.76675734124, 37352.24602845264, 47928.86798725939, 23433.770052644024, 26602.75567802855, -8101.836812715151, -1354.0463273580465, -0.08598828124999999, 0.99110546875, 0.275296875, 192.0, 0.0, 0.0, 0.0, 0.0, 0.0, 0.0, 0.0, 0.0, 0.0, 1.7068830865264304E9, 0.0, 2024-02-02 15:11:26.526
162.0, 62498.6514447512, 65190.89671264848, -30223.045375710175, -2042.0106699479427, 16710.901762354584, 6598.123204484368, 25425.35518710079, 5781.032834176163, 40663.52285903965, 47182.3867776855, 37341.58424634746, 47919.54730982153, 23431.244305520573, 26603.69445129567, -8096.517097534788, -1348.3913360108538, -0.08598828124999999, 0.99110546875, 0.275296875, 192.0, 0.0, 0.0, 0.0, 0.0, 0.0, 0.0, 0.0, 0.0, 0.0, 1.7068830865344696E9, 0.0, 2024-02-02 15:11:26.534
164.0, 62467.44840949159, 65170.22134902732, -30223.090079199086, -2033.9863936884874, 16712.35462574418, 6604.895783054327, 25424.908152211687, 5784.877334222476, 40620.60750968546, 47158.91744600743, 37317.422010591275, 47893.976914164654, 23423.868229850323, 26594.038497690977, -8099.869859203084, -1347.2066935547225, -0.08598828124999999, 0.99110546875, 0.275296875, 192.0, 0.0, 0.0, 0.0, 0.0, 0.0, 0.0, 0.0, 0.0, 0.0, 1.7068830865417285E9, 0.0, 2024-02-02 15:11:26.541
166.0, 62484.03340387743, 65189.265035303244, -30204.202855134354, -2018.966021414521, 16727.911439885072, 6619.066789038991, 25447.41635887818, 5802.915191997909, 40618.260576517656, 47170.00391125726, 37344.7134905712, 47916.46276908669, 23437.860421879344, 26610.869361265824, -8078.948626392917, -1320.9210420752815, -0.08598828124999999, 0.99110546875, 0.275296875, 192.0, 0.0, 0.0, 0.0, 0.0, 0.0, 0.0, 0.0, 0.0, 0.0, 1.7068830865494733E9, 0.0, 2024-02-02 15:11:26.549
168.0, 62447.153025526175, 65144.18156673689, -30218.575026819115, -2033.6287657772025, 16709.761823387365, 6601.118338241379, 25427.299788868404, 5785.793755745144, 40549.28309312858, 47157.17400993991, 37331.458906109205, 47894.759225220594, 23428.69620665267, 26595.11138142483, -8085.02830088476, -1328.9229665902815, -0.08499414062499999, 0.989552734375, 0.2716484375, 192.0, 126.5, 48.0, 15.0, 112.0, 4.0, 48.0, 0.0, 0.0, 0.0, 1.7068830865584908E9, 0.0, 2024-02-02 15:11:26.558
170.0, 62413.53600186539, 65123.66266532692, -30205.521608057217, -2021.4023615601495, 16723.999884605397, 6614.328219214466, 25447.55046934491, 5794.443880849348, 40475.18706025923, 47147.80862901314, 37341.00310099162, 47894.87098394287, 23435.647599178268, 26602.800381517456, -8072.310158289691, -1318.1047222739128, -0.08499414062499999, 0.989552734375, 0.2716484375, 192.0, 0.0, 0.0, 0.0, 0.0, 0.0, 0.0, 0.0, 0.0, 0.0, 1.706883086565804E9, 0.0, 2024-02-02 15:11:26.565
172.0, 62423.30371419236, 65126.903668272935, -30210.774268004214, -2024.509254039437, 16714.813317634264, 6606.7956813330275, 25429.333797613835, 5776.651892262923, 40413.071562417936, 47160.03503323019, 37334.65520556631, 47893.68634148673, 23443.157785315252, 26607.44954436416, -8070.969053622372, -1310.7733500925722, -0.08499414062499999, 0.989552734375, 0.2716484375, 192.0, 0.0, 0.0, 0.0, 0.0, 0.0, 0.0, 0.0, 0.0, 0.0, 1.706883086573531E9, 0.0, 2024-02-02 15:11:26.573
174.0, 62425.44948166007, 65123.10387171553, -30225.682881555902, -2041.4071728476492, 16701.089346538705, 6587.059090978992, 25414.849867206798, 5753.026098373663, 40347.15626801924, 47153.84360001607, 37330.63189156436, 47891.29470483002, 23434.619418933326, 26594.463180835628, -8079.686233959942, -1322.0833327869575, -0.08499414062499999, 0.989552734375, 0.2716484375, 192.0, 0.0, 0.0, 0.0, 0.0, 0.0, 0.0, 0.0, 0.0, 0.0, 1.7068830865815077E9, 0.0, 2024-02-02 15:11:26.581
176.0, 62402.85186801576, 65085.240016608244, -30212.92003547192, -2035.26044312244, 16710.58883793221, 6592.267047437078, 25417.107393396785, 5754.501313507714, 40217.493798434, 47138.48795157528, 37321.110048426395, 47878.263637812575, 23431.087843309386, 26588.025878432498, -8076.9593211363945, -1324.4749694436753, -0.08499414062499999, 0.989552734375, 0.2716484375, 192.0, 0.0, 0.0, 0.0, 0.0, 0.0, 0.0, 0.0, 0.0, 0.0, 1.7068830865896208E9, 0.0, 2024-02-02 15:11:26.589
178.0, 62392.01127195493, 65054.77458891566, -30211.1318959155, -2037.4732658235152, 16710.58883793221, 6590.344797413922, 25410.759497971478, 5742.409019757392, 40128.824428179796, 47143.80766675564, 37315.23153963465, 47877.01194012308, 23436.11698581183, 26584.583709786384, -8069.337376277134, -1313.4108559382983, -0.08499414062499999, 0.989552734375, 0.2716484375, 192.0, 0.0, 0.0, 0.0, 0.0, 0.0, 0.0, 0.0, 0.0, 0.0, 1.706883086597567E9, 0.0, 2024-02-02 15:11:26.597
180.0, 62372.11821938971, 65037.60844917398, -30217.144515173975, -2040.1778269026074, 16708.487773953413, 6592.155288714802, 25412.16765787216, 5734.675316175856, 40098.24724176493, 47126.105085147035, 37306.89433895282, 47865.72430917315, 23435.31232301144, 26581.007430673533, -8072.779544923252, -1318.0153152960916, -0.088, 0.988, 0.274, 192.0, 126.5, 32.0, 15.0, 112.0, 4.0, 72.0, 0.0, 0.0, 0.0, 1.7068830866056285E9, 0.0, 2024-02-02 15:11:26.605
182.0, 62403.20949592704, 65051.44417899182, -30220.385518119994, -2041.2283588920068, 16707.660759408565, 6589.87541078036, 25417.666187008166, 5731.456664974292, 40098.202538276026, 47139.382021353485, 37307.140208141835, 47870.708748186684, 23435.82641313391, 26591.892730223266, -8071.1478675780145, -1308.44876866922, -0.088, 0.988, 0.274, 192.0, 0.0, 0.0, 0.0, 0.0, 0.0, 0.0, 0.0, 0.0, 0.0, 1.7068830866145868E9, 0.0, 2024-02-02 15:11:26.614
184.0, 62402.404833126646, 65055.06516159358, -30217.79271576318, -2039.484922824493, 16708.711291397965, 6593.921076526771, 25409.396041559703, 5732.261327774683, 40083.96447705799, 47141.39367835446, 37310.1576936433, 47875.96140813368, 23431.40076773176, 26585.20955863113, -8074.567684479676, -1311.130978003857, -0.088, 0.988, 0.274, 192.0, 0.0, 0.0, 0.0, 0.0, 0.0, 0.0, 0.0, 0.0, 0.0, 1.706883086621837E9, 0.0, 2024-02-02 15:11:26.621
186.0, 62403.14244069367, 65070.82314143457, -30216.8315907516, -2035.6627745226353, 16703.5927419177, 6596.424471905765, 25406.110335124773, 5734.340040009027, 40056.76240405589, 47134.71050676233, 37308.41425757579, 47875.38026277784, 23429.947904342163, 26584.963689442124, -8082.189629338936, -1313.9472978052256, -0.088, 0.988, 0.274, 192.0, 0.0, 0.0, 0.0, 0.0, 0.0, 0.0, 0.0, 0.0, 0.0, 1.7068830866295838E9, 0.0, 2024-02-02 15:11:26.629
188.0, 62406.98694073999, 65089.48684805475, -30212.830628494103, -2032.0417919208758, 16707.079614052727, 6602.392387675332, 25414.6487015067, 5739.65975518939, 40047.03939521783, 47156.63756807298, 37308.21309187569, 47883.60570473739, 23429.8808491088, 26591.378640100796, -8081.764946194286, -1309.7228181031726, -0.088, 0.988, 0.274, 192.0, 0.0, 0.0, 0.0, 0.0, 0.0, 0.0, 0.0, 0.0, 0.0, 1.7068830866376655E9, 0.0, 2024-02-02 15:11:26.637
190.0, 62448.24826100448, 65137.31958118911, -30203.956985945344, -2019.7036289815462, 16711.43820422151, 6610.59547789043, 25423.209419633084, 5747.572272726568, 40057.79058430083, 47154.1788761829, 37318.42783909176, 47891.38411180784, 23432.20543053215, 26603.06860245092, -8077.004024625305, -1306.8617948128933, -0.088, 0.98, 0.28, 192.0, 126.5, 32.0, 15.0, 80.0, 4.0, 96.0, 0.0, 0.0, 0.0, 1.706883086645655E9, 0.0, 2024-02-02 15:11:26.645
192.0, 62454.283232007416, 65155.67036338692, -30212.94238721638, -2031.997088431965, 16699.97175931594, 6592.714082326184, 25410.625387504744, 5735.390571998426, 40071.492203651935, 47170.80857405765, 37321.042993193034, 47894.42394905376, 23427.958599085643, 26596.653651792247, -8083.0613473726935, -1309.5440041475301, -0.088, 0.98, 0.28, 192.0, 0.0, 0.0, 0.0, 0.0, 0.0, 0.0, 0.0, 0.0, 0.0, 1.7068830866549122E9, 0.0, 2024-02-02 15:11:26.654
194.0, 62459.0441535764, 65171.27188101672, -30216.049279695664, -2038.4567425795487, 16707.861925108664, 6580.957064742693, 25408.278454336938, 5729.266194017672, 40065.904267538106, 47156.592864584076, 37307.900167453314, 47881.32582680295, 23422.68358739419, 26581.387410329273, -8095.690082989941, -1329.5041119461193, -0.088, 0.98, 0.28, 192.0, 0.0, 0.0, 0.0, 0.0, 0.0, 0.0, 0.0, 0.0, 0.0, 1.7068830866606543E9, 0.0, 2024-02-02 15:11:26.660
196.0, 62468.63305194773, 65190.740250437295, -30215.132858172998, -2042.413001348138, 16712.376977488635, 6577.604303074397, 25408.434916548125, 5729.243842273217, 40077.39306418813, 47163.298387920666, 37314.963318701186, 47890.490042029625, 23434.351197999862, 26575.888881193267, -8092.024396899271, -1330.7781613800719, -0.088, 0.98, 0.28, 192.0, 0.0, 0.0, 0.0, 0.0, 0.0, 0.0, 0.0, 0.0, 0.0, 1.7068830866696825E9, 0.0, 2024-02-02 15:11:26.669
198.0, 62455.75844714147, 65193.57892198312, -30231.941370003387, -2055.9581584880543, 16700.39644246059, 6567.3001488805, 25395.18033208613, 5717.732693878734, 40072.676846108065, 47156.235236672794, 37294.824396946955, 47877.25780931208, 23418.77203211451, 26572.93845092517, -8111.202193641925, -1350.9617866232143, -0.088, 0.98, 0.28, 192.0, 0.0, 0.0, 0.0, 0.0, 0.0, 0.0, 0.0, 0.0, 0.0, 1.7068830866776612E9, 0.0, 2024-02-02 15:11:26.677
200.0, 62495.455145294094, 65241.076378950645, -30212.338890116083, -2038.3673356017275, 16718.724872913943, 6594.658684093796, 25409.217227604062, 5743.079572091052, 40105.17628254608, 47164.90771352145, 37309.57654828746, 47892.456995541696, 23434.194735788675, 26588.271747621508, -8098.461699302399, -1340.2105975402114, -0.09, 0.978, 0.278, 192.0, 126.5, 24.0, 15.0, 72.0, 4.0, 88.0, 0.0, 0.0, 0.0, 1.70688308668564E9, 0.0, 2024-02-02 15:11:26.685
202.0, 62500.99837791901, 65256.00734424679, -30215.7810587622, -2038.6579082796466, 16716.802622890787, 6596.849155050416, 25418.068518408363, 5752.176732084362, 40135.64171023866, 47189.04759753318, 37318.740763514135, 47906.918574204276, 23439.60385794686, 26599.291157637974, -8097.187649868447, -1335.8967108603372, -0.09, 0.978, 0.278, 192.0, 0.0, 0.0, 0.0, 0.0, 0.0, 0.0, 0.0, 0.0, 0.0, 1.7068830866936588E9, 0.0, 2024-02-02 15:11:26.693
204.0, 62500.26077035198, 65260.4553413934, -30222.531285587705, -2043.2400158929845, 16714.96977984545, 6593.7646143155835, 25429.624370291756, 5756.378860041959, 40146.61641676622, 47185.3372079536, 37314.80685649, 47904.99632418112, 23436.407558489747, 26597.190093659174, -8102.641475515542, -1339.9870800956585, -0.09, 0.978, 0.278, 192.0, 0.0, 0.0, 0.0, 0.0, 0.0, 0.0, 0.0, 0.0, 0.0, 1.706883086701672E9, 0.0, 2024-02-02 15:11:26.701
206.0, 62507.72625300006, 65278.470847424374, -30222.84421001008, -2045.2740246384174, 16716.35558800168, 6592.222343948168, 25419.856657964785, 5757.809371687099, 40161.43562334009, 47182.07385326312, 37315.67857452376, 47904.07990265846, 23436.139337556284, 26595.424305847206, -8107.469452317889, -1350.3359377784657, -0.09, 0.978, 0.278, 192.0, 0.0, 0.0, 0.0, 0.0, 0.0, 0.0, 0.0, 0.0, 0.0, 1.7068830867107584E9, 0.0, 2024-02-02 15:11:26.710
208.0, 62501.333654085836, 65278.53790265774, -30239.339797418095, -2062.350757402272, 16701.64814015009, 6577.537247841031, 25406.93734966962, 5745.828836659055, 40173.61732406823, 47186.52185040973, 37308.41425757579, 47899.25192585611, 23428.69620665267, 26590.35045985585, -8118.578269312176, -1360.9083129058258, -0.09, 0.978, 0.278, 192.0, 0.0, 0.0, 0.0, 0.0, 0.0, 0.0, 0.0, 0.0, 0.0, 1.706883086716692E9, 0.0, 2024-02-02 15:11:26.716
210.0, 62530.77090153348, 65314.3677490196, -30217.725660529813, -2035.9980506894651, 16723.709311927476, 6604.046416765024, 25435.815803505877, 5777.590665530046, 40196.72902783502, 47181.64917011847, 37318.36078385839, 47903.230536369156, 23431.914857854234, 26591.959785456635, -8115.22550764388, -1361.6682722173064, -0.088, 0.984, 0.278, 192.0, 126.5, 32.0, 15.0, 96.0, 4.0, 88.0, 0.0, 0.0, 0.0, 1.70688308672572E9, 0.0, 2024-02-02 15:11:26.725
212.0, 62524.400654363715, 65310.992635606846, -30234.243599682286, -2051.5325130859032, 16710.83470712122, 6593.7646143155835, 25424.259951622484, 5769.119354381484, 40230.05547881788, 47203.30801049567, 37330.1625049308, 47917.80387375401, 23441.771977159024, 26607.784820530993, -8104.161394138503, -1351.609987212418, -0.088, 0.984, 0.278, 192.0, 0.0, 0.0, 0.0, 0.0, 0.0, 0.0, 0.0, 0.0, 0.0, 1.706883086734031E9, 0.0, 2024-02-02 15:11:26.734
214.0, 62531.664971311686, 65324.87306891359, -30231.7849077922, -2043.9105682266438, 16714.79096588981, 6598.100852739913, 25426.204553390093, 5773.790868972644, 40237.34214751031, 47195.50725168076, 37322.85348449391, 47909.89135621683, 23434.26179102204, 26592.183302901187, -8112.878574476073, -1360.4612780167197, -0.088, 0.984, 0.278, 192.0, 0.0, 0.0, 0.0, 0.0, 0.0, 0.0, 0.0, 0.0, 0.0, 1.7068830867418363E9, 0.0, 2024-02-02 15:11:26.741
216.0, 62530.32386664437, 65332.11503411711, -30230.80143103617, -2045.7210595275235, 16712.86871586665, 6595.68686433874, 25430.31727436987, 5777.545962041136, 40259.470374521065, 47193.227373746326, 37329.89428399733, 47917.24508014263, 23441.861384136842, 26603.649747806758, -8105.74836799483, -1356.773240181594, -0.088, 0.984, 0.278, 192.0, 0.0, 0.0, 0.0, 0.0, 0.0, 0.0, 0.0, 0.0, 0.0, 1.7068830867497444E9, 0.0, 2024-02-02 15:11:26.749
218.0, 62558.509416402514, 65359.2277001414, -30220.877256498014, -2036.1992163895627, 16719.596590947698, 6607.153309244312, 25434.944085472118, 5787.5371918126575, 40285.688970767136, 47211.734618155315, 37338.29853991253, 47925.49287384664, 23444.945924871678, 26607.114268197332, -8104.65313251652, -1356.6614814593174, -0.088, 0.984, 0.278, 192.0, 0.0, 0.0, 0.0, 0.0, 0.0, 0.0, 0.0, 0.0, 0.0, 1.7068830867581615E9, 0.0, 2024-02-02 15:11:26.758
220.0, 62565.10318101683, 65376.01386022734, -30223.514762343737, -2037.0709344233198, 16724.536326472324, 6607.2650679665885, 25440.5543733304, 5793.370997115493, 40310.722924557085, 47211.42169373294, 37345.652263838325, 47928.48800760365, 23448.946887129176, 26608.83535252039, -8098.908734191506, -1352.392298268354, -0.08600000000000001, 0.988, 0.274, 192.0, 126.5, 40.0, 15.0, 112.0, 4.0, 72.0, 0.0, 0.0, 0.0, 1.7068830867657583E9, 0.0, 2024-02-02 15:11:26.765
222.0, 62567.271300229, 65383.32288066422, -30226.018157722734, -2043.1059054262528, 16723.105814827184, 6600.82776556346, 25438.207440162594, 5790.867601736499, 40324.31278518591, 47216.40613274648, 37340.98074924717, 47925.04583895753, 23453.79721567598, 26607.248378664062, -8099.713396991897, -1356.616777970407, -0.08600000000000001, 0.988, 0.274, 192.0, 0.0, 0.0, 0.0, 0.0, 0.0, 0.0, 0.0, 0.0, 0.0, 1.7068830867727842E9, 0.0, 2024-02-02 15:11:26.772
224.0, 62565.639622883755, 65386.72034582143, -30232.969550248334, -2050.21376016304, 16713.896896111597, 6593.943428271226, 25426.36101560128, 5780.630502775968, 40328.15728523222, 47209.90177510998, 37335.88455151136, 47918.11679817639, 23448.343390028884, 26600.609910560837, -8106.843603473139, -1365.2445513301554, -0.08600000000000001, 0.988, 0.274, 192.0, 0.0, 0.0, 0.0, 0.0, 0.0, 0.0, 0.0, 0.0, 0.0, 1.70688308678195E9, 0.0, 2024-02-02 15:11:26.781
226.0, 62579.02831781249, 65408.222723987434, -30231.293169414184, -2048.5597310733474, 16713.94159960051, 6598.346721928921, 25426.293960367915, 5782.61980803249, 40337.25444522553, 47203.01743781775, 37333.38115613236, 47917.93798422074, 23447.15874757275, 26597.637128548282, -8114.711417521408, -1373.0453101450576, -0.08600000000000001, 0.988, 0.274, 192.0, 0.0, 0.0, 0.0, 0.0, 0.0, 0.0, 0.0, 0.0, 0.0, 1.706883086789802E9, 0.0, 2024-02-02 15:11:26.789
228.0, 62592.46171623012, 65424.919477095544, -30225.615826322537, -2044.067030437831, 16721.07180608175, 6607.9132685557925, 25436.441652350626, 5792.678093037378, 40366.87050662882, 47226.77734217374, 37343.61825509289, 47933.137170450354, 23456.41236977725, 26615.116192712332, -8109.369350596589, -1363.1434873513565, -0.08600000000000001, 0.988, 0.274, 192.0, 0.0, 0.0, 0.0, 0.0, 0.0, 0.0, 0.0, 0.0, 0.0, 1.7068830867978587E9, 0.0, 2024-02-02 15:11:26.797
230.0, 62597.64732094375, 65439.559869713776, -30229.907361257956, -2049.923187485121, 16719.574239203244, 6603.8005475760165, 25431.99365520402, 5789.750014513733, 40387.45646327215, 47221.7929031602, 37346.144002216344, 47927.90686224781, 23456.099445354874, 26615.093840967875, -8109.03407442976, -1368.1055746204347, -0.084, 0.992, 0.274, 192.0, 126.5, 48.0, 15.5, 0.0, 4.0, 72.0, 0.0, 0.0, 0.0, 1.7068830868048477E9, 0.0, 2024-02-02 15:11:26.804
232.0, 62598.563742466424, 65446.824186661746, -30243.497221886784, -2064.295359169884, 16704.35270122918, 6588.44489913522, 25411.094774138306, 5774.684938750856, 40412.021030428536, 47221.85995839357, 37340.131382957865, 47925.58228082446, 23450.667971452236, 26603.202712917653, -8122.825100758684, -1378.767356725616, -0.084, 0.992, 0.274, 192.0, 0.0, 0.0, 0.0, 0.0, 0.0, 0.0, 0.0, 0.0, 0.0, 1.706883086814123E9, 0.0, 2024-02-02 15:11:26.814
234.0, 62607.75030943756, 65462.559814758286, -30239.69742532938, -2053.7900392758893, 16704.73268088492, 6596.2233062056675, 25404.098678123795, 5776.7636509852, 40446.33095816743, 47221.77055141575, 37341.114859713896, 47927.0127924696, 23447.695189439677, 26611.02582347701, -8131.028190973782, -1385.2940661065659, -0.084, 0.992, 0.274, 192.0, 0.0, 0.0, 0.0, 0.0, 0.0, 0.0, 0.0, 0.0, 0.0, 1.7068830868218596E9, 0.0, 2024-02-02 15:11:26.821
236.0, 62615.95339965265, 65477.13315214314, -30231.04730022518, -2051.420754363627, 16711.97464608844, 6599.173736473767, 25421.04130042092, 5784.162078399906, 40497.62821169236, 47226.30795554018, 37349.94379877375, 47935.797028040535, 23451.785558675, 26627.677873096214, -8126.244917660346, -1379.192039870267, -0.084, 0.992, 0.274, 192.0, 0.0, 0.0, 0.0, 0.0, 0.0, 0.0, 0.0, 0.0, 0.0, 1.7068830868289015E9, 0.0, 2024-02-02 15:11:26.828
238.0, 62617.56272525343, 65481.558797545295, -30233.193067692886, -2052.3595276307497, 16710.92411409904, 6595.530402127552, 25427.925637713153, 5784.00561618872, 40537.280206356074, 47231.00182187579, 37347.44040339475, 47934.07594371748, 23447.7845964175, 26607.941282742177, -8120.902850735528, -1374.386414812376, -0.084, 0.992, 0.274, 192.0, 0.0, 0.0, 0.0, 0.0, 0.0, 0.0, 0.0, 0.0, 0.0, 1.706883086837891E9, 0.0, 2024-02-02 15:11:26.837
240.0, 62629.81148121494, 65506.63745482415, -30223.894741999477, -2043.195312404074, 16718.434300236022, 6605.655742365807, 25433.625332549254, 5794.265066893705, 40573.93706726278, 47218.14956881399, 37353.09539474194, 47935.797028040535, 23446.264677794537, 26607.516599597526, -8115.158452410514, -1371.3018740775435, -0.09, 0.988, 0.272, 192.0, 126.5, 24.0, 15.0, 112.0, 4.0, 64.0, 0.0, 0.0, 0.0, 1.7068830868461735E9, 0.0, 2024-02-02 15:11:26.846
242.0, 62638.17103364123, 65517.58980960725, -30223.090079199086, -2051.1078299412525, 16714.254524022883, 6598.704349840206, 25430.56314355888, 5792.946313970842, 40620.16047479636, 47235.82979867814, 37364.673598369794, 47948.0681357465, 23451.763206930544, 26616.45729737965, -8102.2614958598015, -1358.0249378710912, -0.09, 0.988, 0.272, 192.0, 0.0, 0.0, 0.0, 0.0, 0.0, 0.0, 0.0, 0.0, 0.0, 1.7068830868529372E9, 0.0, 2024-02-02 15:11:26.852
244.0, 62639.10980690835, 65519.15443171912, -30223.7829832772, -2044.2458443934734, 16716.243829279403, 6604.135823742846, 25430.94312321462, 5792.745148270745, 40637.61718721595, 47229.236034063826, 37359.53269714507, 47945.14005722285, 23441.30259052546, 26614.02095723402, -8106.105995906115, -1365.4010135413425, -0.09, 0.988, 0.272, 192.0, 0.0, 0.0, 0.0, 0.0, 0.0, 0.0, 0.0, 0.0, 0.0, 1.7068830868609364E9, 0.0, 2024-02-02 15:11:26.860
246.0, 62644.5859842999, 65533.012513281414, -30224.8335152666, -2037.9873559459872, 16717.115547313162, 6609.299076712022, 25440.196745419114, 5797.729587284278, 40661.82412646105, 47235.360412044574, 37368.20517399373, 47960.67451961929, 23441.526107970014, 26631.544724886982, -8097.969960924383, -1353.2416645576554, -0.09, 0.988, 0.272, 192.0, 0.0, 0.0, 0.0, 0.0, 0.0, 0.0, 0.0, 0.0, 0.0, 1.7068830868699403E9, 0.0, 2024-02-02 15:11:26.869
248.0, 62640.89794646478, 65537.99695229494, -30225.66052981145, -2037.4956175679706, 16715.752090901387, 6607.555640644508, 25437.358073873293, 5795.494412838747, 40665.847440463, 47244.99401390481, 37358.54922038904, 47956.02535677259, 23428.69620665267, 26635.344521444385, -8104.831946472163, -1358.3155105490102, -0.09, 0.988, 0.272, 192.0, 0.0, 0.0, 0.0, 0.0, 0.0, 0.0, 0.0, 0.0, 0.0, 1.7068830868772335E9, 0.0, 2024-02-02 15:11:26.877
250.0, 62644.47422557762, 65545.35067622074, -30222.061898954144, -2034.768704744423, 16716.713215912965, 6609.500242412119, 25436.575762817356, 5796.120261683495, 40680.93486797033, 47243.474095281854, 37366.59584839295, 47957.679385862284, 23433.16655554373, 26621.128811970808, -8101.568591781687, -1353.3981267688428, -0.092, 0.986, 0.27, 192.0, 126.5, 16.0, 15.0, 104.0, 4.0, 56.0, 0.0, 0.0, 0.0, 1.706883086885006E9, 0.0, 2024-02-02 15:11:26.885
252.0, 62633.09718764987, 65531.51494640291, -30226.599303078572, -2041.7648007589341, 16716.087367068216, 6605.812204576994, 25429.51261156948, 5789.750014513733, 40684.466443594276, 47251.185447118936, 37364.29361871405, 47958.05936551802, 23430.461994464637, 26627.1861347182, -8102.730882493363, -1357.4437925152533, -0.092, 0.986, 0.27, 192.0, 0.0, 0.0, 0.0, 0.0, 0.0, 0.0, 0.0, 0.0, 0.0, 1.7068830868929603E9, 0.0, 2024-02-02 15:11:26.892
254.0, 62597.20028605465, 65506.0116059794, -30226.018157722734, -2042.2118356480405, 16725.050416594793, 6616.630448893363, 25445.09177745483, 5798.087215195563, 40675.793966745616, 47237.93086265694, 37350.25672319612, 47939.73093506467, 23430.05966306444, 26628.482535896605, -8102.216792370891, -1357.0414611150577, -0.092, 0.986, 0.27, 192.0, 0.0, 0.0, 0.0, 0.0, 0.0, 0.0, 0.0, 0.0, 0.0, 1.7068830869021575E9, 0.0, 2024-02-02 15:11:26.902
0.0, 62600.955379123145, 65495.79685876332, -30222.821858265623, -2036.73565825649, 16726.324466028746, 6621.436073951254, 25442.878954753753, 5799.361264629515, 40672.709426010784, 47245.73162147184, 37359.353883189426, 47945.654147345325, 23441.526107970014, 26652.309495485963, -8088.537524764243, -1342.1551993078233, -0.092, 0.986, 0.27, 192.0, 0.0, 0.0, 0.0, 0.0, 0.0, 0.0, 0.0, 0.0, 0.0, 1.7068830869091585E9, 0.0, 2024-02-02 15:11:26.909
2.0, 62537.63288708126, 65442.15267207059, -30234.824745038124, -2050.191408418585, 16719.30601826978, 6611.266030224089, 25428.998521447007, 5788.05128193513, 40653.64338799041, 47233.72873469934, 37347.77567956158, 47930.52201634908, 23433.367721243827, 26642.698245370182, -8095.6230277565755, -1351.1629523233119, -0.092, 0.986, 0.27, 192.0, 0.0, 0.0, 0.0, 0.0, 0.0, 0.0, 0.0, 0.0, 0.0, 1.706883086917045E9, 0.0, 2024-02-02 15:11:26.917
4.0, 62502.63005526424, 65404.19940998548, -30248.66047485596, -2060.942597501588, 16708.577180931232, 6606.6168673773855, 25414.425184062147, 5776.741299240744, 40611.51034969215, 47205.453777963376, 37330.94481598673, 47908.170271893774, 23426.39397697377, 26636.752681345068, -8099.154603380514, -1356.5273709925857, -0.092, 0.992, 0.276, 192.0, 126.5, 16.0, 15.5, 0.0, 4.0, 80.0, 0.0, 0.0, 0.0, 1.7068830869261084E9, 0.0, 2024-02-02 15:11:26.926
6.0, 62495.61160750528, 65378.53960735079, -30247.632294611016, -2052.1136584417413, 16707.325483241737, 6611.444844179731, 25419.342567842315, 5780.205819631317, 40571.88070677289, 47207.37602798653, 37328.77669677457, 47901.53180379055, 23415.15104951275, 26636.529163900515, -8103.244972615836, -1358.6060832269293, -0.092, 0.992, 0.276, 192.0, 0.0, 0.0, 0.0, 0.0, 0.0, 0.0, 0.0, 0.0, 0.0, 1.706883086933063E9, 0.0, 2024-02-02 15:11:26.933
8.0, 62469.795342659396, 65359.853548986146, -30250.649780112482, -2055.2429026654845, 16702.38574771711, 6605.186355732246, 25413.754631728487, 5767.599435758524, 40492.37555174536, 47196.75894937026, 37323.81460950549, 47894.535707776035, 23417.00624430254, 26620.100631725865, -8098.796975469229, -1353.8898651468594, -0.092, 0.992, 0.276, 192.0, 0.0, 0.0, 0.0, 0.0, 0.0, 0.0, 0.0, 0.0, 0.0, 1.7068830869413161E9, 0.0, 2024-02-02 15:11:26.941
10.0, 62468.253072291984, 65321.22973456738, -30230.84613452508, -2037.674431523613, 16707.414890219556, 6613.92588781427, 25416.70506199659, 5765.274854335172, 40380.75093993556, 47189.82990858912, 37329.9613392307, 47893.68634148673, 23415.598084401856, 26614.423288634218, -8090.549181765221, -1344.1892080532562, -0.092, 0.992, 0.276, 192.0, 0.0, 0.0, 0.0, 0.0, 0.0, 0.0, 0.0, 0.0, 0.0, 1.7068830869490488E9, 0.0, 2024-02-02 15:11:26.949
12.0, 62439.86635683374, 65247.91601275397, -30225.302901900162, -2042.033021692398, 16700.262331993858, 6601.386559174844, 25401.68468972262, 5741.537301723636, 40283.07381666587, 47190.52281266723, 37330.6095398199, 47898.55902177799, 23420.582523415393, 26632.014111520544, -8076.936969391939, -1324.2514519991223, -0.092, 0.992, 0.276, 192.0, 0.0, 0.0, 0.0, 0.0, 0.0, 0.0, 0.0, 0.0, 0.0, 1.7068830869582393E9, 0.0, 2024-02-02 15:11:26.958
14.0, 62426.27649620492, 65185.644052701486, -30213.679994783404, -2040.6695652806243, 16704.799736118286, 6598.726701584662, 25404.880989179732, 5726.405170727393, 40163.24611464097, 47175.390681670986, 37325.7592112731, 47893.66398974228, 23417.16270651373, 26619.474782881116, -8078.814515926185, -1323.715010132195, -0.09, 0.992, 0.27, 192.0, 126.5, 24.0, 15.5, 0.0, 4.0, 56.0, 0.0, 0.0, 0.0, 1.7068830869651096E9, 0.0, 2024-02-02 15:11:26.965
16.0, 62415.23473444399, 65113.134993688465, -30205.029869679198, -2044.8940449826773, 16707.414890219556, 6586.880277023349, 25399.516570510455, 5706.914449562365, 40035.64000554562, 47158.87274251851, 37315.99149894613, 47884.544478004515, 23418.235590247583, 26607.65071006426, -8078.792164181729, -1318.7976263520272, -0.09, 0.992, 0.27, 192.0, 0.0, 0.0, 0.0, 0.0, 0.0, 0.0, 0.0, 0.0, 0.0, 1.7068830869730947E9, 0.0, 2024-02-02 15:11:26.973
18.0, 62415.94999026656, 65011.30044595009, -30192.378782317497, -2046.6598327946465, 16712.10875655517, 6584.868620022371, 25395.35914604177, 5694.486879645215, 39905.06111443772, 47146.378117368, 37320.01481294809, 47886.55613500549, 23421.700110638158, 26600.49815183856, -8074.388870524034, -1316.4730449286753, -0.09, 0.992, 0.27, 192.0, 0.0, 0.0, 0.0, 0.0, 0.0, 0.0, 0.0, 0.0, 0.0, 1.7068830869820995E9, 0.0, 2024-02-02 15:11:26.982
20.0, 62381.59535903876, 64873.59134836094, -30184.488616524774, -2046.190446161085, 16710.700596654486, 6590.92594276976, 25395.56031174187, 5693.123423233441, 39730.00225186375, 47136.56570155212, 37319.0089844476, 47892.5016990306, 23426.371625229316, 26604.36500362933, -8069.717355932875, -1312.7850070935497, -0.09, 0.992, 0.27, 192.0, 0.0, 0.0, 0.0, 0.0, 0.0, 0.0, 0.0, 0.0, 0.0, 1.7068830869890957E9, 0.0, 2024-02-02 15:11:26.989
22.0, 62344.2679457984, 64742.18544270819, -30185.337982814075, -2046.6598327946465, 16709.270085009346, 6594.301056182511, 25389.83826516131, 5689.658902842868, 39590.52736646264, 47125.59099502456, 37301.395809816815, 47885.28208557154, 23424.002340317053, 26596.74305877007, -8069.046803599215, -1309.5887076364409, -0.09, 0.992, 0.27, 192.0, 0.0, 0.0, 0.0, 0.0, 0.0, 0.0, 0.0, 0.0, 0.0, 1.7068830869972606E9, 0.0, 2024-02-02 15:11:26.997
24.0, 62370.64300425566, 64680.87460766728, -30175.480863509285, -2039.484922824493, 16718.27783802484, 6603.845251064927, 25401.394117044703, 5696.967923279753, 39522.287490640585, 47114.45982628582, 37309.19656863172, 47889.5512687625, 23421.655407149246, 26603.35917512884, -8068.376251265557, -1309.1416727473347, -0.089, 0.99, 0.271, 192.0, 126.5, 32.0, 15.0, 112.0, 4.0, 64.0, 0.0, 0.0, 0.0, 1.7068830870051134E9, 0.0, 2024-02-02 15:11:27.005
26.0, 62338.47884398447, 64573.1391993927, -30187.953136915345, -2057.6345393222023, 16703.548038428788, 6595.888030038837, 25378.818855144844, 5683.333359162016, 39370.11681438885, 47113.722218718794, 37317.15378965781, 47896.7038269882, 23426.125756040306, 26596.854817492345, -8066.252835542302, -1306.5488703905191, -0.089, 0.99, 0.271, 192.0, 0.0, 0.0, 0.0, 0.0, 0.0, 0.0, 0.0, 0.0, 0.0, 1.7068830870141516E9, 0.0, 2024-02-02 15:11:27.014
28.0, 62304.3030267123, 64462.02867770537, -30191.752933472748, -2060.1379347011966, 16709.270085009346, 6601.341855685932, 25384.138570325205, 5687.356673163971, 39204.1551118082, 47086.07311082758, 37300.92642318326, 47877.79425117901, 23418.39205245877, 26593.055020934942, -8079.909751404495, -1322.2397949981446, -0.089, 0.99, 0.271, 192.0, 0.0, 0.0, 0.0, 0.0, 0.0, 0.0, 0.0, 0.0, 0.0, 1.7068830870211732E9, 0.0, 2024-02-02 15:11:27.021
30.0, 62307.253456980405, 64396.850990873696, -30189.227186349297, -2056.8969317551773, 16712.175811788537, 6606.281591210555, 25386.709020937567, 5692.274056944139, 39091.12234009771, 47073.73494788825, 37298.400676059806, 47880.23059132464, 23421.342482726872, 26588.07058192141, -8069.31502453268, -1317.1435972623347, -0.089, 0.99, 0.271, 192.0, 0.0, 0.0, 0.0, 0.0, 0.0, 0.0, 0.0, 0.0, 0.0, 1.7068830870295255E9, 0.0, 2024-02-02 15:11:27.029
32.0, 62293.73065158495, 64339.33995239019, -30190.233014849786, -2057.2322079220066, 16708.39836697559, 6604.828727820961, 25377.522453966434, 5689.614199353958, 38963.13625134662, 47089.13529981796, 37292.00807714559, 47880.94584714721, 23411.999453544555, 26592.607986045838, -8075.0817746021485, -1315.7577891061055, -0.089, 0.99, 0.271, 192.0, 0.0, 0.0, 0.0, 0.0, 0.0, 0.0, 0.0, 0.0, 0.0, 1.706883087037184E9, 0.0, 2024-02-02 15:11:27.037
34.0, 62300.9055615551, 64307.48871654138, -30175.88319490948, -2045.6540042941576, 16718.83663163622, 6611.9589343022035, 25377.433046988615, 5697.392606424404, 38814.98888909684, 47074.092575799536, 37301.552272028006, 47890.04300714052, 23423.711767639135, 26591.043363933964, -8066.699870431408, -1306.4147599237872, -0.0915, 0.989, 0.2705, 192.0, 126.5, 8.0, 15.0, 112.0, 4.0, 56.0, 0.0, 0.0, 0.0, 1.7068830870451887E9, 0.0, 2024-02-02 15:11:27.045
36.0, 62285.102878225196, 64234.48791915035, -30177.850148421545, -2051.7336787860013, 16714.72391065644, 6606.281591210555, 25379.55646271187, 5693.123423233441, 38744.44678359589, 47085.111985816, 37313.063420422484, 47908.28203061605, 23429.523221197513, 26599.961709971634, -8058.474428471855, -1298.323428430966, -0.0915, 0.989, 0.2705, 192.0, 0.0, 0.0, 0.0, 0.0, 0.0, 0.0, 0.0, 0.0, 0.0, 1.7068830870534904E9, 0.0, 2024-02-02 15:11:27.053
38.0, 62250.9941161864, 64173.71352597637, -30191.082381139087, -2067.9833970050095, 16709.001864075883, 6597.586762617441, 25366.34658173878, 5681.858144027966, 38713.40021054747, 47073.73494788825, 37295.182024858244, 47895.13920487633, 23420.269598993018, 26586.483608065082, -8068.175085565458, -1311.063922770491, -0.0915, 0.989, 0.2705, 192.0, 0.0, 0.0, 0.0, 0.0, 0.0, 0.0, 0.0, 0.0, 0.0, 1.7068830870612457E9, 0.0, 2024-02-02 15:11:27.061
40.0, 62234.833804945214, 64166.918595661955, -30200.380706832497, -2075.940618031099, 16704.06212855126, 6593.87637303786, 25360.333962480305, 5680.338225405005, 38715.97066115984, 47047.44929640881, 37275.98187637113, 47881.1023093584, 23405.986834286075, 26577.721724238603, -8079.88739966004, -1324.094989787935, -0.0915, 0.989, 0.2705, 192.0, 0.0, 0.0, 0.0, 0.0, 0.0, 0.0, 0.0, 0.0, 0.0, 1.7068830870702364E9, 0.0, 2024-02-02 15:11:27.070
42.0, 62260.18068315753, 64208.55989558219, -30198.12318064251, -2073.258408696462, 16704.665625651556, 6598.436128906743, 25355.282468233403, 5684.965036507254, 38762.88697277153, 47060.36860470398, 37276.2500973046, 47883.918629159765, 23406.00918603053, 26580.515692295518, -8079.619178726576, -1321.4351321977535, -0.0915, 0.989, 0.2705, 192.0, 0.0, 0.0, 0.0, 0.0, 0.0, 0.0, 0.0, 0.0, 0.0, 1.7068830870762477E9, 0.0, 2024-02-02 15:11:27.076
44.0, 62248.58012778522, 64188.599787783605, -30192.40113406195, -2070.039757494898, 16709.381843731626, 6605.9686667881815, 25369.744046895987, 5700.0748157590415, 38758.50603085828, 47047.13637198644, 37276.40655951578, 47878.77772793505, 23401.62824411729, 26578.481683550082, -8081.094393860626, -1322.8432920984378, -0.08975, 0.9895, 0.27225, 192.0, 126.5, 32.0, 15.0, 120.0, 4.0, 72.0, 0.0, 0.0, 0.0, 1.7068830870852513E9, 0.0, 2024-02-02 15:11:27.085
46.0, 62226.228383329915, 64154.468674000345, -30191.35060207255, -2069.145687716685, 16708.21955301995, 6604.158175487301, 25371.174558541126, 5707.316780962561, 38770.21834495287, 47048.142200486924, 37278.529975239035, 47878.30834130148, 23410.926569810697, 26587.087105165378, -8070.767887922274, -1310.2592599701, -0.08975, 0.9895, 0.27225, 192.0, 0.0, 0.0, 0.0, 0.0, 0.0, 0.0, 0.0, 0.0, 0.0, 1.7068830870932915E9, 0.0, 2024-02-02 15:11:27.093
48.0, 62240.53349978131, 64176.17221786645, -30184.10863686903, -2056.449896866071, 16721.183564804025, 6617.7703878605835, 25391.134666339716, 5722.985353825731, 38800.259089500796, 47055.138296501435, 37280.496928751105, 47883.96333264868, 23415.709843124136, 26592.853855234847, -8063.972957607861, -1300.9162307877816, -0.08975, 0.9895, 0.27225, 192.0, 0.0, 0.0, 0.0, 0.0, 0.0, 0.0, 0.0, 0.0, 0.0, 1.706883087101316E9, 0.0, 2024-02-02 15:11:27.101
50.0, 62247.350781840185, 64169.22082534085, -30190.389477060973, -2064.6976905700794, 16715.863849623664, 6608.472062167176, 25385.144398825694, 5716.168071766862, 38838.860552175116, 47058.96044480329, 37285.36960904236, 47890.914725174276, 23417.185058258183, 26595.759582014034, -8062.497742473811, -1300.9162307877816, -0.08975, 0.9895, 0.27225, 192.0, 0.0, 0.0, 0.0, 0.0, 0.0, 0.0, 0.0, 0.0, 0.0, 1.7068830871097288E9, 0.0, 2024-02-02 15:11:27.109
52.0, 62237.001924157375, 64184.30825284818, -30196.64796550846, -2067.8492865382777, 16711.5946664327, 6609.299076712022, 25379.221186545037, 5718.582060168035, 38854.372662827096, 47061.016805293184, 37275.668951948755, 47886.46672802767, 23411.753584355545, 26594.06084943543, -8071.93017863395, -1311.3768471928654, -0.08975, 0.9895, 0.27225, 192.0, 0.0, 0.0, 0.0, 0.0, 0.0, 0.0, 0.0, 0.0, 0.0, 1.7068830871172965E9, 0.0, 2024-02-02 15:11:27.117
54.0, 62225.64723797408, 64207.41995661497, -30210.953081959855, -2087.4294146811267, 16696.842515092198, 6594.502221882609, 25360.915107836143, 5702.444100671304, 38877.26084914933, 47041.54843587261, 37270.86332689087, 47875.38026277784, 23409.071375020907, 26590.730439511593, -8078.143963592525, -1319.2670129855887, -0.089875, 0.98875, 0.274125, 192.0, 126.5, 24.0, 15.0, 112.0, 4.0, 80.0, 0.0, 0.0, 0.0, 1.7068830871263242E9, 0.0, 2024-02-02 15:11:27.126
56.0, 62233.04566538879, 64250.312954224704, -30207.421506335915, -2082.5343826454146, 16698.183619759515, 6596.357416672399, 25368.090017806295, 5709.3507897079935, 38918.812742091744, 47032.80890379059, 37257.027597073036, 47859.68933817022, 23395.72738358109, 26577.721724238603, -8097.902905691017, -1334.3320887484658, -0.089875, 0.98875, 0.274125, 192.0, 0.0, 0.0, 0.0, 0.0, 0.0, 0.0, 0.0, 0.0, 0.0, 1.70688308713234E9, 0.0, 2024-02-02 15:11:27.132
58.0, 62244.78033122783, 64305.52176302931, -30201.252424866252, -2077.3934814206937, 16706.207896018972, 6602.794719075528, 25378.88591037821, 5720.169034024362, 38992.97583019445, 47038.508598626686, 37259.307475007474, 47860.98573934862, 23399.90715979423, 26587.64589877676, -8092.091452132637, -1329.9511468352255, -0.089875, 0.98875, 0.274125, 192.0, 0.0, 0.0, 0.0, 0.0, 0.0, 0.0, 0.0, 0.0, 0.0, 1.7068830871415641E9, 0.0, 2024-02-02 15:11:27.141
60.0, 62258.72781976793, 64387.910293091576, -30207.55561680265, -2077.9746267765317, 16698.92122732654, 6600.470137652175, 25365.608974171755, 5717.442121200815, 39106.098008882764, 47036.407534647886, 37257.65344591778, 47861.23160853763, 23400.15302898324, 26591.44569533416, -8101.345074337134, -1342.3116615190104, -0.089875, 0.98875, 0.274125, 192.0, 0.0, 0.0, 0.0, 0.0, 0.0, 0.0, 0.0, 0.0, 0.0, 1.7068830871493688E9, 0.0, 2024-02-02 15:11:27.149
62.0, 62265.99213671591, 64480.35710815872, -30209.477866825804, -2081.0144640224535, 16705.31382624076, 6604.381692931855, 25384.384439514215, 5740.084438334041, 39250.87025771979, 47040.49790388321, 37249.02567255803, 47860.628111437334, 23388.77599105549, 26587.824712732403, -8119.3382286236565, -1359.8577809164265, -0.089875, 0.98875, 0.274125, 192.0, 0.0, 0.0, 0.0, 0.0, 0.0, 0.0, 0.0, 0.0, 0.0, 1.7068830871564112E9, 0.0, 2024-02-02 15:11:27.156
64.0, 62295.585846374735, 64586.97492921054, -30202.571177789116, -2074.5101063859593, 16714.634503678622, 6617.54687041603, 25400.5447507554, 5770.013424159697, 39479.99799013114, 47043.15776147339, 37262.48142272013, 47869.747623175106, 23395.794438814457, 26597.234797148085, -8110.375179097078, -1361.93649315077, -0.0899375, 0.990375, 0.2740625, 192.0, 126.5, 24.0, 15.5, 0.0, 4.0, 72.0, 0.0, 0.0, 0.0, 1.7068830871655295E9, 0.0, 2024-02-02 15:11:27.165
66.0, 62307.29816046932, 64675.53254074247, -30211.847151738068, -2087.407062936671, 16708.01838731985, 6607.756806344606, 25393.70511695208, 5771.354528827015, 39754.20919110885, 47059.09455527003, 37269.14224256781, 47875.0002831221, 23394.498037636047, 26601.101648938853, -8115.873708233084, -1372.5312200225856, -0.0899375, 0.990375, 0.2740625, 192.0, 0.0, 0.0, 0.0, 0.0, 0.0, 0.0, 0.0, 0.0, 0.0, 1.7068830871734045E9, 0.0, 2024-02-02 15:11:27.173
68.0, 62325.47012871148, 64757.96577429364, -30211.02013719322, -2086.4906414140037, 16713.963951344962, 6606.728626099662, 25409.999538659995, 5783.871505721987, 40020.55257803829, 47064.0566425391, 37266.32592276644, 47869.322940030455, 23386.987851499063, 26595.06667793592, -8117.617144300598, -1378.2085631142336, -0.0899375, 0.990375, 0.2740625, 192.0, 0.0, 0.0, 0.0, 0.0, 0.0, 0.0, 0.0, 0.0, 0.0, 1.7068830871804228E9, 0.0, 2024-02-02 15:11:27.180
70.0, 62348.090094100255, 64823.18816461423, -30208.963776703335, -2081.707368100568, 16712.198163532994, 6606.102777254913, 25407.160867114173, 5787.760709257211, 40269.34984557031, 47078.51822120169, 37276.47361474915, 47867.13246907383, 23391.25703469003, 26602.196884417164, -8110.218716885891, -1374.7440427236609, -0.0899375, 0.990375, 0.2740625, 192.0, 0.0, 0.0, 0.0, 0.0, 0.0, 0.0, 0.0, 0.0, 0.0, 1.7068830871884296E9, 0.0, 2024-02-02 15:11:27.188
72.0, 62367.15613212063, 64864.98592674565, -30222.84421001008, -2079.6510076106797, 16716.78027114633, 6604.78402433205, 25417.8002974749, 5792.901610481931, 40459.38437692933, 47105.049741870134, 37279.4016932728, 47864.31614927246, 23396.934377781676, 26612.344576399875, -8104.183745882959, -1371.2124670997223, -0.0899375, 0.990375, 0.2740625, 192.0, 0.0, 0.0, 0.0, 0.0, 0.0, 0.0, 0.0, 0.0, 0.0, 1.7068830871977744E9, 0.0, 2024-02-02 15:11:27.197
74.0, 62396.14634467916, 64913.556267447035, -30233.885971771, -2070.866772039744, 16720.87064038165, 6611.511899413097, 25427.59036154632, 5796.321427383594, 40596.95936405175, 47113.49870127424, 37289.50468176659, 47862.48330622713, 23403.595197629358, 26617.641939835783, -8101.680350503964, -1368.8208304430045, -0.08796875000000001, 0.9931875, 0.27503125, 192.0, 126.5, 40.0, 15.5, 16.0, 4.0, 80.0, 0.0, 0.0, 0.0, 1.7068830872054353E9, 0.0, 2024-02-02 15:11:27.205
76.0, 62406.53990585088, 64945.51926201812, -30246.872335299533, -2076.633522109213, 16716.109718812673, 6604.180527231757, 25420.23663762053, 5786.352549356527, 40674.09523416701, 47138.64441378647, 37298.69124873773, 47874.10621334389, 23407.9761395426, 26631.768242331535, -8100.674522003475, -1365.2221995857, -0.08796875000000001, 0.9931875, 0.27503125, 192.0, 0.0, 0.0, 0.0, 0.0, 0.0, 0.0, 0.0, 0.0, 0.0, 1.70688308721245E9, 0.0, 2024-02-02 15:11:27.212
78.0, 62432.51263290795, 64982.824323514025, -30245.955913776867, -2067.5587138603587, 16723.73166367193, 6613.456501180709, 25436.88868723973, 5793.750976771233, 40714.19426371983, 47143.56179756663, 37303.005135417596, 47879.71650120217, 23408.087898264876, 26635.769204589036, -8102.395606326534, -1365.4680687747084, -0.08796875000000001, 0.9931875, 0.27503125, 192.0, 0.0, 0.0, 0.0, 0.0, 0.0, 0.0, 0.0, 0.0, 0.0, 1.7068830872205951E9, 0.0, 2024-02-02 15:11:27.220
80.0, 62435.59717364278, 64994.62604458643, -30255.678922614927, -2075.672397097635, 16721.36237875967, 6603.308809198, 25430.250219136506, 5786.486659823258, 40773.62755222649, 47150.66965230342, 37313.3092896115, 47893.82045195347, 23413.49702042306, 26645.201640749176, -8099.400472569522, -1360.4389262722643, -0.08796875000000001, 0.9931875, 0.27503125, 192.0, 0.0, 0.0, 0.0, 0.0, 0.0, 0.0, 0.0, 0.0, 0.0, 1.7068830872294576E9, 0.0, 2024-02-02 15:11:27.229
82.0, 62433.80903408636, 64994.491934119695, -30269.201728010386, -2093.6655513841574, 16713.94159960051, 6587.528477612553, 25421.376576587747, 5772.829743961066, 40802.43895082938, 47153.24010291578, 37303.921556940266, 47887.494908272616, 23406.25505521954, 26635.70214935567, -8111.537469808754, -1372.1065368779346, -0.08796875000000001, 0.9931875, 0.27503125, 192.0, 0.0, 0.0, 0.0, 0.0, 0.0, 0.0, 0.0, 0.0, 0.0, 1.706883087236472E9, 0.0, 2024-02-02 15:11:27.236
84.0, 62450.863415105756, 65027.97484731375, -30267.972382065345, -2092.0115222944646, 16720.803585148285, 6589.942466013726, 25416.034509662928, 5774.148496883929, 40825.75182029627, 47140.94664346536, 37303.80979821799, 47879.49298375762, 23404.176342985196, 26620.726480570615, -8118.712379778908, -1380.8237172155043, -0.087984375, 0.99159375, 0.27551562500000004, 192.0, 126.5, 32.0, 15.0, 120.0, 4.0, 80.0, 0.0, 0.0, 0.0, 1.7068830872446678E9, 0.0, 2024-02-02 15:11:27.244
86.0, 62469.63888044821, 65073.438295535845, -30261.46802442885, -2087.4294146811267, 16721.630599693133, 6591.663550336784, 25427.21038189058, 5781.792793487643, 40845.75663158377, 47152.748364537765, 37313.24223437813, 47891.741739719124, 23410.7254041106, 26629.130736485808, -8115.203155899425, -1377.3144933360213, -0.087984375, 0.99159375, 0.27551562500000004, 192.0, 0.0, 0.0, 0.0, 0.0, 0.0, 0.0, 0.0, 0.0, 0.0, 1.7068830872534819E9, 0.0, 2024-02-02 15:11:27.253
88.0, 62486.156819600685, 65104.86484824, -30255.857736570568, -2086.512993158459, 16726.5479834733, 6599.374902173866, 25439.57089657437, 5793.125127926484, 40860.75465211328, 47165.01947224372, 37320.685365281744, 47901.50945204609, 23416.58156115789, 26638.540820901493, -8108.721150007385, -1373.4923450341637, -0.087984375, 0.99159375, 0.27551562500000004, 192.0, 0.0, 0.0, 0.0, 0.0, 0.0, 0.0, 0.0, 0.0, 0.0, 1.7068830872615047E9, 0.0, 2024-02-02 15:11:27.261
90.0, 62489.5989882468, 65119.03585422467, -30256.595344137593, -2080.6344843667134, 16725.340989272714, 6600.514841141086, 25435.927562228153, 5796.6343518059675, 40877.56316394367, 47164.75125131026, 37325.043955450536, 47904.19166138073, 23418.570866414415, 26637.9373238012, -8104.854298216617, -1367.7702984536052, -0.087984375, 0.99159375, 0.27551562500000004, 192.0, 0.0, 0.0, 0.0, 0.0, 0.0, 0.0, 0.0, 0.0, 0.0, 1.706883087268551E9, 0.0, 2024-02-02 15:11:27.268
92.0, 62493.152915615196, 65129.40706365193, -30253.0414167692, -2077.0358535094088, 16729.99015211942, 6605.052245265513, 25439.347379129813, 5803.496337353747, 40886.9508966149, 47174.04957700367, 37322.361746115894, 47906.24802187062, 23419.64375014827, 26642.251210481074, -8104.228449371869, -1362.7858594400716, -0.087984375, 0.99159375, 0.27551562500000004, 192.0, 0.0, 0.0, 0.0, 0.0, 0.0, 0.0, 0.0, 0.0, 0.0, 1.7068830872767751E9, 0.0, 2024-02-02 15:11:27.276
94.0, 62508.732081500544, 65146.3273342046, -30245.106547487565, -2072.4984493849815, 16740.003733635396, 6612.40596919131, 25454.926545015165, 5812.258221180227, 40902.99944913381, 47177.849373561075, 37332.934121243256, 47912.864138229386, 23426.19281127367, 26645.916896571744, -8093.767832966785, -1356.3709087813984, -0.0919921875, 0.992796875, 0.27475781250000003, 192.0, 126.5, 0.0, 15.5, 8.0, 4.0, 72.0, 0.0, 0.0, 0.0, 1.7068830872855566E9, 0.0, 2024-02-02 15:11:27.285
96.0, 62515.9069914707, 65158.68784888838, -30252.8402510691, -2078.5334203879142, 16734.5499079883, 6605.49928015462, 25445.628219321756, 5804.278648409682, 40912.09660912712, 47181.827984074116, 37331.77183053158, 47909.86900447238, 23426.63984616278, 26667.396922993295, -8097.03118765726, -1363.0540803735353, -0.0919921875, 0.992796875, 0.27475781250000003, 192.0, 0.0, 0.0, 0.0, 0.0, 0.0, 0.0, 0.0, 0.0, 0.0, 1.706883087292588E9, 0.0, 2024-02-02 15:11:27.292
98.0, 62528.49102359904, 65181.68779393289, -30252.59438188009, -2080.3662634332495, 16739.243774323913, 6605.92396329927, 25444.398873376715, 5803.429282120381, 40914.9576324174, 47188.4888039218, 37331.257740409106, 47907.56677479348, 23426.796308373967, 26647.593277405893, -8099.199306869425, -1365.9598071527253, -0.0919921875, 0.992796875, 0.27475781250000003, 192.0, 0.0, 0.0, 0.0, 0.0, 0.0, 0.0, 0.0, 0.0, 0.0, 1.7068830873009958E9, 0.0, 2024-02-02 15:11:27.300
100.0, 62530.39092187773, 65190.20380857037, -30253.913134802955, -2083.9872460350093, 16737.74620744541, 6606.348646443921, 25442.208402420092, 5803.921020498397, 40918.779780719255, 47178.51992589473, 37334.02935672156, 47907.544423049025, 23426.550439184957, 26651.37072221884, -8098.4393475579445, -1366.876228675393, -0.0919921875, 0.992796875, 0.27475781250000003, 192.0, 0.0, 0.0, 0.0, 0.0, 0.0, 0.0, 0.0, 0.0, 0.0, 1.7068830873096893E9, 0.0, 2024-02-02 15:11:27.309
102.0, 62534.6601050687, 65207.14643086749, -30262.004466295777, -2085.6189233802465, 16730.481890497435, 6596.759748072594, 25432.060710437385, 5796.544944828146, 40918.48920804134, 47187.01358878775, 37328.75434503012, 47907.16444339329, 23425.83518336239, 26642.18415524771, -8106.50832730631, -1374.676987490295, -0.0919921875, 0.992796875, 0.27475781250000003, 192.0, 0.0, 0.0, 0.0, 0.0, 0.0, 0.0, 0.0, 0.0, 0.0, 1.7068830873176801E9, 0.0, 2024-02-02 15:11:27.317
104.0, 62550.060456998406, 65229.81109974517, -30256.52828890423, -2077.7287575875234, 16737.41093127858, 6605.543983643531, 25443.013065220486, 5807.6090583335235, 40919.38327781955, 47189.80755684466, 37330.25191190862, 47913.04295218503, 23421.29777923796, 26649.13554777331, -8110.486937819355, -1379.0579294035351, -0.09299609375000001, 0.9903984375, 0.27437890625000005, 192.0, 126.5, 8.0, 15.0, 112.0, 4.0, 72.0, 0.0, 0.0, 0.0, 1.706883087324785E9, 0.0, 2024-02-02 15:11:27.324
106.0, 62545.925384274175, 65224.53608805372, -30260.17162325044, -2082.422623923138, 16729.274896296847, 6598.816108562482, 25440.397911119213, 5802.311694897616, 40922.13254238755, 47201.78809187271, 37338.43265037926, 47921.15663542231, 23428.606799674846, 26650.61076290736, -8106.910658706505, -1371.771260711105, -0.09299609375000001, 0.9903984375, 0.27437890625000005, 192.0, 0.0, 0.0, 0.0, 0.0, 0.0, 0.0, 0.0, 0.0, 0.0, 1.7068830873326924E9, 0.0, 2024-02-02 15:11:27.332
108.0, 62528.938058488144, 65210.18626811341, -30268.151196020986, -2092.1456327611963, 16723.083463082727, 6588.757823557595, 25426.204553390093, 5793.750976771233, 40912.208367849395, 47195.08256853611, 37332.53178984306, 47913.86996672988, 23424.292912994973, 26649.292009984496, -8116.812481500207, -1380.3766823263982, -0.09299609375000001, 0.9903984375, 0.27437890625000005, 192.0, 0.0, 0.0, 0.0, 0.0, 0.0, 0.0, 0.0, 0.0, 0.0, 1.7068830873418837E9, 0.0, 2024-02-02 15:11:27.341
110.0, 62552.5638523774, 65234.013227702766, -30264.46315818586, -2088.7258158595346, 16723.35168401619, 6591.507088125598, 25426.42807083465, 5794.890915738454, 40896.53979498622, 47190.411053944954, 37329.42489736377, 47908.304382360504, 23419.420232703716, 26624.995663761576, -8123.853281003629, -1387.9762754412027, -0.09299609375000001, 0.9903984375, 0.27437890625000005, 192.0, 0.0, 0.0, 0.0, 0.0, 0.0, 0.0, 0.0, 0.0, 0.0, 1.706883087348667E9, 0.0, 2024-02-02 15:11:27.348
112.0, 62525.27237239747, 65199.65859647496, -30261.55743140667, -2086.1106617582636, 16724.290457283314, 6597.720873084173, 25425.37753884525, 5795.963799472309, 40873.87512610854, 47202.21277501736, 37334.319929399484, 47912.4618068292, 23420.8283926044, 26643.74877735958, -8118.913545479006, -1380.1308131373899, -0.09299609375000001, 0.9903984375, 0.27437890625000005, 192.0, 0.0, 0.0, 0.0, 0.0, 0.0, 0.0, 0.0, 0.0, 0.0, 1.706883087356666E9, 0.0, 2024-02-02 15:11:27.356
114.0, 62509.4026338342, 65196.0376138732, -30251.32033244614, -2073.616036607747, 16731.241849808914, 6610.170794745779, 25424.97520744505, 5800.344741385548, 40836.48065763481, 47189.941667311396, 37337.87385676788, 47912.97589695167, 23426.125756040306, 26642.40767269226, -8110.50928956381, -1371.4359845442755, -0.092498046875, 0.9881992187499999, 0.27618945312500004, 192.0, 126.5, 16.0, 15.0, 104.0, 4.0, 88.0, 0.0, 0.0, 0.0, 1.7068830873648486E9, 0.0, 2024-02-02 15:11:27.364
116.0, 62458.820636131844, 65161.75003787876, -30249.599248123082, -2075.7171005865457, 16734.63931496612, 6607.868565066882, 25428.484431324534, 5800.769424530199, 40814.777113768716, 47200.22346976084, 37338.455002123716, 47914.473463830174, 23436.631075934303, 26654.589373420404, -8095.734786478853, -1358.4719727601973, -0.092498046875, 0.9881992187499999, 0.27618945312500004, 192.0, 0.0, 0.0, 0.0, 0.0, 0.0, 0.0, 0.0, 0.0, 0.0, 1.7068830873726773E9, 0.0, 2024-02-02 15:11:27.372
118.0, 62471.09174383781, 65172.36711649503, -30252.54967839118, -2070.8891237841995, 16731.152442831095, 6610.684884868251, 25428.41737609117, 5801.261162908217, 40759.031863097174, 47182.81146083015, 37329.46960085268, 47907.544423049025, 23424.091747294875, 26640.284256969007, -8096.293580090235, -1360.483629761175, -0.092498046875, 0.9881992187499999, 0.27618945312500004, 192.0, 0.0, 0.0, 0.0, 0.0, 0.0, 0.0, 0.0, 0.0, 0.0, 1.7068830873807073E9, 0.0, 2024-02-02 15:11:27.380
120.0, 62447.30948773736, 65125.584915350075, -30245.0394922542, -2060.74143180149, 16737.34387604521, 6615.915193070793, 25437.31337038438, 5805.150366443439, 40687.28276339564, 47179.99514102878, 37339.19260969074, 47909.55608005, 23424.002340317053, 26637.870268567833, -8082.480202016855, -1347.005527854625, -0.092498046875, 0.9881992187499999, 0.27618945312500004, 192.0, 0.0, 0.0, 0.0, 0.0, 0.0, 0.0, 0.0, 0.0, 0.0, 1.7068830873887157E9, 0.0, 2024-02-02 15:11:27.388
122.0, 62391.60894055473, 65078.13216187146, -30244.32423643163, -2063.557751602859, 16734.035817865828, 6612.584783146952, 25429.624370291756, 5792.074595937085, 40550.06540418451, 47187.125347510024, 37333.828191021465, 47902.71644624668, 23434.418253233227, 26660.020847323045, -8067.482181487344, -1332.521597447586, -0.092498046875, 0.9881992187499999, 0.27618945312500004, 192.0, 0.0, 0.0, 0.0, 0.0, 0.0, 0.0, 0.0, 0.0, 0.0, 1.70688308739774E9, 0.0, 2024-02-02 15:11:27.397
124.0, 62445.1413685252, 65090.64913876643, -30228.387442634994, -2052.448934608571, 16738.148538845606, 6616.8316145934605, 25431.054881936896, 5784.564409800102, 40415.03851593, 47175.390681670986, 37329.20137991922, 47898.93900143373, 23433.59123868838, 26645.671027382738, -8064.911730874984, -1332.0745625584798, -0.092498046875, 0.9881992187499999, 0.27618945312500004, 192.0, 0.0, 0.0, 0.0, 0.0, 0.0, 0.0, 0.0, 0.0, 0.0, 1.7068830874048395E9, 0.0, 2024-02-02 15:11:27.404
126.0, 62411.61375184223, 64993.21788468574, -30222.955968732356, -2053.7900392758893, 16731.577125975746, 6608.561469144996, 25425.086966167328, 5769.834610204054, 40298.474168595574, 47188.041769032694, 37342.925351014776, 47910.18192889475, 23445.59412546088, 26656.824547865934, -8056.373364493056, -1314.0143530385917, -0.092, 0.988, 0.266, 192.0, 126.5, 16.0, 15.0, 112.0, 4.0, 40.0, 0.0, 0.0, 0.0, 1.7068830874127488E9, 0.0, 2024-02-02 15:11:27.412
128.0, 62392.77123126641, 64909.66706391181, -30211.243654637776, -2051.890140997188, 16733.20880332098, 6606.59451563293, 25420.16958238716, 5752.176732084362, 40106.04800057984, 47166.71820482233, 37332.66590030979, 47899.453091556206, 23438.15099455726, 26641.80417559197, -8063.570626207666, -1314.0143530385917, -0.092, 0.988, 0.266, 192.0, 0.0, 0.0, 0.0, 0.0, 0.0, 0.0, 0.0, 0.0, 0.0, 1.7068830874207578E9, 0.0, 2024-02-02 15:11:27.420
130.0, 62366.66439374261, 64845.45050209171, -30213.72469827231, -2064.228303936518, 16724.4469194945, 6600.224268463167, 25409.93248342663, 5736.664621432379, 39979.5371269628, 47152.83777151558, 37322.227635649164, 47899.07311190046, 23440.87790738081, 26640.12779475782, -8062.207169795892, -1313.612021638396, -0.092, 0.988, 0.266, 192.0, 0.0, 0.0, 0.0, 0.0, 0.0, 0.0, 0.0, 0.0, 0.0, 1.7068830874287717E9, 0.0, 2024-02-02 15:11:27.428
132.0, 62389.66433878712, 64826.83149896044, -30217.435087851896, -2068.7210045720344, 16717.137899057616, 6600.447785907721, 25392.565177984856, 5724.907603848887, 39928.70926007143, 47151.80959127064, 37320.73006877066, 47906.516242804086, 23439.02271259102, 26636.0374255225, -8070.477315244355, -1321.5245391755748, -0.092, 0.988, 0.266, 192.0, 0.0, 0.0, 0.0, 0.0, 0.0, 0.0, 0.0, 0.0, 0.0, 1.7068830874370015E9, 0.0, 2024-02-02 15:11:27.437
134.0, 62385.01517594042, 64811.833478430926, -30210.84132323758, -2064.965911503543, 16724.715140427965, 6606.058073766002, 25406.043279891408, 5734.0047638421975, 39822.2479012308, 47143.38298361099, 37315.96914720168, 47903.81168172499, 23432.317189254427, 26634.495155155084, -8077.004024625305, -1327.000716567125, -0.092, 0.988, 0.266, 192.0, 0.0, 0.0, 0.0, 0.0, 0.0, 0.0, 0.0, 0.0, 0.0, 1.7068830874448345E9, 0.0, 2024-02-02 15:11:27.444
136.0, 62367.871387943196, 64786.84422812989, -30215.535189573195, -2075.4935831419925, 16716.4449949795, 6596.424471905765, 25392.632233218224, 5724.818196871066, 39717.48527496878, 47145.23817840078, 37324.328699627964, 47907.834995726946, 23444.230669049106, 26640.194849991185, -8068.532713476743, -1320.7869316085496, -0.08, 0.99, 0.27, 192.0, 126.5, 64.0, 15.0, 120.0, 4.0, 56.0, 0.0, 0.0, 0.0, 1.70688308745382E9, 0.0, 2024-02-02 15:11:27.453
138.0, 62370.71005948902, 64809.77711794104, -30216.27279714022, -2080.6568361111686, 16715.483869967924, 6597.206782961701, 25386.150227326183, 5719.811406113077, 39658.45431786231, 47131.78242823869, 37310.76119074359, 47891.51822227457, 23435.49113696708, 26626.56028587345, -8082.882533417051, -1337.0590015720131, -0.08, 0.99, 0.27, 192.0, 0.0, 0.0, 0.0, 0.0, 0.0, 0.0, 0.0, 0.0, 0.0, 1.7068830874598255E9, 0.0, 2024-02-02 15:11:27.459
140.0, 62381.1259724052, 64851.396066116824, -30221.257236153753, -2085.5518681468807, 16712.041701321807, 6592.356454414899, 25390.620576217247, 5717.956211323287, 39670.30074242363, 47133.63762302847, 37315.99149894613, 47894.93803917623, 23438.240401535084, 26631.343559186884, -8079.0156816262825, -1332.3651352363986, -0.08, 0.99, 0.27, 192.0, 0.0, 0.0, 0.0, 0.0, 0.0, 0.0, 0.0, 0.0, 0.0, 1.706883087468818E9, 0.0, 2024-02-02 15:11:27.468
142.0, 62386.80331549684, 64904.21323826471, -30221.74897453177, -2085.417757680149, 16714.142765300603, 6590.501259625109, 25384.473846492034, 5718.358542723482, 39689.88087056648, 47137.41506784142, 37299.4065045603, 47884.119794859864, 23430.506697953548, 26626.35912017335, -8095.1536411230145, -1344.8821121313706, -0.08, 0.99, 0.27, 192.0, 0.0, 0.0, 0.0, 0.0, 0.0, 0.0, 0.0, 0.0, 0.0, 1.7068830874769945E9, 0.0, 2024-02-02 15:11:27.476
144.0, 62392.614769055224, 64957.76801797963, -30220.609035564547, -2083.5849146348137, 16718.92603861404, 6589.026044491058, 25397.437858276113, 5723.499443948203, 39722.223844793305, 47135.51516956272, 37303.206301117694, 47889.97595190715, 23436.429910234205, 26633.37756793232, -8090.705643976408, -1343.74217316415, -0.08, 0.99, 0.27, 192.0, 0.0, 0.0, 0.0, 0.0, 0.0, 0.0, 0.0, 0.0, 0.0, 1.7068830874848688E9, 0.0, 2024-02-02 15:11:27.484
146.0, 62416.48643213349, 65022.76689085566, -30221.100773942566, -2084.2331152240176, 16717.87550662464, 6588.824878790961, 25391.916977395653, 5723.253574759195, 39760.802955723164, 47137.68328877488, 37296.165501614276, 47884.79034719353, 23430.752567142557, 26627.566114373938, -8110.755158752819, -1360.3271675499877, -0.088, 0.992, 0.274, 192.0, 126.5, 32.0, 15.5, 0.0, 4.0, 72.0, 0.0, 0.0, 0.0, 1.706883087491894E9, 0.0, 2024-02-02 15:11:27.491
148.0, 62439.19580450009, 65076.58989150404, -30213.948215716868, -2071.805545306867, 16729.83368990823, 6601.431262663754, 25408.144343870204, 5742.319612779572, 39826.22651174385, 47159.319777407625, 37315.90209196831, 47904.92926894776, 23439.20152654666, 26647.14624251679, -8104.116690649592, -1351.6546907013287, -0.088, 0.992, 0.274, 192.0, 0.0, 0.0, 0.0, 0.0, 0.0, 0.0, 0.0, 0.0, 0.0, 1.70688308750116E9, 0.0, 2024-02-02 15:11:27.501
150.0, 62454.68556340761, 65120.71223505882, -30210.9307302154, -2064.5635801033472, 16734.30403879929, 6610.796643590527, 25405.439782791113, 5752.04262161763, 39891.471253808886, 47163.61131234304, 37324.93219672825, 47910.67366727277, 23444.11891032683, 26655.08111179842, -8096.69591149043, -1351.252359301133, -0.088, 0.992, 0.274, 192.0, 0.0, 0.0, 0.0, 0.0, 0.0, 0.0, 0.0, 0.0, 0.0, 1.706883087509128E9, 0.0, 2024-02-02 15:11:27.509
152.0, 62453.7914936294, 65137.252525955744, -30226.353433889562, -2079.3380831883055, 16726.07859683974, 6599.911344040793, 25403.249311834494, 5751.349717539516, 39953.58675165019, 47176.57532412712, 37322.33939437144, 47909.310210861, 23442.44252949268, 26657.13747228831, -8103.401434827022, -1364.2163710852112, -0.088, 0.992, 0.274, 192.0, 0.0, 0.0, 0.0, 0.0, 0.0, 0.0, 0.0, 0.0, 0.0, 1.7068830875159397E9, 0.0, 2024-02-02 15:11:27.515
154.0, 62474.01982236145, 65169.349630993565, -30228.007462979254, -2073.638388352202, 16730.59364921971, 6605.49928015462, 25403.852808934786, 5759.798676943622, 40020.28435710482, 47172.61906535853, 37320.03716469254, 47908.326734104965, 23437.636904434792, 26651.46012919666, -8107.514155806799, -1377.4933072916638, -0.088, 0.992, 0.274, 192.0, 0.0, 0.0, 0.0, 0.0, 0.0, 0.0, 0.0, 0.0, 0.0, 1.7068830875249176E9, 0.0, 2024-02-02 15:11:27.524
156.0, 62484.07810736634, 65198.09397436309, -30228.78977403519, -2074.420699408138, 16735.6004399777, 6604.471099909676, 25416.70506199659, 5771.131011382462, 40121.537759487364, 47189.651094633475, 37332.24121716514, 47919.77082726608, 23445.63882894979, 26659.730274645124, -8098.729920235864, -1375.6828159907839, -0.098, 0.988, 0.27, 192.0, 126.0, 120.0, 15.0, 112.0, 4.0, 56.0, 0.0, 0.0, 0.0, 1.706883087533223E9, 0.0, 2024-02-02 15:11:27.533
158.0, 62483.87694166624, 65206.69939597839, -30236.903457272467, -2084.9260193021323, 16727.151480573593, 6598.078500995458, 25404.948044413097, 5766.772421213677, 40194.1362254782, 47188.757024855266, 37331.05657470901, 47917.60270805391, 23440.8332038919, 26654.61172516486, -8104.720187749886, -1386.3669498404206, -0.098, 0.988, 0.27, 192.0, 0.0, 0.0, 0.0, 0.0, 0.0, 0.0, 0.0, 0.0, 0.0, 1.7068830875409825E9, 0.0, 2024-02-02 15:11:27.540
160.0, 62500.23841860753, 65232.67212303545, -30230.488506613794, -2080.098042499786, 16737.36622778967, 6602.168870230779, 25417.532076541436, 5779.535267297658, 40258.75511869849, 47182.654998618964, 37339.14790620183, 47919.234385399155, 23446.935230128198, 26653.672951897737, -8100.249838858824, -1384.7352724951832, -0.098, 0.988, 0.27, 192.0, 0.0, 0.0, 0.0, 0.0, 0.0, 0.0, 0.0, 0.0, 0.0, 1.706883087547956E9, 0.0, 2024-02-02 15:11:27.547
162.0, 62488.41434579067, 65231.91216372397, -30254.382521436517, -2099.1417287757076, 16720.043625836806, 6584.667454322273, 25392.386364029215, 5762.190313600339, 40304.55384308742, 47191.37217895653, 37335.236350922154, 47916.28395513105, 23445.996456861074, 26650.342541973896, -8107.290638362246, -1388.8256417305042, -0.098, 0.988, 0.27, 192.0, 0.0, 0.0, 0.0, 0.0, 0.0, 0.0, 0.0, 0.0, 0.0, 1.7068830875571659E9, 0.0, 2024-02-02 15:11:27.557
164.0, 62522.54545957392, 65268.85959730859, -30237.328140417118, -2075.65004535318, 16744.36232380418, 6610.930754057259, 25429.71377726958, 5792.38752035946, 40345.54694241845, 47185.471318420336, 37335.728089300166, 47915.81456849749, 23441.146128314274, 26651.974219319134, -8108.296466862735, -1388.222144630211, -0.098, 0.988, 0.27, 192.0, 0.0, 0.0, 0.0, 0.0, 0.0, 0.0, 0.0, 0.0, 0.0, 1.7068830875639884E9, 0.0, 2024-02-02 15:11:27.563
166.0, 62522.99249446303, 65274.31342295569, -30243.56427712015, -2076.2088389645623, 16735.55573648879, 6606.281591210555, 25416.526248040947, 5788.0065784462195, 40385.735378949095, 47200.849318605586, 37345.54050511605, 47927.750400036624, 23448.276334795515, 26668.84978638289, -8096.360635323601, -1372.4418130447643, -0.092, 0.984, 0.27, 192.0, 126.5, 16.0, 15.0, 96.0, 4.0, 56.0, 0.0, 0.0, 0.0, 1.7068830875719793E9, 0.0, 2024-02-02 15:11:27.571
168.0, 62535.7106370581, 65287.81387660669, -30236.92580901692, -2064.6529870811687, 16745.83753893823, 6616.026951793069, 25436.70987328409, 5805.105662954529, 40403.79558846898, 47208.448911720385, 37349.34030167345, 47931.527844849574, 23445.63882894979, 26673.43189399623, -8095.108937634103, -1370.0054728991358, -0.092, 0.984, 0.27, 192.0, 0.0, 0.0, 0.0, 0.0, 0.0, 0.0, 0.0, 0.0, 0.0, 1.7068830875810573E9, 0.0, 2024-02-02 15:11:27.581
170.0, 62543.33258191736, 65293.06653655369, -30235.51764911624, -2062.1495917021743, 16746.575146505256, 6618.7091611277065, 25439.79441401892, 5807.765520544711, 40424.38154511232, 47211.06406582166, 37357.56574363301, 47939.59682459794, 23451.338523785893, 26681.9479086337, -8084.335396806646, -1360.997719883647, -0.092, 0.984, 0.27, 192.0, 0.0, 0.0, 0.0, 0.0, 0.0, 0.0, 0.0, 0.0, 0.0, 1.7068830875890045E9, 0.0, 2024-02-02 15:11:27.589
172.0, 62543.01965749499, 65292.105411542114, -30246.98409402181, -2073.0795947408196, 16740.540175502323, 6606.438053421743, 25429.22203889156, 5798.95893322932, 40436.831466773925, 47226.285603795724, 37354.86118255391, 47944.737725822655, 23450.06447435194, 26685.881815657835, -8091.264437587791, -1365.3786617968872, -0.092, 0.984, 0.27, 192.0, 0.0, 0.0, 0.0, 0.0, 0.0, 0.0, 0.0, 0.0, 0.0, 1.7068830875961044E9, 0.0, 2024-02-02 15:11:27.596
174.0, 62560.09639025884, 65309.49506872834, -30241.440861396895, -2069.704481328068, 16750.352591318202, 6615.7140273706955, 25440.487318097035, 5810.62654383499, 40445.1463157113, 47210.393513488, 37349.74263307365, 47935.238234429155, 23445.661180694246, 26674.504777730082, -8097.902905691017, -1377.3368450804765, -0.092, 0.984, 0.27, 192.0, 0.0, 0.0, 0.0, 0.0, 0.0, 0.0, 0.0, 0.0, 0.0, 1.7068830876040428E9, 0.0, 2024-02-02 15:11:27.604
176.0, 62569.8193990969, 65321.76617643431, -30246.04532075469, -2073.0795947408196, 16742.68594297003, 6616.742207615639, 25430.540791814423, 5812.906421769431, 40466.96161829968, 47224.78803691722, 37361.812575079515, 47948.00108051313, 23456.747645944077, 26686.37355403585, -8091.242085843335, -1368.3737955538984, -0.096, 0.982, 0.266, 192.0, 126.5, 0.0, 15.0, 88.0, 4.0, 40.0, 0.0, 0.0, 0.0, 1.7068830876132565E9, 0.0, 2024-02-02 15:11:27.613
178.0, 62577.8213236119, 65337.63591499757, -30250.403910923473, -2073.8395540522997, 16744.250565081904, 6618.485643683153, 25441.13551868624, 5818.114378227518, 40468.637999133825, 47232.05235386519, 37361.05261576803, 47946.704679334725, 23453.26077380905, 26688.80989418148, -8094.84071670064, -1370.1172316214124, -0.096, 0.982, 0.266, 192.0, 0.0, 0.0, 0.0, 0.0, 0.0, 0.0, 0.0, 0.0, 0.0, 1.7068830876200397E9, 0.0, 2024-02-02 15:11:27.620
180.0, 62584.07981205938, 65345.45902555693, -30254.360169692063, -2075.672397097635, 16737.142710345117, 6614.171757003279, 25434.83232674984, 5814.895727025953, 40473.041292791524, 47232.61114747657, 37366.01470303711, 47947.263472946106, 23455.987686632598, 26688.295804059006, -8093.477260288866, -1373.4476415452532, -0.096, 0.982, 0.266, 192.0, 0.0, 0.0, 0.0, 0.0, 0.0, 0.0, 0.0, 0.0, 0.0, 1.7068830876280563E9, 0.0, 2024-02-02 15:11:27.628
182.0, 62586.024413827, 65348.54356629176, -30260.46219592836, -2083.5849146348137, 16733.40996902108, 6603.420567920276, 25416.906227696687, 5803.429282120381, 40469.82264158996, 47240.322499313654, 37359.89032505635, 47946.816438057, 23449.572735973925, 26684.428952268237, -8105.949533694928, -1380.3096270930323, -0.096, 0.982, 0.266, 192.0, 0.0, 0.0, 0.0, 0.0, 0.0, 0.0, 0.0, 0.0, 0.0, 1.7068830876371272E9, 0.0, 2024-02-02 15:11:27.637
184.0, 62585.57737893789, 65354.64559252806, -30264.686675630415, -2091.966818805554, 16736.762730689374, 6600.447785907721, 25433.088890682327, 5805.284476910171, 40468.68270262274, 47231.42650502044, 37359.6668076118, 47944.87183628939, 23450.10917784085, 26684.76422843507, -8105.591905783643, -1385.4058248288425, -0.096, 0.982, 0.266, 192.0, 0.0, 0.0, 0.0, 0.0, 0.0, 0.0, 0.0, 0.0, 0.0, 1.706883087645157E9, 0.0, 2024-02-02 15:11:27.645
186.0, 62599.524867478, 65374.404534626556, -30266.854794842577, -2086.3341792028164, 16733.186451576526, 6597.117375983879, 25422.292998110413, 5798.601305318035, 40470.82847009045, 47233.66167946597, 37356.40345292133, 47942.32373742149, 23448.298686539973, 26677.723428931648, -8114.063216932204, -1391.9101824653367, -0.094, 0.984, 0.266, 192.0, 126.5, 8.0, 15.0, 96.0, 4.0, 40.0, 0.0, 0.0, 0.0, 1.7068830876520867E9, 0.0, 2024-02-02 15:11:27.652
188.0, 62613.38294904029, 65392.643558102085, -30255.94714354839, -2074.5995133637803, 16746.97747790545, 6610.908402312804, 25431.233695892537, 5808.346665900549, 40481.087920795435, 47246.290415083226, 37362.93016230228, 47948.090487490954, 23455.45124476567, 26685.725353446647, -8111.001027941827, -1386.3445980959652, -0.094, 0.984, 0.266, 192.0, 0.0, 0.0, 0.0, 0.0, 0.0, 0.0, 0.0, 0.0, 0.0, 1.7068830876600983E9, 0.0, 2024-02-02 15:11:27.660
190.0, 62608.353806537845, 65391.90595053506, -30257.578820893625, -2077.616998865247, 16745.97164940496, 6611.266030224089, 25432.50774532649, 5809.57601184559, 40481.31143823999, 47248.32442382866, 37368.585153649474, 47953.343147437954, 23462.201471591172, 26695.448362284704, -8099.802803969718, -1375.4145950573202, -0.094, 0.984, 0.266, 192.0, 0.0, 0.0, 0.0, 0.0, 0.0, 0.0, 0.0, 0.0, 0.0, 1.7068830876691325E9, 0.0, 2024-02-02 15:11:27.669
192.0, 62595.30038777595, 65389.96134876744, -30266.161890764462, -2087.5188216589477, 16736.226288822447, 6601.900649297315, 25421.331873098836, 5798.891877995954, 40480.70794113969, 47255.40992682099, 37361.07496751249, 47950.92915903678, 23459.11693085634, 26693.36965005036, -8109.07877791867, -1383.1482986388564, -0.094, 0.984, 0.266, 192.0, 0.0, 0.0, 0.0, 0.0, 0.0, 0.0, 0.0, 0.0, 0.0, 1.7068830876764696E9, 0.0, 2024-02-02 15:11:27.676
194.0, 62597.28969303247, 65399.72906109442, -30263.211460496364, -2083.227286723529, 16741.009562135885, 6607.376826688866, 25430.6525505367, 5808.525479856191, 40478.428063205254, 47243.11646737057, 37353.92240928679, 47941.25085368763, 23456.25590756606, 26689.502798259593, -8112.722112264885, -1388.4680138192193, -0.094, 0.984, 0.266, 192.0, 0.0, 0.0, 0.0, 0.0, 0.0, 0.0, 0.0, 0.0, 0.0, 1.7068830876841607E9, 0.0, 2024-02-02 15:11:27.684
196.0, 62584.88447485978, 65385.84862778767, -30272.71095188987, -2094.581972906825, 16728.894916641108, 6594.2563526936, 25414.246370106506, 5797.19314541735, 40493.22491803466, 47244.99401390481, 37352.17897321928, 47941.00498449862, 23456.300611054972, 26692.38617329433, -8115.046693688238, -1387.9539236967473, -0.094, 0.99, 0.27, 192.0, 126.5, 8.0, 15.0, 120.0, 4.0, 56.0, 0.0, 0.0, 0.0, 1.7068830876921563E9, 0.0, 2024-02-02 15:11:27.692
198.0, 62567.13718976226, 65375.25390091586, -30265.51369017526, -2085.5295164024255, 16733.02998936534, 6604.538155143042, 25417.73324224153, 5804.882145509976, 40497.04706633653, 47231.85118816509, 37342.03128123657, 47931.84076927195, 23450.44445400768, 26684.205434823685, -8121.416940858, -1389.9432289532697, -0.094, 0.99, 0.27, 192.0, 0.0, 0.0, 0.0, 0.0, 0.0, 0.0, 0.0, 0.0, 0.0, 1.706883087701438E9, 0.0, 2024-02-02 15:11:27.701
200.0, 62538.63871558174, 65353.95268844994, -30261.80330059568, -2087.2729524699394, 16738.752035945898, 6608.40500693381, 25436.17343141716, 5817.712046827322, 40513.1626740888, 47227.35848752958, 37347.35099641693, 47933.62890882837, 23452.947849386677, 26703.539693777526, -8106.731844750863, -1377.8732869474038, -0.094, 0.99, 0.27, 192.0, 0.0, 0.0, 0.0, 0.0, 0.0, 0.0, 0.0, 0.0, 0.0, 1.70688308770834E9, 0.0, 2024-02-02 15:11:27.708
202.0, 62505.71459599908, 65334.23844984036, -30267.055960542675, -2089.575182148836, 16732.20297482049, 6605.49928015462, 25423.812916733375, 5810.1348054569735, 40524.226787594176, 47218.26132753627, 37334.76696428859, 47919.61436505489, 23449.662142951747, 26675.175330063743, -8106.418920328489, -1373.1347171228788, -0.094, 0.99, 0.27, 192.0, 0.0, 0.0, 0.0, 0.0, 0.0, 0.0, 0.0, 0.0, 0.0, 1.7068830877162468E9, 0.0, 2024-02-02 15:11:27.716
204.0, 62512.80009899141, 65332.56206900622, -30257.847041827088, -2078.488716899004, 16738.64027722362, 6614.97641980367, 25436.79928026191, 5814.605154348034, 40527.31132832901, 47216.20496704638, 37342.43361263676, 47925.3587633799, 23447.002285361563, 26696.23067334064, -8094.907771934006, -1363.903446662837, -0.094, 0.99, 0.27, 192.0, 0.0, 0.0, 0.0, 0.0, 0.0, 0.0, 0.0, 0.0, 0.0, 1.7068830877251942E9, 0.0, 2024-02-02 15:11:27.725
206.0, 62475.76325842897, 65300.95670234641, -30264.79843435269, -2084.6577983686684, 16735.399274277603, 6607.9132685557925, 25433.98296046054, 5808.279610667183, 40515.688421212246, 47209.81236813216, 37340.9136940138, 47922.18481566725, 23445.392959760782, 26696.744763463113, -8093.141984122037, -1358.583731482474, -0.096, 0.99, 0.27, 192.0, 126.5, 0.0, 15.0, 120.0, 4.0, 56.0, 0.0, 0.0, 0.0, 1.7068830877324202E9, 0.0, 2024-02-02 15:11:27.732
208.0, 62457.97126984254, 65289.35614697411, -30269.84992859959, -2090.0669205268528, 16729.78898641932, 6605.186355732246, 25422.02477717695, 5798.333084384571, 40471.364911957375, 47189.584039400106, 37326.832095006954, 47905.55511779251, 23438.35216025736, 26685.77005693556, -8097.142946379537, -1361.6906239617615, -0.096, 0.99, 0.27, 192.0, 0.0, 0.0, 0.0, 0.0, 0.0, 0.0, 0.0, 0.0, 0.0, 1.706883087740239E9, 0.0, 2024-02-02 15:11:27.740
210.0, 62460.0946855658, 65292.55244643122, -30272.845062356602, -2090.22338273804, 16730.705407941987, 6606.1474807438235, 25424.12584115575, 5795.807337261122, 40473.06364453598, 47185.69483586489, 37331.57066483148, 47904.99632418112, 23438.77684340201, 26687.155865091787, -8099.668693502987, -1363.9928536406583, -0.096, 0.99, 0.27, 192.0, 0.0, 0.0, 0.0, 0.0, 0.0, 0.0, 0.0, 0.0, 0.0, 1.7068830877483077E9, 0.0, 2024-02-02 15:11:27.748
212.0, 62461.81576988885, 65291.479562697365, -30264.843137841603, -2081.796775078389, 16733.544079487812, 6613.724722114172, 25423.142364399715, 5799.093043696052, 40463.49709790911, 47192.15449001247, 37332.73295554316, 47908.77376899407, 23438.374512001814, 26692.56498724997, -8092.896114933028, -1357.9578826377253, -0.096, 0.99, 0.27, 192.0, 0.0, 0.0, 0.0, 0.0, 0.0, 0.0, 0.0, 0.0, 0.0, 1.70688308775747E9, 0.0, 2024-02-02 15:11:27.757
214.0, 62461.189921044104, 65299.54854244573, -30259.076387772133, -2078.287551198906, 16737.813262678774, 6618.329181471966, 25428.70794876909, 5803.205764675828, 40442.709975565675, 47190.1875365004, 37339.72905155767, 47913.60174579641, 23437.72631141261, 26697.258853585587, -8089.3421875646345, -1354.6051209694292, -0.096, 0.99, 0.27, 192.0, 0.0, 0.0, 0.0, 0.0, 0.0, 0.0, 0.0, 0.0, 0.0, 1.7068830877644804E9, 0.0, 2024-02-02 15:11:27.764
216.0, 62436.938278310095, 65272.815856077184, -30268.911155332466, -2089.1728507486405, 16726.235059050927, 6603.35351268691, 25405.3950793022, 5782.23982837675, 40425.85676024637, 47186.5889056431, 37334.85637126641, 47909.17610039427, 23435.513488711535, 26690.28510931553, -8085.967074151883, -1350.8500279009377, -0.096, 0.982, 0.27, 192.0, 126.5, 0.0, 15.0, 88.0, 4.0, 56.0, 0.0, 0.0, 0.0, 1.7068830877722764E9, 0.0, 2024-02-02 15:11:27.772
218.0, 62440.89453707869, 65283.76821086028, -30273.80618736818, -2091.4080251941714, 16722.390559004612, 6602.079463252958, 25404.03162289043, 5777.545962041136, 40422.794571255996, 47173.848411303574, 37321.02064144858, 47894.58041126495, 23425.276389751005, 26690.642737226815, -8100.383949325556, -1362.4952867621525, -0.096, 0.982, 0.27, 192.0, 0.0, 0.0, 0.0, 0.0, 0.0, 0.0, 0.0, 0.0, 0.0, 1.7068830877813356E9, 0.0, 2024-02-02 15:11:27.781
220.0, 62463.76037165647, 65305.1141268151, -30263.680847129926, -2082.22145822304, 16733.11939634316, 6612.048341280025, 25422.136535899226, 5788.252447635227, 40439.6477865753, 47175.14481248198, 37331.81653402049, 47903.09642590242, 23429.098538052862, 26697.86235068588, -8092.136155621548, -1352.2805395460773, -0.096, 0.982, 0.27, 192.0, 0.0, 0.0, 0.0, 0.0, 0.0, 0.0, 0.0, 0.0, 0.0, 1.7068830877884462E9, 0.0, 2024-02-02 15:11:27.788
222.0, 62442.6379731462, 65287.32213822868, -30275.527271691237, -2101.1086822877746, 16725.698617184, 6597.251486450611, 25409.150172370693, 5775.087270151052, 40459.92081879626, 47188.19823124388, 37332.10710669841, 47903.87873695836, 23433.278314266005, 26700.969243165167, -8093.700777733419, -1358.6284349713844, -0.096, 0.982, 0.27, 192.0, 0.0, 0.0, 0.0, 0.0, 0.0, 0.0, 0.0, 0.0, 0.0, 1.7068830877963357E9, 0.0, 2024-02-02 15:11:27.796
224.0, 62470.04121184841, 65306.81285939371, -30276.24252751381, -2095.811318851867, 16725.65391369509, 6600.78306207455, 25407.965529914563, 5775.288435851149, 40454.98108327163, 47168.01460600074, 37320.93123447076, 47890.33357981844, 23421.25307574905, 26684.56306273497, -8101.635647015053, -1372.6206270004068, -0.096, 0.982, 0.27, 192.0, 0.0, 0.0, 0.0, 0.0, 0.0, 0.0, 0.0, 0.0, 0.0, 1.706883087804326E9, 0.0, 2024-02-02 15:11:27.804
226.0, 62483.09463061031, 65325.78949043626, -30268.486472187815, -2082.132051245219, 16732.761768431876, 6612.4283209357645, 25417.55442828589, 5785.950217956331, 40485.58062143095, 47196.06604529215, 37341.85246728092, 47915.0099056971, 23432.183078787697, 26712.078060159452, -8089.476298031366, -1358.583731482474, -0.091, 0.981, 0.273, 192.0, 126.5, 40.0, 15.0, 80.0, 4.0, 80.0, 0.0, 0.0, 0.0, 1.7068830878134947E9, 0.0, 2024-02-02 15:11:27.813
228.0, 62464.006240845476, 65310.59030420665, -30280.42230372695, -2096.057188040875, 16726.03389335083, 6601.610076619396, 25413.46405905057, 5773.433241061359, 40474.47180443666, 47185.89600156499, 37331.70477529821, 47905.9574491927, 23424.33761648388, 26690.866254671368, -8090.705643976408, -1356.8626471594152, -0.091, 0.981, 0.273, 192.0, 0.0, 0.0, 0.0, 0.0, 0.0, 0.0, 0.0, 0.0, 0.0, 1.7068830878203323E9, 0.0, 2024-02-02 15:11:27.820
230.0, 62480.79240093141, 65328.00231313734, -30277.248356014297, -2096.258353740973, 16726.659742195578, 6599.888992296338, 25405.439782791113, 5769.3428718260375, 40475.9023160818, 47174.071928748126, 37331.14598168683, 47896.793233966026, 23420.403709459748, 26687.021754625053, -8094.594847511631, -1362.0482518730464, -0.091, 0.981, 0.273, 192.0, 0.0, 0.0, 0.0, 0.0, 0.0, 0.0, 0.0, 0.0, 0.0, 1.7068830878283794E9, 0.0, 2024-02-02 15:11:27.828
232.0, 62487.766145201465, 65335.0207608963, -30278.187129281418, -2100.326371231839, 16721.250620037394, 6593.406986404299, 25405.104506624284, 5763.509066523203, 40492.57671744546, 47186.991237043294, 37331.43655436475, 47898.69313224473, 23422.460069949637, 26691.313289560472, -8096.964132423894, -1362.4058797843313, -0.091, 0.981, 0.273, 192.0, 0.0, 0.0, 0.0, 0.0, 0.0, 0.0, 0.0, 0.0, 0.0, 1.7068830878363981E9, 0.0, 2024-02-02 15:11:27.836
234.0, 62512.934209458144, 65359.69708677496, -30271.50395768928, -2090.9833420495206, 16723.910477627574, 6598.905515540304, 25399.605977488278, 5766.61595900249, 40510.50281649862, 47185.00193178677, 37335.75044104463, 47903.09642590242, 23422.951808327653, 26693.727277961647, -8098.774623724774, -1370.3631008104207, -0.091, 0.981, 0.273, 192.0, 0.0, 0.0, 0.0, 0.0, 0.0, 0.0, 0.0, 0.0, 0.0, 1.7068830878436668E9, 0.0, 2024-02-02 15:11:27.843
236.0, 62519.37151186127, 65369.3306886352, -30269.42524545494, -2087.764690847956, 16725.45274799499, 6596.156250972302, 25408.36786131476, 5773.813220717099, 40537.03433716707, 47200.558745927665, 37341.78541204756, 47916.999210953625, 23425.477555451103, 26696.923577418755, -8098.1487748800255, -1368.9102374208258, -0.0865, 0.9795, 0.2745, 192.0, 126.5, 56.0, 15.0, 72.0, 4.0, 80.0, 0.0, 0.0, 0.0, 1.706883087852399E9, 0.0, 2024-02-02 15:11:27.852
238.0, 62528.06634045439, 65384.01578474233, -30266.206594253374, -2085.149536746685, 16730.437187008523, 6597.922038784271, 25414.805163717887, 5779.445860319836, 40547.18202914978, 47212.24870827779, 37342.59007484795, 47923.36945812339, 23424.20350601715, 26699.695193731215, -8094.88542018955, -1365.1998478412447, -0.0865, 0.9795, 0.2745, 192.0, 0.0, 0.0, 0.0, 0.0, 0.0, 0.0, 0.0, 0.0, 0.0, 1.7068830878604567E9, 0.0, 2024-02-02 15:11:27.860
240.0, 62550.0157535095, 65406.07695651972, -30257.534117404717, -2078.6898825991016, 16737.053303367295, 6605.298114454522, 25418.090870152817, 5785.167906900395, 40563.9234857468, 47208.20304253138, 37345.808726049516, 47923.72708603467, 23426.483383951592, 26699.114048375377, -8097.612333013098, -1367.3456153089542, -0.0865, 0.9795, 0.2745, 192.0, 0.0, 0.0, 0.0, 0.0, 0.0, 0.0, 0.0, 0.0, 0.0, 1.7068830878684497E9, 0.0, 2024-02-02 15:11:27.868
242.0, 62554.41904716719, 65413.65419789007, -30263.52438491874, -2086.4682896695485, 16725.005713105886, 6598.123204484368, 25402.802276945386, 5776.182505629362, 40591.259669215644, 47225.21272006187, 37351.97780751918, 47937.36165015241, 23429.791442130976, 26705.596054267415, -8100.987446425849, -1365.1774960967894, -0.0865, 0.9795, 0.2745, 192.0, 0.0, 0.0, 0.0, 0.0, 0.0, 0.0, 0.0, 0.0, 0.0, 1.7068830878756828E9, 0.0, 2024-02-02 15:11:27.875
244.0, 62570.80287585293, 65430.395654487096, -30252.929658046924, -2077.348777931783, 16741.702466214, 6611.087216268446, 25431.27839938145, 5794.600343060535, 40615.84658811648, 47222.664621193966, 37357.878668055375, 47942.30138567703, 23430.886677609287, 26708.479429302148, -8095.801841712218, -1365.579827496985, -0.0865, 0.9795, 0.2745, 192.0, 0.0, 0.0, 0.0, 0.0, 0.0, 0.0, 0.0, 0.0, 0.0, 1.7068830878844547E9, 0.0, 2024-02-02 15:11:27.884
246.0, 62567.181893251174, 65430.57446844274, -30259.23284998332, -2085.417757680149, 16736.36039928918, 6603.219402220178, 25420.124878898252, 5786.6654737789, 40640.50056225069, 47226.86674915156, 37360.11384250091, 47945.45298164523, 23436.787538145487, 26715.073193916465, -8090.4597747873995, -1359.9918913831582, -0.08725, 0.98075, 0.27225, 192.0, 126.5, 32.0, 15.0, 88.0, 4.0, 56.0, 0.0, 0.0, 0.0, 1.7068830878926682E9, 0.0, 2024-02-02 15:11:27.892
248.0, 62570.6687653862, 65435.447148734, -30260.12691976153, -2088.1446705036965, 16735.17575683305, 6604.828727820961, 25416.70506199659, 5786.039624934152, 40643.629806474426, 47218.99893510329, 37348.245066195144, 47935.68526931826, 23428.360930485836, 26705.52899903405, -8096.338283579145, -1368.5302577650855, -0.08725, 0.98075, 0.27225, 192.0, 0.0, 0.0, 0.0, 0.0, 0.0, 0.0, 0.0, 0.0, 0.0, 1.706883087899466E9, 0.0, 2024-02-02 15:11:27.899
250.0, 62569.57352990789, 65438.486985979915, -30266.51951867575, -2097.3088857303724, 16731.55477423129, 6604.113471998391, 25411.251236349493, 5782.888028965954, 40655.632693246924, 47210.50527221028, 37349.988502262655, 47932.55602509451, 23428.07035780792, 26706.51247579008, -8097.232353357358, -1370.743080466161, -0.08725, 0.98075, 0.27225, 192.0, 0.0, 0.0, 0.0, 0.0, 0.0, 0.0, 0.0, 0.0, 0.0, 1.7068830879085271E9, 0.0, 2024-02-02 15:11:27.908
252.0, 62570.892282830755, 65445.907765139076, -30269.693466388402, -2098.404121208682, 16731.577125975746, 6604.78402433205, 25419.297864353404, 5785.90551446742, 40657.80081245909, 47213.85803387857, 37338.522057357084, 47925.1128941909, 23419.084956536884, 26702.958548421688, -8109.101129663126, -1376.643941002362, -0.08725, 0.98075, 0.27225, 192.0, 0.0, 0.0, 0.0, 0.0, 0.0, 0.0, 0.0, 0.0, 0.0, 1.7068830879167461E9, 0.0, 2024-02-02 15:11:27.916
254.0, 62577.754268378536, 65450.98161113043, -30266.765387864758, -2094.5596211623697, 16738.394408034612, 6609.12026275638, 25431.971303459562, 5795.874392494487, 40669.73664399823, 47212.516929211255, 37348.13330747286, 47933.137170450354, 23426.036349062488, 26707.94298743522, -8101.859164459606, -1370.4301560437866, -0.08725, 0.98075, 0.27225, 192.0, 0.0, 0.0, 0.0, 0.0, 0.0, 0.0, 0.0, 0.0, 0.0, 1.7068830879235525E9, 0.0, 2024-02-02 15:11:27.923
0.0, 62573.97682356559, 65448.38880877362, -30274.677905401935, -2105.266106756462, 16727.151480573593, 6599.061977751491, 25412.569989272357, 5784.787927244655, 40675.12341441195, 47211.4440454774, 37345.093470226944, 47932.33250764996, 23422.840049605376, 26706.66893800127, -8105.726016250374, -1371.3465775664542, -0.085625, 0.979375, 0.271125, 192.0, 126.5, 48.0, 15.0, 72.0, 4.0, 56.0, 0.0, 0.0, 0.0, 1.7068830879315374E9, 0.0, 2024-02-02 15:11:27.931
2.0, 62582.2693207585, 65457.1506926001, -30270.542832677704, -2101.3992549656937, 16738.327352801247, 6605.588687132441, 25422.114184154772, 5792.365168615004, 40674.162289400374, 47214.55093795669, 37340.17608644677, 47931.39373438284, 23418.749680370056, 26701.14805712081, -8112.766815753796, -1378.1415078808675, -0.085625, 0.979375, 0.271125, 192.0, 0.0, 0.0, 0.0, 0.0, 0.0, 0.0, 0.0, 0.0, 0.0, 1.7068830879405627E9, 0.0, 2024-02-02 15:11:27.940
4.0, 62588.39369873926, 65468.19245436102, -30269.492300688304, -2103.70148464459, 16743.781178448342, 6612.718893613684, 25431.345454614813, 5797.774290773188, 40678.85615573599, 47214.77445540124, 37348.937970273255, 47937.763981552605, 23427.980950830097, 26709.14998163581, -8096.382987068056, -1365.6021792414404, -0.085625, 0.979375, 0.271125, 192.0, 0.0, 0.0, 0.0, 0.0, 0.0, 0.0, 0.0, 0.0, 0.0, 1.7068830879485738E9, 0.0, 2024-02-02 15:11:27.948
6.0, 62594.6745389312, 65477.937814943536, -30273.783835623723, -2111.502243459492, 16739.04260862382, 6605.275762710066, 25418.895532953207, 5789.90647672492, 40670.42954807634, 47218.68601068092, 37340.04197598004, 47929.650298315326, 23420.02372980401, 26700.701022231704, -8108.341170351645, -1377.292141591566, -0.085625, 0.979375, 0.271125, 192.0, 0.0, 0.0, 0.0, 0.0, 0.0, 0.0, 0.0, 0.0, 0.0, 1.7068830879555924E9, 0.0, 2024-02-02 15:11:27.955
8.0, 62606.409204770236, 65489.69483252703, -30266.832443098123, -2105.0872928008193, 16750.821977951764, 6611.4895476686415, 25432.97713196005, 5798.936581484864, 40678.56558305807, 47221.21175780437, 37350.547295874036, 47935.48410361816, 23428.07035780792, 26705.99838566761, -8103.066158660193, -1377.0239206581023, -0.085625, 0.979375, 0.271125, 192.0, 0.0, 0.0, 0.0, 0.0, 0.0, 0.0, 0.0, 0.0, 0.0, 1.7068830879636357E9, 0.0, 2024-02-02 15:11:27.963
