%OpenBCI Raw EXG Data
%Number of channels = 16
%Sample Rate = 125 Hz
%Board = OpenBCI_GUI$BoardCytonSerialDaisy
Sample Index, EXG Channel 0, EXG Channel 1, EXG Channel 2, EXG Channel 3, EXG Channel 4, EXG Channel 5, EXG Channel 6, EXG Channel 7, EXG Channel 8, EXG Channel 9, EXG Channel 10, EXG Channel 11, EXG Channel 12, EXG Channel 13, EXG Channel 14, EXG Channel 15, Accel Channel 0, Accel Channel 1, Accel Channel 2, Other, Other, Other, Other, Other, Other, Other, Analog Channel 0, Analog Channel 1, Analog Channel 2, Timestamp, Other, Timestamp (Formatted)
0.0, 60011.41637699799, 63252.55343348425, -31565.468795951463, -2687.3502358615683, 17192.604207110908, 8352.712792481518, 28169.277688178743, 4777.841839533072, 0.0, 0.0, 0.0, 0.0, 0.0, 0.0, 0.0, 0.0, 0.0, 0.0, 0.0, 192.0, 0.0, 0.0, 0.0, 0.0, 0.0, 0.0, 0.0, 0.0, 0.0, 1.7068827162361205E9, 0.0, 2024-02-02 15:05:16.236
216.0, 60004.35322575012, 63242.450444990456, -31570.050903564803, -2674.7885554776853, 17186.837457041438, 8346.186083100567, 28161.789853786213, 4768.945845239859, 35826.15832402209, 47631.992117404, 36400.553453034576, 44814.44297009027, 24151.618677570663, 24980.063734062165, -3016.9043561106155, 110.14939667575321, 0.0, 0.0, 0.0, 192.0, 0.0, 0.0, 0.0, 0.0, 0.0, 0.0, 0.0, 0.0, 0.0, 1.7068827162361407E9, 0.0, 2024-02-02 15:05:16.236
0.0, 29948.297732865543, 31483.460245544942, -15687.325976768254, -1310.393370436832, 8568.474181708596, 4149.86957906122, 14099.88273380789, 2455.361480159936, 17923.729768244, 23820.790507887665, 18207.283998404026, 22409.590769957398, 12090.572665998063, 12514.719368781969, -1500.9866954072352, 62.607236219315084, -0.088, 0.998, 0.26, 192.0, 126.5, 32.0, 15.5, 24.0, 4.0, 16.0, 0.0, 0.0, 0.0, 1.7068827163369508E9, 0.0, 2024-02-02 15:05:16.336
2.0, 59902.876305923026, 62970.60852892501, -31382.92209898497, -2621.2337757627697, 17138.2447645956, 8296.11817552068, 28205.48751419634, 4914.433349899453, 37043.05434740238, 47852.0450415665, 36455.65050311691, 44782.94936215274, 24184.788666342338, 24976.8450828606, -3067.9333887020816, 134.04341149847644, -0.088, 0.998, 0.26, 192.0, 0.0, 0.0, 0.0, 0.0, 0.0, 0.0, 0.0, 0.0, 0.0, 1.7068827163430333E9, 0.0, 2024-02-02 15:05:16.343
4.0, 59883.162067313446, 62957.44335144083, -31412.26993945479, -2653.934377900884, 17114.417805006244, 8275.822791555262, 28190.265976222276, 4897.982465980347, 36992.204128766556, 47826.49699765408, 36437.54559010811, 44772.57815272548, 24179.3571924397, 24961.42237918644, -3077.99167370697, 135.02688825450997, -0.088, 0.998, 0.26, 192.0, 0.0, 0.0, 0.0, 0.0, 0.0, 0.0, 0.0, 0.0, 0.0, 1.7068827163499694E9, 0.0, 2024-02-02 15:05:16.349
6.0, 59890.40403251696, 62965.08764804455, -31424.74221286085, -2644.0549068516384, 17117.032959107513, 8277.11919273367, 28186.644993620517, 4894.070910700669, 36943.72319504299, 47812.90713702526, 36431.75648829419, 44768.62189395689, 24230.542687242352, 24978.65557416148, -3090.7768715354055, 114.64209731126992, -0.088, 0.998, 0.26, 192.0, 0.0, 0.0, 0.0, 0.0, 0.0, 0.0, 0.0, 0.0, 0.0, 1.7068827163570187E9, 0.0, 2024-02-02 15:05:16.357
8.0, 59893.60033197407, 62966.47345620078, -31386.565433331187, -2630.9567846008285, 17125.705435956173, 8286.506925404898, 28190.422438433463, 4902.676332315962, 36904.384124801654, 47807.36390440034, 36442.910008777384, 44785.743330209654, 24184.162817497592, 24956.169719239442, -3083.914885987626, 133.50696963154908, -0.10200000000000001, 0.994, 0.248, 192.0, 126.0, 104.0, 15.5, 8.0, 3.5, 96.0, 0.0, 0.0, 0.0, 1.706882716366206E9, 0.0, 2024-02-02 15:05:16.366
10.0, 59898.16008784295, 62967.56869167909, -31393.11449445659, -2640.299813783147, 17126.733616201116, 8288.83150682825, 28196.010374547288, 4903.369236394076, 36825.41541164105, 47812.72832306961, 36442.5523808661, 44784.62574298689, 24153.69738980501, 25005.835295419132, -3076.4941068284643, 134.37868766530607, -0.10200000000000001, 0.994, 0.248, 192.0, 0.0, 0.0, 0.0, 0.0, 0.0, 0.0, 0.0, 0.0, 0.0, 1.7068827163740263E9, 0.0, 2024-02-02 15:05:16.374
12.0, 59901.468146022344, 62970.18384578036, -31392.55570084521, -2622.2843077521693, 17130.220488336145, 8293.793594097328, 28215.791668390237, 4914.92508827747, 36778.09676862917, 47792.74586352657, 36451.29191294812, 44790.25838258963, 24166.884919033637, 24952.906364548966, -3070.727356758995, 145.3086907039512, -0.10200000000000001, 0.994, 0.248, 192.0, 0.0, 0.0, 0.0, 0.0, 0.0, 0.0, 0.0, 0.0, 0.0, 1.7068827163811927E9, 0.0, 2024-02-02 15:05:16.381
14.0, 59895.14260234149, 62966.98754632325, -31395.59553809113, -2641.931491128384, 17125.794842933996, 8286.149297493614, 28203.229988006355, 4906.409073639998, 36713.3661166866, 47790.5777443144, 36440.965407009775, 44783.46345227522, 24172.07052374727, 24968.28436473422, -3079.4221853521094, 135.85390279935632, -0.10200000000000001, 0.994, 0.248, 192.0, 0.0, 0.0, 0.0, 0.0, 0.0, 0.0, 0.0, 0.0, 0.0, 1.7068827163900511E9, 0.0, 2024-02-02 15:05:16.390
16.0, 59894.896733152484, 62962.42779045437, -31385.559604830698, -2636.3435550145573, 17127.91825865725, 8290.217314984478, 28196.233891991844, 4911.214698697889, 36676.68690403544, 47772.94221793917, 36448.38618616894, 44781.49649876315, 24172.6069656142, 24963.165815253953, -3071.532019559386, 139.36312667883954, -0.10200000000000001, 0.994, 0.248, 192.0, 0.0, 0.0, 0.0, 0.0, 0.0, 0.0, 0.0, 0.0, 0.0, 1.706882716398193E9, 0.0, 2024-02-02 15:05:16.398
18.0, 59893.913256396445, 62965.42292421138, -31389.851139766117, -2629.459217722323, 17124.565496988955, 8283.042405014325, 28207.655633408503, 4917.294373189732, 36635.447935515396, 47779.93831395368, 36446.44158440132, 44790.54895526755, 24170.617660357675, 24978.253242761286, -3072.4484410820537, 138.42435341171665, -0.10200000000000001, 0.994, 0.252, 192.0, 126.0, 104.0, 15.5, 8.0, 3.5, 112.0, 0.0, 0.0, 0.0, 1.7068827164060774E9, 0.0, 2024-02-02 15:05:16.406
20.0, 59895.34376804159, 62967.836912612554, -31384.218500163377, -2634.2201392913034, 17125.951305145183, 8301.929629079059, 28207.76739213078, 4914.835681299649, 36597.986411808306, 47778.95483719765, 36435.8021540406, 44781.58590574097, 24159.26297417438, 24981.248376518295, -3078.1034324292464, 133.37285916481724, -0.10200000000000001, 0.994, 0.252, 192.0, 0.0, 0.0, 0.0, 0.0, 0.0, 0.0, 0.0, 0.0, 0.0, 1.7068827164130845E9, 0.0, 2024-02-02 15:05:16.413
22.0, 59910.31943682664, 62979.37041275149, -31365.130110398546, -2612.002505302728, 17141.798691963995, 8305.416501214087, 28218.87620912507, 4924.513986648797, 36608.447028213384, 47776.31733135192, 36457.46099441779, 44798.282658849086, 24162.436921887034, 24970.89951883549, -3066.6146357792186, 147.92384480522213, -0.10200000000000001, 0.994, 0.252, 192.0, 0.0, 0.0, 0.0, 0.0, 0.0, 0.0, 0.0, 0.0, 0.0, 1.706882716422269E9, 0.0, 2024-02-02 15:05:16.422
24.0, 59899.81411693265, 62972.32961324807, -31377.803549504704, -2622.0160868187054, 17126.10776735637, 8286.194000982523, 28207.58857817514, 4911.102939975613, 36602.81438861065, 47779.73714825358, 36458.53387815164, 44801.7248274952, 24179.200730228513, 24993.631242946536, -3063.7089090000286, 150.15901925075283, -0.10200000000000001, 0.994, 0.252, 192.0, 0.0, 0.0, 0.0, 0.0, 0.0, 0.0, 0.0, 0.0, 0.0, 1.706882716430092E9, 0.0, 2024-02-02 15:05:16.430
26.0, 59912.53225952772, 62986.65708144392, -31362.29143885272, -2608.1133017675047, 17138.177709362237, 8305.2600390029, 28218.563284702694, 4924.804559326716, 36607.28473750171, 47780.094776164864, 36463.45126193181, 44801.34484783946, 24159.933526508037, 24997.967481370866, -3060.5126095429196, 149.55552215045955, -0.10200000000000001, 0.994, 0.252, 192.0, 0.0, 0.0, 0.0, 0.0, 0.0, 0.0, 0.0, 0.0, 0.0, 1.706882716437096E9, 0.0, 2024-02-02 15:05:16.437
28.0, 59903.03276813421, 62976.84466562804, -31367.54409879972, -2626.486435709767, 17131.941572659205, 8284.294102703823, 28206.918025841478, 4912.824024298671, 36600.04277229819, 47780.36299709833, 36456.03048277265, 44802.08245540648, 24162.571032353764, 24994.12298132455, -3063.4183363221096, 151.41071694025004, -0.108, 0.998, 0.252, 192.0, 126.0, 80.0, 15.5, 24.0, 3.5, 112.0, 0.0, 0.0, 0.0, 1.7068827164461148E9, 0.0, 2024-02-02 15:05:16.446
30.0, 59896.39430003099, 62971.70376440332, -31381.178662917457, -2647.742944686764, 17123.38085453282, 8269.16197170758, 28195.384525702542, 4899.569439836674, 36632.2963395472, 47753.0715171184, 36444.653444844895, 44774.72392019319, 24144.22025015596, 25022.420289804973, -3073.051938182347, 135.38451616579488, -0.108, 0.998, 0.252, 192.0, 0.0, 0.0, 0.0, 0.0, 0.0, 0.0, 0.0, 0.0, 0.0, 1.706882716454357E9, 0.0, 2024-02-02 15:05:16.454
32.0, 59903.54685825668, 62979.19159879585, -31370.718046512375, -2621.457293207323, 17128.789976691005, 8309.618629171686, 28199.0055083043, 4909.851242286115, 36648.74722346631, 47800.92660199721, 36447.603875112996, 44800.651943761346, 24156.73722705093, 24994.14533306901, -3068.760403246928, 147.61092038284784, -0.108, 0.998, 0.252, 192.0, 0.0, 0.0, 0.0, 0.0, 0.0, 0.0, 0.0, 0.0, 0.0, 1.7068827164611285E9, 0.0, 2024-02-02 15:05:16.461
34.0, 59901.66931172244, 62976.19646503883, -31368.169947644466, -2619.8926710954515, 17132.142738359304, 8295.961713309493, 28201.464200194383, 4914.992143510836, 36669.556697554195, 47791.1812414147, 36451.78365132614, 44796.583926270476, 24146.54483157931, 25012.719632711367, -3069.5874177917744, 143.20762672515235, -0.108, 0.998, 0.252, 192.0, 0.0, 0.0, 0.0, 0.0, 0.0, 0.0, 0.0, 0.0, 0.0, 1.7068827164691372E9, 0.0, 2024-02-02 15:05:16.469
36.0, 59911.83935544961, 62985.00305235423, -31362.023217919257, -2613.1424442699486, 17141.038732652516, 8302.622533157175, 28212.43890672194, 4923.262288959299, 36695.59647984463, 47775.11033715133, 36451.29191294812, 44789.163147111314, 24173.16575922558, 24976.688620649413, -3065.184124134079, 154.6964233751802, -0.108, 0.998, 0.252, 192.0, 0.0, 0.0, 0.0, 0.0, 0.0, 0.0, 0.0, 0.0, 0.0, 1.7068827164781876E9, 0.0, 2024-02-02 15:05:16.478
38.0, 59902.11634661155, 62979.75039240723, -31369.3545901006, -2623.379543230479, 17132.43331103722, 8295.760547609396, 28210.382546232053, 4915.2603644443, 36716.58476788816, 47786.24150589007, 36455.22581997226, 44796.092187892464, 24167.108436478193, 25005.9023506525, -3060.7361269874727, 157.04335654298742, -0.114, 0.99, 0.248, 192.0, 126.0, 56.0, 15.0, 120.0, 3.5, 96.0, 0.0, 0.0, 0.0, 1.706882716486418E9, 0.0, 2024-02-02 15:05:16.486
40.0, 59901.04346287769, 62980.95738660781, -31373.333200613644, -2629.839197378063, 17126.040712123002, 8290.172611495569, 28202.000642061314, 4905.358541650598, 36726.77716335978, 47785.638008789785, 36444.00524425569, 44785.45275753173, 24157.58659334023, 24999.196827315907, -3076.851734739749, 145.46515291513836, -0.114, 0.99, 0.248, 192.0, 0.0, 0.0, 0.0, 0.0, 0.0, 0.0, 0.0, 0.0, 0.0, 1.7068827164931648E9, 0.0, 2024-02-02 15:05:16.493
42.0, 59905.737329213305, 62985.42773549888, -31363.76665398677, -2622.776046130186, 17133.506194771075, 8299.202716255513, 28198.96080481539, 4907.325495162666, 36750.55941946023, 47785.95093321216, 36450.59900887001, 44789.49842327815, 24149.852889758695, 24999.487399993828, -3067.821629979805, 144.9734145371216, -0.114, 0.99, 0.248, 192.0, 0.0, 0.0, 0.0, 0.0, 0.0, 0.0, 0.0, 0.0, 0.0, 1.706882716501201E9, 0.0, 2024-02-02 15:05:16.501
44.0, 59899.54589599919, 62979.03513658466, -31369.30988661169, -2631.5602817011218, 17125.10193885588, 8288.630341128151, 28189.86364482208, 4897.289561902233, 36773.447605782465, 47797.88676475129, 36453.79530832712, 44795.51104253662, 24166.929622522548, 25015.245379834818, -3064.848847967249, 154.04822278597626, -0.114, 0.99, 0.248, 192.0, 0.0, 0.0, 0.0, 0.0, 0.0, 0.0, 0.0, 0.0, 0.0, 1.7068827165101852E9, 0.0, 2024-02-02 15:05:16.510
46.0, 59893.06389010714, 62972.39666848144, -31374.339029114133, -2639.606909705032, 17124.453738266675, 8281.075451502258, 28192.702316367904, 4893.333303133643, 36773.60406799365, 47777.25610461904, 36434.326938906546, 44773.24870505914, 24152.87037526016, 24990.390240000517, -3085.5465633328636, 127.2037776951525, -0.114, 0.99, 0.248, 192.0, 0.0, 0.0, 0.0, 0.0, 0.0, 0.0, 0.0, 0.0, 0.0, 1.706882716517252E9, 0.0, 2024-02-02 15:05:16.517
48.0, 59900.216448332845, 62976.911720861404, -31366.337104599133, -2640.4339242498786, 17129.52758425803, 8273.632320598641, 28196.077429780657, 4896.127271190557, 36802.01313519635, 47790.22011640312, 36446.888619290425, 44781.1165191074, 24166.884919033637, 25015.53595251274, -3073.1636969046235, 137.23971095558537, -0.112, 0.988, 0.248, 192.0, 126.0, 64.0, 15.0, 112.0, 3.5, 96.0, 0.0, 0.0, 0.0, 1.7068827165256884E9, 0.0, 2024-02-02 15:05:16.525
50.0, 59885.01726210323, 62966.40640096741, -31387.54891008722, -2648.8605319095295, 17115.848316651383, 8281.231913713445, 28186.019144775768, 4886.091337930124, 36814.30659464677, 47777.993712186064, 36437.56794185257, 44780.96005689622, 24176.69733484952, 25003.57776922915, -3080.3609586192324, 129.32719341840667, -0.112, 0.988, 0.248, 192.0, 0.0, 0.0, 0.0, 0.0, 0.0, 0.0, 0.0, 0.0, 0.0, 1.7068827165342245E9, 0.0, 2024-02-02 15:05:16.534
52.0, 59899.88117216602, 62978.18577029536, -31361.620886519064, -2631.6943921678535, 17124.029055122024, 8284.852896315206, 28191.316508211676, 4892.550992077708, 36808.65160329957, 47793.88580249379, 36429.65542431539, 44770.18651606876, 24179.960689539992, 25008.875132665056, -3090.4415953685757, 122.42050438171678, -0.112, 0.988, 0.248, 192.0, 0.0, 0.0, 0.0, 0.0, 0.0, 0.0, 0.0, 0.0, 0.0, 1.7068827165412416E9, 0.0, 2024-02-02 15:05:16.541
54.0, 59894.74027094129, 62974.60949118251, -31367.767616244273, -2630.1521218004373, 17114.551915472974, 8278.214428211979, 28183.851025563603, 4888.997064709314, 36870.901211607605, 47801.95478224216, 36452.85653506, 44795.80161521454, 24174.708029592995, 25027.449432307414, -3082.439670853576, 131.58471960839267, -0.112, 0.988, 0.248, 192.0, 0.0, 0.0, 0.0, 0.0, 0.0, 0.0, 0.0, 0.0, 0.0, 1.7068827165492823E9, 0.0, 2024-02-02 15:05:16.549
56.0, 59895.947265141884, 62970.005031824716, -31369.712218011886, -2651.453334266345, 17120.96686613165, 8270.72659381945, 28192.702316367904, 4894.272076400766, 36863.078101048246, 47790.68950303668, 36438.663177330876, 44777.76375743911, 24175.378581926656, 25007.95871114239, -3087.7370342894837, 126.30970791694021, -0.112, 0.988, 0.248, 192.0, 0.0, 0.0, 0.0, 0.0, 0.0, 0.0, 0.0, 0.0, 0.0, 1.7068827165574727E9, 0.0, 2024-02-02 15:05:16.557
58.0, 59900.01528263275, 62978.40928773991, -31369.198127889413, -2628.811017133119, 17119.268133553047, 8292.810117341294, 28198.066735037177, 4899.68119855895, 36881.42888324605, 47817.39983766077, 36444.228761700244, 44784.4692807757, 24192.54472166833, 25054.7632640318, -3082.305560386844, 123.38162939329499, -0.11800000000000001, 0.99, 0.246, 192.0, 126.0, 40.0, 15.0, 120.0, 3.5, 88.0, 0.0, 0.0, 0.0, 1.706882716566531E9, 0.0, 2024-02-02 15:05:16.566
60.0, 59901.60225648907, 62977.1128865615, -31361.173851629956, -2623.4465984638455, 17131.516889514554, 8294.933533064548, 28203.833485106647, 4905.358541650598, 36885.4074937591, 47827.011087776555, 36438.082031975035, 44786.458586032226, 24186.77797159886, 24998.883902893533, -3082.9537609760478, 139.38547842329484, -0.11800000000000001, 0.99, 0.246, 192.0, 0.0, 0.0, 0.0, 0.0, 0.0, 0.0, 0.0, 0.0, 0.0, 1.706882716573283E9, 0.0, 2024-02-02 15:05:16.573
62.0, 59901.9375326559, 62978.29752901763, -31362.246735363813, -2632.767275901708, 17129.192308091202, 8287.602160883209, 28200.838351349637, 4907.392550396032, 36903.24418583443, 47833.291927968494, 36450.531953636644, 44789.05138838904, 24200.591349672242, 25016.18415310194, -3065.9887869344698, 148.1473622497752, -0.11800000000000001, 0.99, 0.246, 192.0, 0.0, 0.0, 0.0, 0.0, 0.0, 0.0, 0.0, 0.0, 0.0, 1.706882716581364E9, 0.0, 2024-02-02 15:05:16.581
64.0, 59897.824811676124, 62976.73290690577, -31377.378866360054, -2696.4250441104227, 17120.11749984235, 8278.34853867871, 28199.29608098222, 4900.664675314984, 36906.46283703599, 47819.880881295314, 36439.78076455364, 44775.59563822694, 24207.49803870893, 25038.558249301703, -3080.4280138525983, 127.58375735089271, -0.11800000000000001, 0.99, 0.246, 192.0, 0.0, 0.0, 0.0, 0.0, 0.0, 0.0, 0.0, 0.0, 0.0, 1.7068827165893168E9, 0.0, 2024-02-02 15:05:16.589
66.0, 59896.304893053166, 62975.615319683, -31364.21368887588, -2592.645894604432, 17122.53148824352, 8291.379605696155, 28206.20277001891, 4910.365332408587, 36888.76025542739, 47839.6398233938, 36429.23074117074, 44783.39639704185, 24210.113192810204, 25024.90133343951, -3084.496031343464, 131.6517748417586, -0.11800000000000001, 0.99, 0.246, 192.0, 0.0, 0.0, 0.0, 0.0, 0.0, 0.0, 0.0, 0.0, 0.0, 1.7068827165974548E9, 0.0, 2024-02-02 15:05:16.597
68.0, 59891.78984067319, 62974.45302897132, -31363.051398164203, -2633.817807891108, 17122.978523132628, 8280.427250913055, 28201.352441472107, 4904.73269280585, 36940.392785119155, 47834.633032635815, 36448.855572802495, 44789.453719789235, 24197.484457192953, 24987.57392019915, -3076.56116206183, 140.5254173905155, -0.114, 0.994, 0.248, 192.0, 126.0, 56.0, 15.5, 8.0, 3.5, 96.0, 0.0, 0.0, 0.0, 1.70688271660531E9, 0.0, 2024-02-02 15:05:16.605
70.0, 59893.488573251794, 62977.02347958368, -31367.275877866257, -2650.3133952991243, 17118.284656797012, 8257.315547146267, 28189.52836865525, 4897.803652024705, 36929.10515416922, 47829.380372688815, 36433.969310995264, 44771.080585846976, 24194.042288546836, 25024.610760761592, -3088.4746418565087, 119.60418458034809, -0.114, 0.994, 0.248, 192.0, 0.0, 0.0, 0.0, 0.0, 0.0, 0.0, 0.0, 0.0, 0.0, 1.706882716613538E9, 0.0, 2024-02-02 15:05:16.613
72.0, 59898.249494820775, 62982.47730523078, -31367.566450544175, -2658.6729477254094, 17131.20396509218, 8298.912143577594, 28205.19694151842, 4914.187480710445, 36925.73004075647, 47872.027501109544, 36438.52906686415, 44779.21662082871, 24199.607872916207, 25075.237461952864, -3081.9032289866486, 121.2135101811302, -0.114, 0.994, 0.248, 192.0, 0.0, 0.0, 0.0, 0.0, 0.0, 0.0, 0.0, 0.0, 0.0, 1.706882716622347E9, 0.0, 2024-02-02 15:05:16.622
74.0, 59887.61006446005, 62965.28881374465, -31385.939584486438, -2657.912988413929, 17109.43336599271, 8281.947169536015, 28185.05801976419, 4895.948457234915, 36963.99622726396, 47843.1937507622, 36421.653499800384, 44753.176838538275, 24221.736099926962, 24986.90336786549, -3093.0567494698466, 118.0395624684766, -0.114, 0.994, 0.248, 192.0, 0.0, 0.0, 0.0, 0.0, 0.0, 0.0, 0.0, 0.0, 0.0, 1.7068827166294105E9, 0.0, 2024-02-02 15:05:16.629
76.0, 59885.35253827007, 62964.73002013326, -31386.54308158673, -2663.411517549934, 17105.410051990755, 8275.040480499325, 28177.212557460378, 4890.941666476925, 36914.84474120674, 47828.17337848823, 36429.94599699331, 44777.87551616139, 24159.464139874475, 24996.51461798127, -3100.3210664178214, 122.97929799309946, -0.114, 0.994, 0.248, 192.0, 0.0, 0.0, 0.0, 0.0, 0.0, 0.0, 0.0, 0.0, 0.0, 1.7068827166373928E9, 0.0, 2024-02-02 15:05:16.637
78.0, 59903.12217511203, 62977.29170051715, -31378.764674516282, -2635.941223614362, 17107.689929925196, 8271.240683941924, 28184.879205808546, 4897.11074794659, 36914.59887201773, 47842.813771106456, 36421.72055503375, 44769.7171294352, 24223.725405183486, 25011.311472810685, -3101.393950151676, 116.49729210106041, -0.108, 0.998, 0.248, 192.0, 126.0, 80.0, 15.5, 24.0, 3.5, 96.0, 0.0, 0.0, 0.0, 1.706882716645592E9, 0.0, 2024-02-02 15:05:16.645
80.0, 59891.32045403963, 62970.005031824716, -31401.898730027526, -2721.3695909225453, 17093.51892394053, 8243.122189417147, 28173.72568532535, 4883.923218717959, 36931.45208733703, 47852.51442820006, 36427.12967719194, 44765.64911194433, 24204.994643329937, 25046.783691261255, -3104.7690635644276, 109.34473387536215, -0.108, 0.998, 0.248, 192.0, 0.0, 0.0, 0.0, 0.0, 0.0, 0.0, 0.0, 0.0, 0.0, 1.706882716653384E9, 0.0, 2024-02-02 15:05:16.653
82.0, 59915.885021196016, 62994.90487514793, -31355.83178470514, -2603.553545898622, 17124.364331288856, 8307.159937281602, 28201.955938572402, 4917.227317956366, 36952.418023636106, 47911.455978328704, 36429.18603768182, 44753.28859726055, 24183.045230274827, 25035.920743455976, -3099.806976295349, 105.52258557350464, -0.108, 0.998, 0.248, 192.0, 0.0, 0.0, 0.0, 0.0, 0.0, 0.0, 0.0, 0.0, 0.0, 1.7068827166614869E9, 0.0, 2024-02-02 15:05:16.661
84.0, 59903.85978267906, 62983.52783722018, -31377.892956482527, -2645.932453385884, 17109.031034592514, 8287.982140538948, 28188.835464577136, 4907.5266608627635, 36898.930299154556, 47798.26674440703, 36445.994549512216, 44790.30308607854, 24175.3562301822, 24954.18041398292, -3079.9586272190368, 158.07153678793154, -0.108, 0.998, 0.248, 192.0, 0.0, 0.0, 0.0, 0.0, 0.0, 0.0, 0.0, 0.0, 0.0, 1.706882716669408E9, 0.0, 2024-02-02 15:05:16.669
86.0, 59895.99196863079, 62978.521046462185, -31403.373945161577, -2678.320131101624, 17109.63453169281, 8258.723707046951, 28179.112455739076, 4893.601524067107, 36901.523101511375, 47838.11990477084, 36421.25116840019, 44779.90952490682, 24223.904219139127, 25059.144205945042, -3100.142252462179, 110.1270449312979, -0.108, 0.998, 0.248, 192.0, 0.0, 0.0, 0.0, 0.0, 0.0, 0.0, 0.0, 0.0, 0.0, 1.7068827166786995E9, 0.0, 2024-02-02 15:05:16.678
88.0, 59907.547820514184, 62995.75424143723, -31351.361435814077, -2632.163778801415, 17126.979485390126, 8283.511791647887, 28199.273729237764, 4909.359503908098, 36902.573633500775, 47852.38031773333, 36432.67290981685, 44776.57911498298, 24214.36002425671, 24997.98983311532, -3087.2229441670115, 130.42242889671672, -0.107, 0.997, 0.247, 192.0, 126.0, 88.0, 15.5, 16.0, 3.5, 88.0, 0.0, 0.0, 0.0, 1.7068827166854455E9, 0.0, 2024-02-02 15:05:16.685
90.0, 59910.87823043802, 62990.99331986825, -31347.762804956772, -2624.653592664432, 17129.95226740268, 8280.471954401964, 28196.323298969663, 4910.92412601997, 36789.83143446821, 47868.09359408541, 36459.69616886332, 44793.097054135455, 24154.43499737203, 24952.056998259664, -3074.8400777387715, 137.12795223330883, -0.107, 0.997, 0.247, 192.0, 0.0, 0.0, 0.0, 0.0, 0.0, 0.0, 0.0, 0.0, 0.0, 1.706882716693496E9, 0.0, 2024-02-02 15:05:16.693
92.0, 59900.81994543314, 62984.48896223176, -31392.376886889564, -2651.6321482219873, 17113.031996850015, 8299.202716255513, 28183.62750811905, 4894.830870012149, 36701.34087816964, 47842.52319842854, 36446.41923265687, 44780.91535340731, 24230.49798375344, 24948.07838774662, -3090.687464557584, 144.36991743682833, -0.107, 0.997, 0.247, 192.0, 0.0, 0.0, 0.0, 0.0, 0.0, 0.0, 0.0, 0.0, 0.0, 1.7068827167015345E9, 0.0, 2024-02-02 15:05:16.701
94.0, 59898.29419830969, 62984.28779653166, -31363.29726735321, -2639.1375230714707, 17119.223430064136, 8285.299931204312, 28190.57890064465, 4897.870707258071, 36551.94181823037, 47838.45518093767, 36446.93332277934, 44792.49355703516, 24150.031703714336, 24952.66049535996, -3079.042205696369, 145.2863389594959, -0.107, 0.997, 0.247, 192.0, 0.0, 0.0, 0.0, 0.0, 0.0, 0.0, 0.0, 0.0, 0.0, 1.706882716709744E9, 0.0, 2024-02-02 15:05:16.709
96.0, 59895.1873058304, 62983.25961628671, -31371.656819779495, -2641.596214961555, 17117.211773063158, 8287.870381816672, 28193.328165212653, 4911.97465800937, 36431.108287704985, 47851.419192721754, 36449.21320071378, 44785.18453659827, 24169.88005279065, 24960.23773673031, -3081.7467667754613, 140.70423134615797, -0.107, 0.997, 0.247, 192.0, 0.0, 0.0, 0.0, 0.0, 0.0, 0.0, 0.0, 0.0, 0.0, 1.706882716717562E9, 0.0, 2024-02-02 15:05:16.717
98.0, 59888.124154582525, 62980.15272380743, -31404.02214575078, -2669.7817647196966, 17092.848371606873, 8273.766431065373, 28163.957972998378, 4903.078663716157, 36265.54891652452, 47827.793398832495, 36425.60975856898, 44769.113632334906, 24189.16960825558, 24962.13763500901, -3093.4367291255867, 132.36703066432844, -0.10550000000000001, 0.9984999999999999, 0.2495, 192.0, 126.0, 96.0, 15.5, 32.0, 3.5, 112.0, 0.0, 0.0, 0.0, 1.706882716725572E9, 0.0, 2024-02-02 15:05:16.725
100.0, 59882.737384168795, 62979.012784840204, -31383.190319918434, -2676.5990467785655, 17113.590790461396, 8277.342710178222, 28189.05898202169, 4908.800710296716, 36141.38497607529, 47870.217009808664, 36405.82846472603, 44763.302178776525, 24158.21244218498, 25008.80807743169, -3122.3151829618437, 99.59937329284827, -0.10550000000000001, 0.9984999999999999, 0.2495, 192.0, 0.0, 0.0, 0.0, 0.0, 0.0, 0.0, 0.0, 0.0, 0.0, 1.7068827167335355E9, 0.0, 2024-02-02 15:05:16.733
102.0, 59898.875343665524, 62990.054546601124, -31351.00380790279, -2621.9266798408844, 17139.049427395992, 8300.49911743392, 28218.228008535865, 4929.565480895696, 36113.44529550616, 47835.52710241403, 36435.75745055168, 44775.66269346031, 24139.101700675692, 24945.731454578814, -3078.8410399962713, 123.87336777131173, -0.10550000000000001, 0.9984999999999999, 0.2495, 192.0, 0.0, 0.0, 0.0, 0.0, 0.0, 0.0, 0.0, 0.0, 0.0, 1.7068827167407694E9, 0.0, 2024-02-02 15:05:16.740
104.0, 59899.74706169928, 62991.97679662428, -31360.88327895204, -2620.3173542401023, 17125.303104555976, 8298.710977877496, 28203.699374639917, 4925.542166893741, 35998.087942372316, 47846.881788597326, 36463.85359333201, 44808.29624036506, 24170.371791168665, 24948.771291824734, -3062.725432243995, 160.4408217001941, -0.10550000000000001, 0.9984999999999999, 0.2495, 192.0, 0.0, 0.0, 0.0, 0.0, 0.0, 0.0, 0.0, 0.0, 0.0, 1.7068827167498503E9, 0.0, 2024-02-02 15:05:16.749
106.0, 59905.42440479093, 62993.56377048061, -31365.934773198936, -2630.5321014561778, 17122.665598710253, 8295.581733653753, 28198.714935626384, 4922.479977903364, 35913.553644842345, 47855.66602416826, 36451.56013388159, 44797.05331290404, 24148.221212413457, 24963.32227746514, -3076.2482376394555, 141.53124589100432, -0.10550000000000001, 0.9984999999999999, 0.2495, 192.0, 0.0, 0.0, 0.0, 0.0, 0.0, 0.0, 0.0, 0.0, 0.0, 1.7068827167575743E9, 0.0, 2024-02-02 15:05:16.757
108.0, 59906.00555014677, 62990.680395445874, -31377.334162871142, -2635.3377265140684, 17110.86387763785, 8292.005454540904, 28194.088124524133, 4919.395437168531, 35815.205969238996, 47851.39684097729, 36447.35800592399, 44797.41094081532, 24164.06859923227, 24973.73819038131, -3081.2773801419, 132.3446789198731, -0.10875000000000001, 0.99425, 0.24875, 192.0, 126.0, 64.0, 15.0, 120.0, 3.5, 96.0, 0.0, 0.0, 0.0, 1.7068827167655888E9, 0.0, 2024-02-02 15:05:16.765
110.0, 59906.69845422488, 62993.004976869226, -31359.67628475145, -2631.202653789837, 17130.19813659169, 8293.815945841783, 28206.091011296634, 4925.139835493545, 35774.05640769678, 47847.17236127524, 36448.54264838012, 44791.37596981239, 24157.72070380696, 24949.598306369582, -3086.395929622165, 132.2999754309625, -0.10875000000000001, 0.99425, 0.24875, 192.0, 0.0, 0.0, 0.0, 0.0, 0.0, 0.0, 0.0, 0.0, 0.0, 1.7068827167736237E9, 0.0, 2024-02-02 15:05:16.773
112.0, 59912.42050080544, 63000.336349050565, -31361.509127796788, -2629.190996788859, 17123.067930110446, 8295.335864464745, 28191.316508211676, 4920.825948813671, 35709.996308087866, 47838.16460825975, 36452.141279237425, 44797.500347793146, 24149.137633936123, 24960.729475108325, -3076.9634934620253, 137.19500746667475, -0.10875000000000001, 0.99425, 0.24875, 192.0, 0.0, 0.0, 0.0, 0.0, 0.0, 0.0, 0.0, 0.0, 0.0, 1.706882716780634E9, 0.0, 2024-02-02 15:05:16.780
114.0, 59914.90154443998, 63004.33731130807, -31353.954238170892, -2629.526272955689, 17129.505232513577, 8297.369873210177, 28203.364098473085, 4927.665582616995, 35694.08186603569, 47850.90510259928, 36465.015884043685, 44810.151435154854, 24163.599212598707, 24963.07640827613, -3072.493144570964, 144.72754534811324, -0.10875000000000001, 0.99425, 0.24875, 192.0, 0.0, 0.0, 0.0, 0.0, 0.0, 0.0, 0.0, 0.0, 0.0, 1.7068827167896228E9, 0.0, 2024-02-02 15:05:16.789
116.0, 59908.598352503584, 62997.16240133791, -31372.908517468994, -2639.4057440049346, 17115.021302106536, 8286.953960294004, 28191.33885995613, 4915.796806311227, 35658.38613014056, 47840.66800363875, 36455.49404090572, 44799.55670828304, 24151.3504566372, 24965.959783310867, -3079.980978963492, 133.48461788709378, -0.10875000000000001, 0.99425, 0.24875, 192.0, 0.0, 0.0, 0.0, 0.0, 0.0, 0.0, 0.0, 0.0, 0.0, 1.706882716797794E9, 0.0, 2024-02-02 15:05:16.797
118.0, 59911.07939613812, 62995.97775888178, -31369.73456975634, -2637.394087003957, 17120.542182987, 8284.048233514814, 28193.39522044602, 4913.785149310249, 35651.904124248525, 47836.55528265897, 36454.39880542741, 44803.356504840434, 24171.467026646977, 24954.828614572125, -3088.139365689679, 125.16976894971955, -0.112375, 0.995125, 0.250375, 192.0, 126.0, 48.0, 15.5, 16.0, 3.5, 112.0, 0.0, 0.0, 0.0, 1.7068827168056252E9, 0.0, 2024-02-02 15:05:16.805
120.0, 59909.939457170905, 62997.63178797148, -31359.899802196003, -2635.3153747696133, 17128.67821796873, 8283.534143392342, 28193.954014057403, 4915.3944749110315, 35661.00128424183, 47844.53485542952, 36455.918724050374, 44802.35067633995, 24144.15319492259, 24959.120149507544, -3082.9314092315926, 124.67803057170279, -0.112375, 0.995125, 0.250375, 192.0, 0.0, 0.0, 0.0, 0.0, 0.0, 0.0, 0.0, 0.0, 0.0, 1.7068827168126528E9, 0.0, 2024-02-02 15:05:16.812
122.0, 59908.039558892204, 62996.983587382274, -31371.500357568308, -2650.9168923994175, 17121.704473698675, 8286.328111449255, 28191.33885995613, 4912.73461732085, 35668.109138978616, 47841.830294350424, 36454.01882577167, 44795.44398730326, 24149.53996533632, 24992.021917345755, -3083.6690167986176, 118.57600433540397, -0.112375, 0.995125, 0.250375, 192.0, 0.0, 0.0, 0.0, 0.0, 0.0, 0.0, 0.0, 0.0, 0.0, 1.7068827168216572E9, 0.0, 2024-02-02 15:05:16.821
124.0, 59894.91908489694, 62985.49479073224, -31380.19518616142, -2634.801284647141, 17110.2380287931, 8284.562323637287, 28185.169778486466, 4908.353675407609, 35675.4181594155, 47837.69522162619, 36442.418270399365, 44792.62766750189, 24151.462215359476, 24976.755675882778, -3094.688426815084, 121.79465553696818, -0.112375, 0.995125, 0.250375, 192.0, 0.0, 0.0, 0.0, 0.0, 0.0, 0.0, 0.0, 0.0, 0.0, 1.7068827168297737E9, 0.0, 2024-02-02 15:05:16.829
126.0, 59898.38360528751, 62990.769802423696, -31373.64612503602, -2639.875130638496, 17118.2399533081, 8288.317416705779, 28201.82182810567, 4919.238974957344, 35712.05266857775, 47828.821579077434, 36435.422174384854, 44786.100958120944, 24125.713005746962, 24964.261050732264, -3095.1578134486454, 118.82187352441234, -0.112375, 0.995125, 0.250375, 192.0, 0.0, 0.0, 0.0, 0.0, 0.0, 0.0, 0.0, 0.0, 0.0, 1.7068827168367212E9, 0.0, 2024-02-02 15:05:16.836
128.0, 59908.79951820368, 63002.12448860699, -31363.40902607549, -2637.841121893063, 17125.079587111424, 8296.54285866533, 28206.850970608113, 4928.224376228378, 35755.48210805441, 47834.02953553552, 36453.59414262702, 44797.45564430424, 24155.06084621678, 24982.589481185616, -3085.4795080994977, 130.51183587453795, -0.1121875, 0.9935625, 0.2511875, 192.0, 126.0, 64.0, 15.5, 0.0, 3.5, 112.0, 0.0, 0.0, 0.0, 1.70688271684571E9, 0.0, 2024-02-02 15:05:16.845
130.0, 59899.81411693265, 62997.58708448256, -31369.220479633866, -2638.1763980598926, 17119.402244019777, 8293.815945841783, 28197.060906536688, 4922.59173662564, 35801.19142546552, 47852.33561424442, 36445.97219776776, 44800.24961236115, 24138.25233438639, 25002.013147117275, -3088.6087523232404, 123.94042300467767, -0.1121875, 0.9935625, 0.2511875, 192.0, 0.0, 0.0, 0.0, 0.0, 0.0, 0.0, 0.0, 0.0, 0.0, 1.7068827168539827E9, 0.0, 2024-02-02 15:05:16.853
132.0, 59889.733480183306, 62984.62307269849, -31386.45367460891, -2647.161799330926, 17109.276903781523, 8282.394204425122, 28191.42826693395, 4916.3332481781545, 35842.34098700774, 47852.06739331096, 36441.7030145768, 44796.382760570385, 24160.112340463682, 25011.602045488602, -3090.888630257682, 124.27569917150727, -0.1121875, 0.9935625, 0.2511875, 192.0, 0.0, 0.0, 0.0, 0.0, 0.0, 0.0, 0.0, 0.0, 0.0, 1.7068827168607595E9, 0.0, 2024-02-02 15:05:16.860
134.0, 59893.46622150734, 62984.108982576014, -31369.68986626743, -2643.4737614958003, 17113.27786603902, 8283.109460247691, 28192.456447178894, 4913.762797565794, 35916.97346174401, 47846.524160686036, 36432.47174411675, 44782.54703075255, 24131.21153488297, 24985.964594598365, -3100.1869559510897, 121.45937937013858, -0.1121875, 0.9935625, 0.2511875, 192.0, 0.0, 0.0, 0.0, 0.0, 0.0, 0.0, 0.0, 0.0, 0.0, 1.7068827168687353E9, 0.0, 2024-02-02 15:05:16.868
136.0, 59899.434137276905, 62993.29554954715, -31363.096101653115, -2643.1161335845154, 17120.385720775812, 8275.39810841061, 28202.73824962834, 4914.232184199355, 35965.700264656574, 47883.73981520413, 36446.39688091241, 44796.56157452602, 24140.06282568727, 25019.156935114497, -3085.9265429886036, 122.53226310399332, -0.1121875, 0.9935625, 0.2511875, 192.0, 0.0, 0.0, 0.0, 0.0, 0.0, 0.0, 0.0, 0.0, 0.0, 1.706882716877998E9, 0.0, 2024-02-02 15:05:16.877
138.0, 59890.29227379469, 62981.58323545256, -31371.656819779495, -2645.574825474599, 17110.126270070825, 8288.719748105974, 28188.589595388126, 4906.833756784649, 36003.34060231932, 47881.415233780775, 36447.69328209082, 44801.411903072825, 24148.981171724936, 25029.014054419287, -3089.972208735014, 122.1299317037978, -0.10909374999999999, 0.9917812500000001, 0.25259375, 192.0, 126.0, 88.0, 15.0, 120.0, 3.5, 120.0, 0.0, 0.0, 0.0, 1.7068827168857825E9, 0.0, 2024-02-02 15:05:16.885
140.0, 59887.5877127156, 62978.69986041783, -31377.1553489155, -2645.3513080300463, 17103.82307813443, 8275.308701432788, 28176.56435687117, 4895.099090945612, 36024.5524078074, 47860.628111437334, 36434.63986332892, 44784.40222554233, 24137.82765124174, 25007.981062886844, -3108.7253223330167, 110.86465249832303, -0.10909374999999999, 0.9917812500000001, 0.25259375, 192.0, 0.0, 0.0, 0.0, 0.0, 0.0, 0.0, 0.0, 0.0, 0.0, 1.706882716892816E9, 0.0, 2024-02-02 15:05:16.892
142.0, 59898.80828843216, 62985.47243898779, -31364.325447598156, -2631.0238398341944, 17112.361444516355, 8277.454468900498, 28191.092990767123, 4903.928030005459, 36077.72720786658, 47877.637788967826, 36444.809907056086, 44798.79674897155, 24149.651724058596, 25020.766260715278, -3096.4095111381425, 117.36901013481739, -0.10909374999999999, 0.9917812500000001, 0.25259375, 192.0, 0.0, 0.0, 0.0, 0.0, 0.0, 0.0, 0.0, 0.0, 0.0, 1.706882716901924E9, 0.0, 2024-02-02 15:05:16.901
144.0, 59883.854971391556, 62970.25090101372, -31389.426456621466, -2688.490174828789, 17089.875589594318, 8261.048288470303, 28172.541042869216, 4885.711358274384, 36083.67277189169, 47858.92937885873, 36440.048985487105, 44783.12817610838, 24160.089988719224, 25045.08495868265, -3109.3288194333104, 107.44483559666105, -0.10909374999999999, 0.9917812500000001, 0.25259375, 192.0, 0.0, 0.0, 0.0, 0.0, 0.0, 0.0, 0.0, 0.0, 0.0, 1.7068827169098685E9, 0.0, 2024-02-02 15:05:16.909
146.0, 59896.66252096445, 62985.248921543236, -31373.556718058197, -2677.157840389948, 17107.891095625295, 8256.041497712315, 28186.04149652022, 4897.893059002526, 36130.030289892, 47892.322885074966, 36435.04219472912, 44777.04850161654, 24140.06282568727, 25066.05089498173, -3109.529985133408, 92.04448366695448, -0.10909374999999999, 0.9917812500000001, 0.25259375, 192.0, 0.0, 0.0, 0.0, 0.0, 0.0, 0.0, 0.0, 0.0, 0.0, 1.706882716916824E9, 0.0, 2024-02-02 15:05:16.916
148.0, 59902.07164312263, 62990.680395445874, -31350.62382824705, -2584.599266600522, 17125.660732467262, 8308.478690204465, 28191.070639022666, 4915.238012699844, 36185.73083707462, 47885.08091987144, 36451.89541004842, 44802.596545528955, 24146.5001280904, 24991.731344667834, -3086.306522644344, 135.94330977717755, -0.10854687499999999, 0.993890625, 0.254296875, 192.0, 126.0, 80.0, 15.5, 16.0, 4.0, 0.0, 0.0, 0.0, 0.0, 1.70688271692487E9, 0.0, 2024-02-02 15:05:16.924
150.0, 59912.644018249994, 63000.60456998403, -31337.145726340503, -2613.745941370242, 17128.96879064665, 8295.358216209199, 28199.29608098222, 4918.277849945766, 36209.15546526378, 47892.591106008425, 36462.98187529825, 44806.664563019825, 24158.63712532963, 25014.217199589875, -3078.7739847629055, 140.2348447125965, -0.10854687499999999, 0.993890625, 0.254296875, 192.0, 0.0, 0.0, 0.0, 0.0, 0.0, 0.0, 0.0, 0.0, 0.0, 1.7068827169341104E9, 0.0, 2024-02-02 15:05:16.934
152.0, 59908.64305599249, 62997.09534610455, -31359.788043473727, -2642.914967884418, 17117.100014340882, 8291.469012673977, 28201.73242112785, 4913.159300465501, 36218.6996601462, 47887.91959141727, 36460.14320375243, 44800.33901933897, 24159.084160218736, 25025.884810195545, -3082.3279121312994, 134.35633592085077, -0.10854687499999999, 0.993890625, 0.254296875, 192.0, 0.0, 0.0, 0.0, 0.0, 0.0, 0.0, 0.0, 0.0, 0.0, 1.706882716940907E9, 0.0, 2024-02-02 15:05:16.940
154.0, 59918.09784389709, 63007.66772123191, -31341.236095575823, -2622.8654531080074, 17120.89981089828, 8292.02780628536, 28199.67606063796, 4915.30506793321, 36250.41678552828, 47888.52308851756, 36461.59606714202, 44805.05523741904, 24183.156988997103, 25037.887696968046, -3084.205458665545, 138.11142898934233, -0.10854687499999999, 0.993890625, 0.254296875, 192.0, 0.0, 0.0, 0.0, 0.0, 0.0, 0.0, 0.0, 0.0, 0.0, 1.7068827169492636E9, 0.0, 2024-02-02 15:05:16.949
156.0, 59898.29419830969, 62992.75910768022, -31383.950279229914, -2659.0305756366943, 17105.253589779568, 8276.135715977636, 28185.460351164384, 4900.105881703602, 36239.10680283389, 47896.48030954365, 36466.334636966545, 44813.705362523244, 24157.944221251517, 25046.314304627696, -3078.3940051071654, 133.68578358719154, -0.10854687499999999, 0.993890625, 0.254296875, 192.0, 0.0, 0.0, 0.0, 0.0, 0.0, 0.0, 0.0, 0.0, 0.0, 1.7068827169569223E9, 0.0, 2024-02-02 15:05:16.956
158.0, 59893.71209069635, 62989.451049500836, -31371.79093024623, -2650.3357470435794, 17096.87168560883, 8266.949149006505, 28173.882147536537, 4890.628742054551, 36226.99215733912, 47877.36956803436, 36428.69429930381, 44776.64617021634, 24163.509805620888, 25002.594292473113, -3114.2462032134777, 108.07068444140965, -0.10727343749999999, 0.9939453125, 0.2571484375, 192.0, 126.0, 88.0, 15.5, 8.0, 4.0, 16.0, 0.0, 0.0, 0.0, 1.706882716966174E9, 0.0, 2024-02-02 15:05:16.966
160.0, 59895.254361063766, 62986.74648842174, -31352.97076141486, -2653.353232545046, 17124.789014433507, 8266.72563156195, 28192.299984967707, 4906.140852706534, 36271.40507357181, 47879.96237039118, 36444.63109310044, 44788.2243738442, 24144.041436200314, 25016.09474612412, -3096.9683047495255, 120.78882703647936, -0.10727343749999999, 0.9939453125, 0.2571484375, 192.0, 0.0, 0.0, 0.0, 0.0, 0.0, 0.0, 0.0, 0.0, 0.0, 1.7068827169729166E9, 0.0, 2024-02-02 15:05:16.972
162.0, 59894.02501511872, 62985.450087243335, -31376.238927392835, -2693.2063929088586, 17107.645226436285, 8272.78295430934, 28187.0026215318, 4904.2409544278335, 36229.54025620702, 47852.872056111344, 36426.01208996917, 44776.55676323852, 24146.030741456838, 25036.68070276746, -3094.889592515182, 117.1007892013537, -0.10727343749999999, 0.9939453125, 0.2571484375, 192.0, 0.0, 0.0, 0.0, 0.0, 0.0, 0.0, 0.0, 0.0, 0.0, 1.7068827169812057E9, 0.0, 2024-02-02 15:05:16.981
164.0, 59902.295160567184, 62996.71536644881, -31350.355607313588, -2626.5087874542223, 17100.80559263296, 8285.389338182133, 28170.283516679232, 4898.317742147176, 36269.30400959301, 47901.9564869352, 36457.818622329076, 44776.08737660496, 24179.513654650887, 25016.631187991046, -3097.6388570831846, 126.17559745020837, -0.10727343749999999, 0.9939453125, 0.2571484375, 192.0, 0.0, 0.0, 0.0, 0.0, 0.0, 0.0, 0.0, 0.0, 0.0, 1.7068827169889812E9, 0.0, 2024-02-02 15:05:16.988
166.0, 59893.46622150734, 62989.294587289645, -31365.420683076467, -2623.5136536972113, 17114.753081173072, 8275.666329344074, 28187.87433956556, 4901.983428237847, 36253.36721579638, 47884.00803613759, 36447.22389545726, 44806.68691476428, 24133.2455436284, 24983.014164330267, -3094.0625779703355, 125.97443175011061, -0.10727343749999999, 0.9939453125, 0.2571484375, 192.0, 0.0, 0.0, 0.0, 0.0, 0.0, 0.0, 0.0, 0.0, 0.0, 1.7068827169971712E9, 0.0, 2024-02-02 15:05:16.997
168.0, 59905.53616351321, 62999.621093228, -31342.308979309677, -2629.883900866974, 17132.969752904148, 8285.657559115596, 28212.505961955307, 4922.345867436632, 36269.03578865955, 47880.923495402756, 36459.09267176303, 44804.09411240746, 24152.758616537885, 24997.00635635929, -3073.700138771551, 138.82668481191217, -0.10763671875, 0.99397265625, 0.25657421874999997, 192.0, 126.0, 80.0, 15.5, 8.0, 4.0, 0.0, 0.0, 0.0, 0.0, 1.706882717004964E9, 0.0, 2024-02-02 15:05:17.004
170.0, 59902.42927103392, 62994.390785025455, -31362.96199118638, -2648.5923109760656, 17114.507211984066, 8277.789745067328, 28197.35147921461, 4916.02032375578, 36263.9619426682, 47883.04691112601, 36443.267636688666, 44794.50521403614, 24190.98009955646, 25006.05881286369, -3082.6855400425843, 131.45060914166083, -0.10763671875, 0.99397265625, 0.25657421874999997, 192.0, 0.0, 0.0, 0.0, 0.0, 0.0, 0.0, 0.0, 0.0, 0.0, 1.7068827170129795E9, 0.0, 2024-02-02 15:05:17.012
172.0, 59905.6926257244, 63000.60456998403, -31359.788043473727, -2640.255110294236, 17125.705435956173, 8283.712957347985, 28200.346612971618, 4922.748198836827, 36221.62773866984, 47884.276257071055, 36450.397843169914, 44793.521737280105, 24147.751825779895, 25013.546647256215, -3089.5251738459083, 120.11827470282016, -0.10763671875, 0.99397265625, 0.25657421874999997, 192.0, 0.0, 0.0, 0.0, 0.0, 0.0, 0.0, 0.0, 0.0, 0.0, 1.7068827170220244E9, 0.0, 2024-02-02 15:05:17.022
174.0, 59897.75775644276, 62986.567674466096, -31350.377959058045, -2645.485418496778, 17120.452776009177, 8268.603178096197, 28194.691621624428, 4914.098073732624, 36212.66468914327, 47882.13048960334, 36453.14710773792, 44796.27100184811, 24160.671134075063, 24997.274577292752, -3080.875048741704, 132.23292019759657, -0.10763671875, 0.99397265625, 0.25657421874999997, 192.0, 0.0, 0.0, 0.0, 0.0, 0.0, 0.0, 0.0, 0.0, 0.0, 1.7068827170293608E9, 0.0, 2024-02-02 15:05:17.029
176.0, 59894.80732617466, 62981.06914533009, -31368.281706366746, -2656.974215146806, 17112.987293361104, 8278.505000889898, 28197.060906536688, 4914.321591177177, 36173.88441251331, 47872.56394297647, 36445.502811134196, 44779.596600484445, 24165.007372499393, 24999.532103482736, -3089.346359890266, 122.53226310399332, -0.10763671875, 0.99397265625, 0.25657421874999997, 192.0, 0.0, 0.0, 0.0, 0.0, 0.0, 0.0, 0.0, 0.0, 0.0, 1.706882717037069E9, 0.0, 2024-02-02 15:05:17.037
178.0, 59902.138698356, 62993.362604780516, -31355.29534283821, -2650.4028022769457, 17116.83179340742, 8287.289236460834, 28191.540025656228, 4915.193309210934, 36166.73185428761, 47878.50950700158, 36447.22389545726, 44782.189402841264, 24191.807114101306, 25010.12683035455, -3091.983865735992, 122.800484037457, -0.105818359375, 0.994986328125, 0.254287109375, 192.0, 126.0, 96.0, 15.5, 16.0, 3.5, 112.0, 0.0, 0.0, 0.0, 1.7068827170450184E9, 0.0, 2024-02-02 15:05:17.045
180.0, 59898.20479133187, 62992.915569891404, -31360.34683708511, -2642.7585056732305, 17114.976598617628, 8286.35046319371, 28189.39425818852, 4917.160262723, 36118.876769408795, 47869.36764351936, 36446.79921231261, 44787.710283721724, 24159.307677663288, 25013.792516445224, -3088.0276069674023, 123.35927764883968, -0.105818359375, 0.994986328125, 0.254287109375, 192.0, 0.0, 0.0, 0.0, 0.0, 0.0, 0.0, 0.0, 0.0, 0.0, 1.7068827170530283E9, 0.0, 2024-02-02 15:05:17.053
182.0, 59898.249494820775, 62996.96123563781, -31357.59757251711, -2635.80711314763, 17121.659770209764, 8286.194000982523, 28197.73145887035, 4921.228280213867, 36117.20038857465, 47900.19069912323, 36454.39880542741, 44798.72969373819, 24163.375695154155, 25023.180249116453, -3081.8361737532823, 127.49435037307148, -0.105818359375, 0.994986328125, 0.254287109375, 192.0, 0.0, 0.0, 0.0, 0.0, 0.0, 0.0, 0.0, 0.0, 0.0, 1.7068827170612452E9, 0.0, 2024-02-02 15:05:17.061
184.0, 59898.96475064335, 62993.56377048061, -31358.2010696174, -2649.396973776457, 17115.356578273368, 8277.186247967034, 28188.813112832682, 4912.824024298671, 36075.17910899867, 47884.075091370956, 36442.06064248808, 44787.24089708816, 24152.937430493526, 25003.13073434004, -3090.1957261795674, 122.42050438171678, -0.105818359375, 0.994986328125, 0.254287109375, 192.0, 0.0, 0.0, 0.0, 0.0, 0.0, 0.0, 0.0, 0.0, 0.0, 1.7068827170690432E9, 0.0, 2024-02-02 15:05:17.069
186.0, 59900.86464892205, 62993.139087335956, -31362.470252808365, -2641.4174010059123, 17117.14471782979, 8274.951073521504, 28197.127961770057, 4915.483881888853, 36049.72047206408, 47882.55517274799, 36447.84974430201, 44785.45275753173, 24169.030686501348, 25006.48349600834, -3089.726339546006, 121.43702762568327, -0.105818359375, 0.994986328125, 0.254287109375, 192.0, 0.0, 0.0, 0.0, 0.0, 0.0, 0.0, 0.0, 0.0, 0.0, 1.706882717078074E9, 0.0, 2024-02-02 15:05:17.078
188.0, 59902.943361156395, 62996.223628070795, -31351.49554628081, -2639.8974823829512, 17118.172898074736, 8256.488532601421, 28189.371906444063, 4910.253573686311, 36046.83709702934, 47873.770937177054, 36453.21416297128, 44791.621839001404, 24159.039456729824, 25011.98202514434, -3088.049958711858, 116.43023686769449, -0.105818359375, 0.994986328125, 0.254287109375, 192.0, 0.0, 0.0, 0.0, 0.0, 0.0, 0.0, 0.0, 0.0, 0.0, 1.7068827170840914E9, 0.0, 2024-02-02 15:05:17.084
190.0, 59904.887962924004, 62996.55890423762, -31354.937714926928, -2641.1044765835377, 17119.335188786412, 8288.183306239045, 28191.2047494894, 4918.613126112596, 36041.31621614888, 47877.302512801, 36448.721462335765, 44789.453719789235, 24159.531195107844, 24991.32901326764, -3090.7992232798606, 117.03373396798779, -0.106, 0.998, 0.25, 192.0, 126.0, 88.0, 15.5, 24.0, 3.5, 104.0, 0.0, 0.0, 0.0, 1.7068827170930994E9, 0.0, 2024-02-02 15:05:17.093
192.0, 59905.111480368556, 62997.74354669375, -31356.100005638604, -2662.2939303271687, 17120.47512775363, 8263.484628615932, 28195.47393268036, 4914.701570832917, 36048.13349820775, 47868.74179467461, 36450.464898403276, 44781.988237141166, 24170.327087679754, 25003.086030851133, -3086.9100197446373, 119.24655666906318, -0.106, 0.998, 0.25, 192.0, 0.0, 0.0, 0.0, 0.0, 0.0, 0.0, 0.0, 0.0, 0.0, 1.7068827171011317E9, 0.0, 2024-02-02 15:05:17.101
194.0, 59906.74315771379, 62998.034119371674, -31354.133052126534, -2628.4980927107445, 17117.725863185628, 8276.87332354466, 28194.266938479777, 4919.015457512791, 36068.406530428714, 47873.83799241042, 36448.54264838012, 44787.822042444, 24168.516596378875, 25008.785725687234, -3090.620409324218, 116.16201593423081, -0.106, 0.998, 0.25, 192.0, 0.0, 0.0, 0.0, 0.0, 0.0, 0.0, 0.0, 0.0, 0.0, 1.7068827171091151E9, 0.0, 2024-02-02 15:05:17.109
196.0, 59905.603218746575, 62995.46366875931, -31357.172889372458, -2647.2959097976577, 17116.76473817405, 8273.609968854185, 28193.998717546314, 4919.775416824272, 36096.43561797567, 47838.343422215396, 36445.21223845628, 44775.32741729348, 24159.330029407745, 24983.572957941647, -3094.844889026271, 120.5876613363816, -0.106, 0.998, 0.25, 192.0, 0.0, 0.0, 0.0, 0.0, 0.0, 0.0, 0.0, 0.0, 0.0, 1.7068827171175513E9, 0.0, 2024-02-02 15:05:17.117
198.0, 59906.989026902804, 63005.23138108628, -31356.323523083156, -2645.3960115189566, 17117.457642252164, 8277.230951455946, 28195.831560591647, 4923.262288959299, 36140.20033361916, 47857.96825384715, 36451.873058303965, 44785.16218485382, 24165.40970389959, 25000.42617326095, -3091.0674442133245, 122.68872531518046, -0.106, 0.998, 0.25, 192.0, 0.0, 0.0, 0.0, 0.0, 0.0, 0.0, 0.0, 0.0, 0.0, 1.706882717125142E9, 0.0, 2024-02-02 15:05:17.125
200.0, 59904.57503850163, 63004.247904330245, -31356.524688783255, -2642.7585056732305, 17121.10097659838, 8283.109460247691, 28206.426287463462, 4929.6548878735175, 36174.91259275825, 47849.98868107661, 36442.440622143826, 44781.7200162077, 24157.519538106866, 25031.226877120363, -3096.074234971313, 118.26307991302967, -0.11, 0.994, 0.246, 192.0, 126.0, 72.0, 15.5, 8.0, 3.5, 88.0, 0.0, 0.0, 0.0, 1.7068827171331167E9, 0.0, 2024-02-02 15:05:17.133
202.0, 59899.590599488096, 63001.20806708433, -31356.34587482761, -2643.250244051247, 17117.05531085197, 8278.996739267915, 28198.357307715098, 4922.703495347917, 36212.441171698716, 47824.038305764, 36449.92845653635, 44784.20105984224, 24158.77123579636, 24997.98983311532, -3083.043167953869, 132.63525159779212, -0.11, 0.994, 0.246, 192.0, 0.0, 0.0, 0.0, 0.0, 0.0, 0.0, 0.0, 0.0, 0.0, 1.70688271714017E9, 0.0, 2024-02-02 15:05:17.140
204.0, 59900.417614032944, 63001.94567465135, -31357.284648094734, -2649.352270287546, 17116.3400550294, 8278.773221823361, 28203.58761591764, 4923.731675592861, 36243.93477963624, 47811.431921891206, 36445.726328578756, 44776.82498417199, 24150.657552559085, 25003.086030851133, -3090.2180779240225, 123.80631253794581, -0.11, 0.994, 0.246, 192.0, 0.0, 0.0, 0.0, 0.0, 0.0, 0.0, 0.0, 0.0, 0.0, 1.7068827171493351E9, 0.0, 2024-02-02 15:05:17.149
206.0, 59906.1396606135, 63008.159459609924, -31352.07669163665, -2645.172494074404, 17122.866764410348, 8288.987969039437, 28213.44473522243, 4933.521739664286, 36294.494425594145, 47802.84885202037, 36446.95567452379, 44776.95909463872, 24159.106511963193, 25008.94218789842, -3088.653455812151, 127.42729513970556, -0.11, 0.994, 0.246, 192.0, 0.0, 0.0, 0.0, 0.0, 0.0, 0.0, 0.0, 0.0, 0.0, 1.706882717157241E9, 0.0, 2024-02-02 15:05:17.157
208.0, 59908.106614125565, 63008.6735497324, -31349.21566834637, -2647.1841510753816, 17126.554802245475, 8288.74209985043, 28210.53900844324, 4935.891024576548, 36350.17262103232, 47794.1316716828, 36450.822526314565, 44779.44013827326, 24149.987000225425, 25024.655464250503, -3080.249199896956, 135.07159174342058, -0.11, 0.994, 0.246, 192.0, 0.0, 0.0, 0.0, 0.0, 0.0, 0.0, 0.0, 0.0, 0.0, 1.7068827171642232E9, 0.0, 2024-02-02 15:05:17.164
210.0, 59906.40788154696, 63009.925247421896, -31353.417796303966, -2651.654499966443, 17119.938685886704, 8271.128925219647, 28199.743115871326, 4926.726809349872, 36398.184168122316, 47791.918848981724, 36442.26180818818, 44776.10972834942, 24147.88593624663, 25034.937266699944, -3090.7321680464947, 133.05993474244295, -0.112, 0.994, 0.246, 192.0, 126.0, 64.0, 15.5, 8.0, 3.5, 88.0, 0.0, 0.0, 0.0, 1.7068827171734104E9, 0.0, 2024-02-02 15:05:17.173
212.0, 59913.15810837247, 63016.38490156948, -31345.885258422528, -2633.9742701022947, 17122.844412665894, 8297.794556354827, 28204.34757522912, 4927.375009939076, 36445.145183222914, 47783.02285468851, 36450.353139681, 44779.037806873064, 24159.955878252495, 25038.692359768436, -3091.112147702235, 129.70717307414688, -0.112, 0.994, 0.246, 192.0, 0.0, 0.0, 0.0, 0.0, 0.0, 0.0, 0.0, 0.0, 0.0, 1.7068827171813445E9, 0.0, 2024-02-02 15:05:17.181
214.0, 59911.77230021624, 63014.7755759687, -31346.086424122626, -2645.418363263412, 17117.3905870188, 8283.936474792537, 28191.38356344504, 4914.165128965989, 36504.10908509602, 47786.532078567994, 36456.92455255086, 44788.09026337746, 24168.471892889964, 25046.873098239077, -3088.8322697677936, 135.4292196547055, -0.112, 0.994, 0.246, 192.0, 0.0, 0.0, 0.0, 0.0, 0.0, 0.0, 0.0, 0.0, 0.0, 1.7068827171892924E9, 0.0, 2024-02-02 15:05:17.189
216.0, 59913.18046011692, 63017.547192281156, -31341.21374383137, -2646.826523164096, 17119.223430064136, 8286.417518427077, 28192.724668112358, 4912.779320809761, 36545.45981233833, 47763.86740969031, 36450.800174570104, 44771.86289690291, 24160.78289279734, 25033.842031221633, -3096.2306971825, 126.10854221684245, -0.112, 0.994, 0.246, 192.0, 0.0, 0.0, 0.0, 0.0, 0.0, 0.0, 0.0, 0.0, 0.0, 1.7068827171962829E9, 0.0, 2024-02-02 15:05:17.196
218.0, 59908.598352503584, 63014.3732445685, -31345.639389233518, -2656.5271802577, 17114.10488058387, 8280.047271257314, 28194.87043558007, 4909.337152163644, 36593.18078675041, 47793.17054667122, 36457.103366506504, 44780.6694842183, 24177.859625561196, 25055.14324368754, -3091.939162247081, 122.84518752636761, -0.112, 0.994, 0.246, 192.0, 0.0, 0.0, 0.0, 0.0, 0.0, 0.0, 0.0, 0.0, 0.0, 1.7068827172055602E9, 0.0, 2024-02-02 15:05:17.205
220.0, 59905.245590835286, 63014.261485846226, -31351.897877681004, -2640.9256626278952, 17118.68698819721, 8274.034651998836, 28194.356345457596, 4907.236088184844, 36627.53541797822, 47797.52913684001, 36440.42896514285, 44775.57328648249, 24180.228910473455, 25042.62626679257, -3097.728264061006, 127.60610909534802, -0.11, 0.984, 0.252, 192.0, 126.0, 72.0, 15.0, 96.0, 3.5, 112.0, 0.0, 0.0, 0.0, 1.706882717213283E9, 0.0, 2024-02-02 15:05:17.213
222.0, 59924.602201533584, 63029.706541264844, -31334.798793172693, -2619.3115257396134, 17132.455662781675, 8290.127908006658, 28210.203732276408, 4921.988239525347, 36683.01244771629, 47787.1802791572, 36460.54553515262, 44792.180632612784, 24194.042288546836, 25024.43194680595, -3080.785641763883, 142.02298426902107, -0.11, 0.984, 0.252, 192.0, 0.0, 0.0, 0.0, 0.0, 0.0, 0.0, 0.0, 0.0, 0.0, 1.706882717220265E9, 0.0, 2024-02-02 15:05:17.220
224.0, 59912.42050080544, 63017.99422717026, -31343.06893862116, -2655.2754825682027, 17119.268133553047, 8259.193093680513, 28195.49628442482, 4907.861937029593, 36716.16008474351, 47799.607849074346, 36455.82931707255, 44789.65488548933, 24173.054000503304, 25049.510604084804, -3090.3521883907547, 132.45643764214967, -0.11, 0.984, 0.252, 192.0, 0.0, 0.0, 0.0, 0.0, 0.0, 0.0, 0.0, 0.0, 0.0, 1.7068827172296743E9, 0.0, 2024-02-02 15:05:17.229
226.0, 59910.274733337734, 63005.67841597539, -31346.53345901173, -2643.4067062624345, 17121.86093590986, 8294.844126086728, 28190.802418089203, 4913.44987314342, 36746.08907056917, 47780.11712790932, 36453.63884611593, 44775.126251593385, 24185.794494842827, 25020.90037118201, -3089.4134151236317, 133.99870800956583, -0.11, 0.984, 0.252, 192.0, 0.0, 0.0, 0.0, 0.0, 0.0, 0.0, 0.0, 0.0, 0.0, 1.7068827172372968E9, 0.0, 2024-02-02 15:05:17.237
228.0, 59915.97442817384, 63017.56954402561, -31336.38576702902, -2639.070467838105, 17118.284656797012, 8286.35046319371, 28192.076467523155, 4915.774454566772, 36769.89367841407, 47784.74393901157, 36455.4046339279, 44781.29533306305, 24189.326070466766, 25032.32211259867, -3088.742862789972, 139.05020225646524, -0.11, 0.984, 0.252, 192.0, 0.0, 0.0, 0.0, 0.0, 0.0, 0.0, 0.0, 0.0, 0.0, 1.7068827172443552E9, 0.0, 2024-02-02 15:05:17.244
230.0, 59912.800480461185, 63016.966046925314, -31348.567467757162, -2653.420287778412, 17116.42946200722, 8278.706166589996, 28190.28832796673, 4911.795844053727, 36797.25221362737, 47791.65062804826, 36452.0518722596, 44782.41292028582, 24180.877111062662, 25034.981970188855, -3096.0965867157684, 127.71786781762455, -0.11, 0.99, 0.252, 192.0, 126.0, 72.0, 15.0, 120.0, 3.5, 112.0, 0.0, 0.0, 0.0, 1.706882717252344E9, 0.0, 2024-02-02 15:05:17.252
232.0, 59914.745082228794, 63020.22940161579, -31357.86579345057, -2661.712784971331, 17109.031034592514, 8280.203733468501, 28197.507941425796, 4918.836643557149, 36794.12296940362, 47777.32315985241, 36437.07620347455, 44770.38768176886, 24196.03159380336, 25039.42996733546, -3100.1869559510897, 124.74508580506871, -0.11, 0.99, 0.252, 192.0, 0.0, 0.0, 0.0, 0.0, 0.0, 0.0, 0.0, 0.0, 0.0, 1.7068827172614048E9, 0.0, 2024-02-02 15:05:17.261
234.0, 59925.56332654516, 63037.19437565737, -31324.76285991226, -2643.898444640451, 17131.427482536732, 8285.992835282426, 28207.968557830878, 4928.939632050948, 36839.094679247704, 47803.05001772047, 36457.25982871769, 44782.50232726364, 24185.414515187087, 25080.959508533422, -3094.599019837263, 130.55653936344856, -0.11, 0.99, 0.252, 192.0, 0.0, 0.0, 0.0, 0.0, 0.0, 0.0, 0.0, 0.0, 0.0, 1.7068827172696583E9, 0.0, 2024-02-02 15:05:17.269
236.0, 59911.72759672733, 63025.3255993516, -31344.81237468867, -2630.9791363452837, 17115.982427118113, 8271.195980453012, 28195.161008257986, 4916.780283067261, 36842.42508917154, 47802.55827934245, 36453.08005250455, 44792.15828086833, 24182.59819538572, 25018.061699636186, -3085.166583677123, 137.08324874439822, -0.11, 0.99, 0.252, 192.0, 0.0, 0.0, 0.0, 0.0, 0.0, 0.0, 0.0, 0.0, 0.0, 1.7068827172763355E9, 0.0, 2024-02-02 15:05:17.276
238.0, 59917.337884585606, 63032.2769918772, -31341.59372348711, -2636.5000172257446, 17112.3390927719, 8297.436928443543, 28192.121171012066, 4922.345867436632, 36846.00136828439, 47804.994619488076, 36452.72242459327, 44794.05817914703, 24170.461198146488, 25011.490286766326, -3091.7603482914387, 141.1736179797194, -0.11, 0.99, 0.252, 192.0, 0.0, 0.0, 0.0, 0.0, 0.0, 0.0, 0.0, 0.0, 0.0, 1.7068827172853515E9, 0.0, 2024-02-02 15:05:17.285
240.0, 59903.97154140133, 63022.084596405584, -31362.179680130444, -2696.96148597735, 17094.457697207654, 8256.086201201226, 28182.264051707276, 4902.251649171311, 36834.78079256783, 47793.103491437854, 36435.55628485159, 44769.247742801635, 24185.68273612055, 25070.521243872794, -3104.925525775615, 121.28056541449612, -0.108, 0.992, 0.254, 192.0, 126.0, 80.0, 15.5, 0.0, 3.5, 120.0, 0.0, 0.0, 0.0, 1.7068827172934973E9, 0.0, 2024-02-02 15:05:17.293
242.0, 59922.67995151043, 63036.076788434606, -31324.226418045335, -2596.0210080171837, 17119.379892275323, 8302.890754090638, 28203.006470561802, 4930.638364629551, 36843.7438420944, 47812.348343413876, 36438.84199128652, 44781.58590574097, 24160.06763697477, 25080.892453300054, -3109.462929900042, 125.34858290536201, -0.108, 0.992, 0.254, 192.0, 0.0, 0.0, 0.0, 0.0, 0.0, 0.0, 0.0, 0.0, 0.0, 1.7068827173006947E9, 0.0, 2024-02-02 15:05:17.300
244.0, 59917.85197470808, 63036.72498902381, -31327.132144824525, -2615.623487904488, 17125.079587111424, 8276.314529933277, 28205.33105198515, 4926.190367482945, 36865.24622026041, 47793.84109900488, 36468.078073034056, 44804.764664741124, 24188.052021032814, 24977.18035902743, -3069.9226939586038, 170.76732763854596, -0.108, 0.992, 0.254, 192.0, 0.0, 0.0, 0.0, 0.0, 0.0, 0.0, 0.0, 0.0, 0.0, 1.706882717308424E9, 0.0, 2024-02-02 15:05:17.308
246.0, 59906.43023329142, 63025.28089586269, -31358.64810450651, -2646.513598741722, 17113.791956161494, 8283.020053269871, 28198.357307715098, 4913.919259776982, 36836.56893212425, 47778.9771889421, 36437.79145929712, 44785.38570229837, 24196.009242058903, 25010.216237332374, -3095.336627404288, 137.53028363350435, -0.108, 0.992, 0.254, 192.0, 0.0, 0.0, 0.0, 0.0, 0.0, 0.0, 0.0, 0.0, 0.0, 1.706882717317438E9, 0.0, 2024-02-02 15:05:17.317
248.0, 59915.393282818, 63037.596707057564, -31340.856115920084, -2646.0442121081605, 17119.826927164428, 8286.104594004702, 28203.16293277299, 4921.094169747134, 36824.05195522928, 47774.19391562867, 36439.423136642356, 44779.39543478435, 24162.05694223129, 25026.66712125148, -3088.005255222947, 130.93651901918878, -0.108, 0.992, 0.254, 192.0, 0.0, 0.0, 0.0, 0.0, 0.0, 0.0, 0.0, 0.0, 0.0, 1.706882717325695E9, 0.0, 2024-02-02 15:05:17.325
250.0, 59923.775186988736, 63041.441207103875, -31319.733717409817, -2635.941223614362, 17120.363369031355, 8286.708091104996, 28198.58082515965, 4923.910489548503, 36835.183123968025, 47783.51459306653, 36459.91968630787, 44794.281696591584, 24178.463122661487, 24975.61573691556, -3082.171449920112, 148.79556283897912, -0.108, 0.99, 0.254, 192.0, 126.0, 80.0, 15.0, 120.0, 3.5, 120.0, 0.0, 0.0, 0.0, 1.706882717332649E9, 0.0, 2024-02-02 15:05:17.332
252.0, 59912.95694267237, 63034.892145978476, -31332.0942320936, -2640.1433515719596, 17113.635493950307, 8283.578846881253, 28199.363136215587, 4927.330306450165, 36802.77309450783, 47765.81201145792, 36451.0013402702, 44784.223411586696, 24163.06277073178, 25005.388260530028, -3088.5864005787853, 136.83737955538984, -0.108, 0.99, 0.254, 192.0, 0.0, 0.0, 0.0, 0.0, 0.0, 0.0, 0.0, 0.0, 0.0, 1.7068827173405087E9, 0.0, 2024-02-02 15:05:17.340
254.0, 59910.29708508219, 63042.379980371, -31339.939694397417, -2654.1355436009817, 17114.95424687317, 8282.729480591952, 28193.126999512555, 4923.262288959299, 36763.56813473322, 47772.94221793917, 36442.50767737719, 44778.94839989524, 24162.88395677614, 25009.121001854062, -3089.2346011679892, 138.69257434518033, -0.108, 0.99, 0.254, 192.0, 0.0, 0.0, 0.0, 0.0, 0.0, 0.0, 0.0, 0.0, 0.0, 1.7068827173495405E9, 0.0, 2024-02-02 15:05:17.349
0.0, 59910.78882346021, 63040.45773034784, -31338.28566530772, -2657.868284925018, 17125.794842933996, 8291.536067907342, 28208.460296208897, 4929.185501239956, 36732.49920994034, 47776.183220885185, 36431.71178480527, 44782.323513307994, 24155.26201191688, 25008.27163556476, -3093.3249704033105, 138.13378073379764, -0.108, 0.99, 0.254, 192.0, 0.0, 0.0, 0.0, 0.0, 0.0, 0.0, 0.0, 0.0, 0.0, 1.7068827173565483E9, 0.0, 2024-02-02 15:05:17.356
2.0, 59910.67706473793, 63041.39650361497, -31335.849325162093, -2634.3095462691244, 17116.898848640783, 8289.591466139731, 28192.34468845662, 4921.652963358518, 36735.02495706379, 47782.128784910296, 36444.72050007826, 44787.084434876975, 24152.982133982438, 25025.52718228426, -3075.622388794707, 144.8840075593004, -0.108, 0.99, 0.254, 192.0, 0.0, 0.0, 0.0, 0.0, 0.0, 0.0, 0.0, 0.0, 0.0, 1.7068827173647928E9, 0.0, 2024-02-02 15:05:17.364
4.0, 59919.81892822015, 63049.487835107786, -31317.498542964287, -2631.135598556471, 17133.282677326522, 8293.681835375051, 28211.276616010266, 4931.398323941031, 36698.926889768474, 47778.843078475365, 36453.08005250455, 44790.95128666774, 24181.994698285427, 25000.314414538672, -3081.7691185199164, 146.09100175988695, -0.108, 0.992, 0.254, 192.0, 126.0, 80.0, 15.5, 0.0, 3.5, 120.0, 0.0, 0.0, 0.0, 1.706882717372532E9, 0.0, 2024-02-02 15:05:17.372
6.0, 59922.635248021514, 63053.71231480984, -31321.566560455154, -2628.90042411094, 17134.266154082557, 8294.218277241978, 28217.132773057554, 4936.181597254467, 36650.334197322634, 47764.91794167971, 36453.325921693555, 44789.14079536686, 24163.509805620888, 25008.33869079813, -3076.918789973115, 146.4486296711719, -0.108, 0.992, 0.254, 192.0, 0.0, 0.0, 0.0, 0.0, 0.0, 0.0, 0.0, 0.0, 0.0, 1.7068827173808603E9, 0.0, 2024-02-02 15:05:17.380
8.0, 59917.31553284115, 63050.381904886, -31326.99803435779, -2637.5281974706886, 17119.53635448651, 8281.142506735625, 28199.564301915685, 4924.625745371073, 36607.4411997129, 47778.10547090834, 36455.69520660582, 44790.81717620101, 24178.329012194758, 24997.98983311532, -3079.7127580300285, 149.22024598362995, -0.108, 0.992, 0.254, 192.0, 0.0, 0.0, 0.0, 0.0, 0.0, 0.0, 0.0, 0.0, 0.0, 1.7068827173885305E9, 0.0, 2024-02-02 15:05:17.388
10.0, 59921.22708812083, 63051.34302989758, -31318.97375809834, -2629.7944938891524, 17131.181613347722, 8276.649806100108, 28204.660499651494, 4930.2136814849, 36555.56280083213, 47764.35914806833, 36452.4542036598, 44788.58200175548, 24160.089988719224, 25014.016033889777, -3083.825479009805, 145.5769116374149, -0.108, 0.992, 0.254, 192.0, 0.0, 0.0, 0.0, 0.0, 0.0, 0.0, 0.0, 0.0, 0.0, 1.7068827173972573E9, 0.0, 2024-02-02 15:05:17.397
12.0, 59921.56236428766, 63050.80658803065, -31324.91932212345, -2635.80711314763, 17122.017398121046, 8293.59242839723, 28188.410781432485, 4926.682105860961, 36524.002137661235, 47759.79939219945, 36458.53387815164, 44796.516871037114, 24162.951012009504, 25015.066565879177, -3081.210324908534, 144.99576628157692, -0.108, 0.992, 0.254, 192.0, 0.0, 0.0, 0.0, 0.0, 0.0, 0.0, 0.0, 0.0, 0.0, 1.7068827174055555E9, 0.0, 2024-02-02 15:05:17.405
14.0, 59916.19794561839, 63044.12341643852, -31324.2934732787, -2637.550549215144, 17127.359465045865, 8289.859687073194, 28214.338805000643, 4934.952251309425, 36496.93417512586, 47757.273645076, 36446.754508823695, 44787.218545343705, 24165.990849255428, 24997.587501715127, -3085.747729032961, 143.6993651031691, -0.106, 0.99, 0.248, 192.0, 126.0, 88.0, 15.0, 120.0, 3.5, 96.0, 0.0, 0.0, 0.0, 1.7068827174125829E9, 0.0, 2024-02-02 15:05:17.412
16.0, 59917.58375377462, 63045.19630017237, -31322.393575, -2638.355212015535, 17133.327380815434, 8293.994759797426, 28213.511790455796, 4938.841454844649, 36473.97893357026, 47742.58854896886, 36449.88375304744, 44786.39153079886, 24159.374732896656, 24994.57001621366, -3074.4824498274866, 147.20858898265232, -0.106, 0.99, 0.248, 192.0, 0.0, 0.0, 0.0, 0.0, 0.0, 0.0, 0.0, 0.0, 0.0, 1.706882717420597E9, 0.0, 2024-02-02 15:05:17.420
18.0, 59921.450605565384, 63052.706486309355, -31315.464534218852, -2635.516540469711, 17132.925049415237, 8293.123041763669, 28206.225121763364, 4937.5227019217855, 36472.8613463475, 47746.03071761498, 36453.191811226825, 44789.610182000426, 24166.39318065562, 25018.128754869555, -3074.6389120386734, 148.25912097205173, -0.106, 0.99, 0.248, 192.0, 0.0, 0.0, 0.0, 0.0, 0.0, 0.0, 0.0, 0.0, 0.0, 1.7068827174288156E9, 0.0, 2024-02-02 15:05:17.428
20.0, 59921.07062590965, 63053.77937004321, -31324.91932212345, -2640.7021451833425, 17125.370159789345, 8289.993797539926, 28200.123095527066, 4931.4206756854865, 36471.788462613644, 47752.557426995925, 36454.04117751613, 44791.21950760121, 24168.002506256405, 25017.56996125817, -3081.6797115420954, 143.6770133587138, -0.106, 0.99, 0.248, 192.0, 0.0, 0.0, 0.0, 0.0, 0.0, 0.0, 0.0, 0.0, 0.0, 1.7068827174366097E9, 0.0, 2024-02-02 15:05:17.436
22.0, 59920.0424456647, 63052.88530026499, -31326.461592490865, -2641.7526771727416, 17124.18551733321, 8280.695471846519, 28194.602214646606, 4929.274908217777, 36481.24325051824, 47741.56036872392, 36450.353139681, 44790.90658317883, 24163.621564343164, 25016.72059496887, -3083.780775520894, 138.13378073379764, -0.106, 0.99, 0.248, 192.0, 0.0, 0.0, 0.0, 0.0, 0.0, 0.0, 0.0, 0.0, 0.0, 1.7068827174446125E9, 0.0, 2024-02-02 15:05:17.444
24.0, 59922.635248021514, 63056.79685554467, -31321.67831917743, -2639.4951509827556, 17126.979485390126, 8281.053099757803, 28196.368002458574, 4926.16801573849, 36484.03721857515, 47737.805275655424, 36450.84487805902, 44793.70055123574, 24158.59242184072, 25027.136507885043, -3086.5747435778076, 131.22709169710777, -0.11, 0.992, 0.252, 192.0, 126.0, 72.0, 15.5, 0.0, 3.5, 112.0, 0.0, 0.0, 0.0, 1.7068827174527338E9, 0.0, 2024-02-02 15:05:17.452
26.0, 59921.22708812083, 63055.992192744285, -31315.218665029846, -2626.262918265214, 17127.203002834678, 8298.196887755024, 28189.32720295515, 4926.525643649775, 36504.75728568522, 47755.26198807502, 36457.75156709571, 44798.10384489344, 24169.12009347917, 25018.441679291926, -3078.9975022074586, 140.16778947923058, -0.11, 0.992, 0.252, 192.0, 0.0, 0.0, 0.0, 0.0, 0.0, 0.0, 0.0, 0.0, 0.0, 1.7068827174616568E9, 0.0, 2024-02-02 15:05:17.461
28.0, 59908.28542808121, 63044.83867226108, -31326.57335121314, -2666.1831338623924, 17113.27786603902, 8285.63520737114, 28188.00845003229, 4915.349771422121, 36518.637718991966, 47761.54282826696, 36451.53778213713, 44792.27003959061, 24173.813959814783, 25009.14335359852, -3087.46881335602, 142.80529532495683, -0.11, 0.992, 0.252, 192.0, 0.0, 0.0, 0.0, 0.0, 0.0, 0.0, 0.0, 0.0, 0.0, 1.706882717467674E9, 0.0, 2024-02-02 15:05:17.467
30.0, 59916.980256674324, 63059.255547434754, -31313.452877217875, -2620.451464706834, 17127.314761556954, 8286.283407960345, 28196.502112925307, 4921.563556380696, 36539.49189656877, 47778.88778196428, 36444.094651233514, 44782.591734241454, 24162.414570142577, 25042.134528414554, -3092.274438413911, 123.20281543765253, -0.11, 0.992, 0.252, 192.0, 0.0, 0.0, 0.0, 0.0, 0.0, 0.0, 0.0, 0.0, 0.0, 1.706882717476657E9, 0.0, 2024-02-02 15:05:17.476
32.0, 59927.21735563486, 63074.43238191991, -31306.546188181186, -2613.030685547672, 17130.265191825056, 8293.614780141686, 28202.58178741715, 4929.230204728867, 36576.90871678695, 47793.99756121606, 36462.06545377558, 44808.16212989833, 24178.55252963931, 25003.644824462513, -3075.2200573945115, 150.20372273966345, -0.11, 0.992, 0.252, 192.0, 0.0, 0.0, 0.0, 0.0, 0.0, 0.0, 0.0, 0.0, 0.0, 1.7068827174848876E9, 0.0, 2024-02-02 15:05:17.484
34.0, 59920.690646253905, 63067.05630624966, -31316.313900508154, -2624.966517086806, 17122.39737777679, 8285.076413759758, 28197.127961770057, 4921.183576724956, 36610.23516776981, 47809.42026489023, 36459.22678222976, 44811.134911910885, 24184.02870703086, 25024.744871228322, -3080.785641763883, 145.48750465959367, -0.108, 0.992, 0.251, 192.0, 126.0, 88.0, 15.5, 0.0, 3.5, 104.0, 0.0, 0.0, 0.0, 1.7068827174926746E9, 0.0, 2024-02-02 15:05:17.492
36.0, 59925.25040212279, 63068.017431261236, -31315.73275515232, -2628.6992584108425, 17123.850241166383, 8295.268809231378, 28193.462275679383, 4927.4867686613525, 36639.225380328346, 47801.99948573107, 36459.87498281896, 44802.753007740146, 24187.02384078787, 25024.52135378377, -3081.947932475559, 143.87817905881155, -0.108, 0.992, 0.251, 192.0, 0.0, 0.0, 0.0, 0.0, 0.0, 0.0, 0.0, 0.0, 0.0, 1.706882717500704E9, 0.0, 2024-02-02 15:05:17.500
38.0, 59916.6896839964, 63058.942623012386, -31328.853229147582, -2648.0111656202275, 17113.255514294568, 8286.59633238272, 28188.14256049902, 4917.87551854557, 36676.910421479995, 47806.69335206668, 36449.99551176972, 44793.87936519139, 24189.728401866963, 25025.102499139608, -3090.1733744351122, 139.67605110121383, -0.108, 0.992, 0.251, 192.0, 0.0, 0.0, 0.0, 0.0, 0.0, 0.0, 0.0, 0.0, 0.0, 1.706882717508744E9, 0.0, 2024-02-02 15:05:17.508
40.0, 59920.2436113648, 63065.15640797096, -31318.236150531313, -2625.592365931555, 17123.850241166383, 8291.78193709635, 28203.453505450907, 4924.134006993057, 36703.24077644834, 47815.969326015635, 36453.325921693555, 44794.59462101396, 24190.46600943399, 25025.884810195545, -3092.7661767919276, 134.4904463875826, -0.108, 0.992, 0.251, 192.0, 0.0, 0.0, 0.0, 0.0, 0.0, 0.0, 0.0, 0.0, 0.0, 1.706882717516955E9, 0.0, 2024-02-02 15:05:17.516
42.0, 59917.38258807452, 63063.77059981473, -31317.72206040884, -2628.252223521736, 17123.604371977373, 8290.3067219623, 28203.319394984173, 4924.625745371073, 36735.78491637527, 47809.330857912406, 36459.271485718666, 44803.66942926281, 24197.953843826515, 25034.24436262183, -3083.4231476096093, 141.03950751298757, -0.108, 0.992, 0.251, 192.0, 0.0, 0.0, 0.0, 0.0, 0.0, 0.0, 0.0, 0.0, 0.0, 1.706882717523729E9, 0.0, 2024-02-02 15:05:17.523
44.0, 59912.71107348336, 63060.61900384653, -31328.38384251402, -2646.6030057195435, 17109.232200292612, 8272.335919420233, 28184.454522663895, 4905.604410839607, 36755.0744718402, 47822.29486969649, 36450.37549142545, 44801.59071702847, 24203.564131684798, 25049.935287229455, -3094.978999493003, 127.15907420624188, -0.10500000000000001, 0.992, 0.2535, 192.0, 126.0, 104.0, 15.5, 0.0, 4.0, 0.0, 0.0, 0.0, 0.0, 1.7068827175327387E9, 0.0, 2024-02-02 15:05:17.532
46.0, 59922.88111721053, 63065.782256815706, -31321.275987777233, -2642.266767295214, 17113.188459061203, 8277.767393322873, 28189.617775633073, 4914.2768876882665, 36787.931536189506, 47813.57768935891, 36454.3541019385, 44794.12523438039, 24213.175381800578, 25018.262865336284, -3093.369673892221, 130.84711204136755, -0.10500000000000001, 0.992, 0.2535, 192.0, 0.0, 0.0, 0.0, 0.0, 0.0, 0.0, 0.0, 0.0, 0.0, 1.706882717540768E9, 0.0, 2024-02-02 15:05:17.540
48.0, 59910.00651240427, 63055.72397181082, -31342.01840663176, -2645.418363263412, 17099.397432732276, 8277.454468900498, 28169.85883353458, 4900.619971826073, 36808.7857137663, 47818.80799756146, 36450.68841584783, 44799.91433619432, 24222.764280171905, 25024.208429361395, -3097.795319294372, 130.46713238562734, -0.10500000000000001, 0.992, 0.2535, 192.0, 0.0, 0.0, 0.0, 0.0, 0.0, 0.0, 0.0, 0.0, 0.0, 1.706882717549006E9, 0.0, 2024-02-02 15:05:17.549
50.0, 59910.498250782286, 63052.17004444243, -31319.689013920906, -2649.732249943286, 17114.73072942862, 8285.746966093417, 28187.784932587736, 4915.617992355585, 36811.31146088975, 47829.13450349981, 36444.251113444705, 44789.14079536686, 24201.75364038392, 25021.772089215767, -3101.729226318506, 128.05314398445415, -0.10500000000000001, 0.992, 0.2535, 192.0, 0.0, 0.0, 0.0, 0.0, 0.0, 0.0, 0.0, 0.0, 0.0, 1.70688271755581E9, 0.0, 2024-02-02 15:05:17.555
52.0, 59915.81796596265, 63060.954280013364, -31322.952368611383, -2640.2104068053254, 17120.67629345373, 8292.45248943001, 28197.664403636983, 4922.390570925542, 36824.49899011839, 47852.49207645561, 36453.7059013493, 44795.55574602554, 24218.78566965886, 25049.600011062626, -3088.8099180233385, 141.62065286882554, -0.10500000000000001, 0.992, 0.2535, 192.0, 0.0, 0.0, 0.0, 0.0, 0.0, 0.0, 0.0, 0.0, 0.0, 1.7068827175650096E9, 0.0, 2024-02-02 15:05:17.565
54.0, 59908.82186994814, 63056.72980031131, -31330.194333814903, -2637.2376247927696, 17114.462508495155, 8289.993797539926, 28191.540025656228, 4917.897870290026, 36834.98195826793, 47856.2471695241, 36445.54751462311, 44794.549917525044, 24221.959617371514, 25012.38435654454, -3092.877935514204, 143.63230986980318, -0.10550000000000001, 0.991, 0.25375000000000003, 192.0, 126.0, 88.0, 15.0, 120.0, 3.5, 120.0, 0.0, 0.0, 0.0, 1.7068827175728087E9, 0.0, 2024-02-02 15:05:17.572
56.0, 59908.71011122586, 63055.94748925537, -31329.30026403669, -2637.908177126429, 17112.741424172094, 8284.674082359563, 28186.44382792042, 4911.862899287093, 36823.850789529184, 47867.557152218484, 36442.88765703293, 44795.756911725635, 24228.486326752463, 25024.275484594764, -3093.5484878478633, 139.07255400092055, -0.10550000000000001, 0.991, 0.25375000000000003, 192.0, 0.0, 0.0, 0.0, 0.0, 0.0, 0.0, 0.0, 0.0, 0.0, 1.7068827175800488E9, 0.0, 2024-02-02 15:05:17.580
58.0, 59910.67706473793, 63054.89695726597, -31330.48490649282, -2649.4640290098228, 17108.00285434757, 8274.884018288138, 28182.644031363016, 4910.678256830962, 36868.1519470396, 47876.14022208932, 36447.73798557973, 44795.08635939197, 24231.436757020565, 25027.091804396132, -3093.3473221477657, 140.63717611279205, -0.10550000000000001, 0.991, 0.25375000000000003, 192.0, 0.0, 0.0, 0.0, 0.0, 0.0, 0.0, 0.0, 0.0, 0.0, 1.7068827175888853E9, 0.0, 2024-02-02 15:05:17.588
60.0, 59904.59739024608, 63049.7337042968, -31329.836705903617, -2639.09281958256, 17108.047557836482, 8282.97534978096, 28184.38746743053, 4908.174861451967, 36860.57470566925, 47898.179042122254, 36435.98096799624, 44794.86284194742, 24235.50477451143, 25025.415423561983, -3102.466833885531, 124.07453347140951, -0.10550000000000001, 0.991, 0.25375000000000003, 192.0, 0.0, 0.0, 0.0, 0.0, 0.0, 0.0, 0.0, 0.0, 0.0, 1.7068827175968685E9, 0.0, 2024-02-02 15:05:17.596
62.0, 59909.67123623744, 63054.874605521516, -31332.96595012736, -2655.4319447793896, 17110.461546237653, 8269.810172296784, 28181.794665073714, 4907.392550396032, 36861.736996380925, 47897.44143455523, 36448.9002762914, 44801.30014435055, 24239.237515835466, 25020.207467103897, -3091.1344994466904, 137.82085631142334, -0.10550000000000001, 0.991, 0.25375000000000003, 192.0, 0.0, 0.0, 0.0, 0.0, 0.0, 0.0, 0.0, 0.0, 0.0, 1.7068827176038554E9, 0.0, 2024-02-02 15:05:17.603
64.0, 59907.413710047455, 63050.672477563916, -31330.23903730381, -2657.0636221246273, 17107.95815085866, 8278.125021234158, 28178.352496427597, 4906.721998062372, 36864.262743504376, 47904.72810324766, 36437.456183130285, 44793.20881285773, 24234.878925666682, 25019.581618259148, -3099.3822931506984, 126.75674280604635, -0.10575000000000001, 0.9915, 0.251875, 192.0, 126.0, 88.0, 15.5, 0.0, 3.5, 104.0, 0.0, 0.0, 0.0, 1.7068827176121373E9, 0.0, 2024-02-02 15:05:17.612
66.0, 59911.34761707159, 63056.260413677745, -31326.5957029576, -2635.8294648920855, 17106.751156658072, 8274.884018288138, 28178.106627238587, 4907.5266608627635, 36865.76031038288, 47896.68147524375, 36440.09368897601, 44786.7715104546, 24238.5222600129, 25003.264844806774, -3100.2316594400004, 132.18821670868596, -0.10575000000000001, 0.9915, 0.251875, 192.0, 0.0, 0.0, 0.0, 0.0, 0.0, 0.0, 0.0, 0.0, 0.0, 1.706882717620891E9, 0.0, 2024-02-02 15:05:17.620
68.0, 59908.77716645923, 63054.36051539904, -31334.128240839036, -2656.236607579781, 17107.131136313812, 8269.251378685402, 28181.660554606984, 4908.4654341298865, 36847.67774911854, 47881.14701284731, 36437.34442440801, 44796.33805708147, 24237.829355934784, 25025.728347984357, -3098.5999820947627, 132.81406555343457, -0.10575000000000001, 0.9915, 0.251875, 192.0, 0.0, 0.0, 0.0, 0.0, 0.0, 0.0, 0.0, 0.0, 0.0, 1.7068827176279044E9, 0.0, 2024-02-02 15:05:17.627
70.0, 59912.57696301663, 63055.27693692171, -31318.213798786855, -2649.4640290098228, 17108.874572381326, 8261.383564637134, 28180.699429595403, 4908.420730640975, 36882.01002860189, 47909.936059705746, 36448.11796523547, 44798.50617629364, 24245.74187347196, 25000.672042449958, -3099.9857902509916, 127.82962653990108, -0.10575000000000001, 0.9915, 0.251875, 192.0, 0.0, 0.0, 0.0, 0.0, 0.0, 0.0, 0.0, 0.0, 0.0, 1.706882717636083E9, 0.0, 2024-02-02 15:05:17.636
72.0, 59910.61000950456, 63057.9814980008, -31312.223531272833, -2653.353232545046, 17114.842488150894, 8275.420460155066, 28189.260147721787, 4915.774454566772, 36879.17135705607, 47900.9059549458, 36450.64371235892, 44796.807443715035, 24232.37553028769, 25023.806097961202, -3094.0625779703355, 123.18046369319723, -0.10575000000000001, 0.9915, 0.251875, 192.0, 0.0, 0.0, 0.0, 0.0, 0.0, 0.0, 0.0, 0.0, 0.0, 1.7068827176449084E9, 0.0, 2024-02-02 15:05:17.644
74.0, 59906.72080596934, 63053.131169454005, -31329.903761136982, -2655.387241290479, 17112.562610216453, 8279.488477645931, 28189.237795977333, 4912.198175453923, 36867.72726389495, 47920.24021389964, 36454.06352926058, 44806.44104557527, 24261.99159169097, 25037.932400456953, -3085.9041912441485, 142.76059183604622, -0.106875, 0.98875, 0.25293750000000004, 192.0, 126.0, 80.0, 15.0, 104.0, 3.5, 120.0, 0.0, 0.0, 0.0, 1.7068827176529455E9, 0.0, 2024-02-02 15:05:17.652
76.0, 59914.834489206616, 63056.70744856685, -31307.90964459296, -2622.0831420520717, 17117.927028885726, 8276.314529933277, 28188.0531535212, 4913.673390587973, 36860.19472601351, 47895.2062601097, 36451.448375159314, 44801.34484783946, 24237.2705623234, 24996.76048717028, -3092.56501109183, 134.64690859876976, -0.106875, 0.98875, 0.25293750000000004, 192.0, 0.0, 0.0, 0.0, 0.0, 0.0, 0.0, 0.0, 0.0, 0.0, 1.7068827176599476E9, 0.0, 2024-02-02 15:05:17.659
78.0, 59913.71690198385, 63060.61900384653, -31318.90670286497, -2652.0791831110937, 17115.490688740098, 8275.241646199423, 28188.321374454663, 4918.6801813459615, 36863.86041210418, 47900.68243750125, 36456.09753800601, 44803.31180135153, 24228.866306408207, 25002.057850606187, -3086.775909277905, 148.95202505016627, -0.106875, 0.98875, 0.25293750000000004, 192.0, 0.0, 0.0, 0.0, 0.0, 0.0, 0.0, 0.0, 0.0, 0.0, 1.706882717668039E9, 0.0, 2024-02-02 15:05:17.668
80.0, 59909.47007053734, 63056.70744856685, -31329.769650670252, -2639.9198341274064, 17111.71324392715, 8274.481686887942, 28186.399124431508, 4918.657829601506, 36828.1423244646, 47889.640675740324, 36441.90418027689, 44791.621839001404, 24223.434832505565, 25004.47183900736, -3096.588325093785, 136.12212373282, -0.106875, 0.98875, 0.25293750000000004, 192.0, 0.0, 0.0, 0.0, 0.0, 0.0, 0.0, 0.0, 0.0, 0.0, 1.7068827176770124E9, 0.0, 2024-02-02 15:05:17.677
82.0, 59910.54295427119, 63059.45671313485, -31336.609284473576, -2649.642842965465, 17104.694796168184, 8260.511846603376, 28185.795627331216, 4916.154434222512, 36856.68550213403, 47897.57554502196, 36457.818622329076, 44805.614031030425, 24246.166556616612, 25008.361042542583, -3093.168508192123, 136.79267606647923, -0.106875, 0.98875, 0.25293750000000004, 192.0, 0.0, 0.0, 0.0, 0.0, 0.0, 0.0, 0.0, 0.0, 0.0, 1.706882717684025E9, 0.0, 2024-02-02 15:05:17.684
84.0, 59914.879192695524, 63059.18849220139, -31319.733717409817, -2652.4591627668337, 17114.171935817234, 8284.159992237092, 28188.92487155496, 4918.702533090417, 36828.63406284262, 47912.10417891791, 36430.057755715585, 44791.91241167932, 24221.199658060035, 25058.361894889105, -3113.732113091006, 114.48563510008277, -0.1054375, 0.987375, 0.25446875, 192.0, 126.0, 96.0, 15.0, 104.0, 4.0, 0.0, 0.0, 0.0, 0.0, 1.7068827176922877E9, 0.0, 2024-02-02 15:05:17.692
86.0, 59922.031750921225, 63070.43141966241, -31309.831894616116, -2624.385371730968, 17133.64030523781, 8294.039463286337, 28205.57692117416, 4935.533396665263, 36828.321138420244, 47908.5055480606, 36469.24036374573, 44814.621784045914, 24269.769998761418, 25004.80711517419, -3075.4212230946096, 153.75765010805728, -0.1054375, 0.987375, 0.25446875, 192.0, 0.0, 0.0, 0.0, 0.0, 0.0, 0.0, 0.0, 0.0, 0.0, 1.7068827177009954E9, 0.0, 2024-02-02 15:05:17.700
88.0, 59915.68385549592, 63066.49751263828, -31307.86494110405, -2631.6496886789428, 17124.744310944596, 8280.539009635331, 28196.9044443255, 4927.285602961255, 36805.96939396494, 47889.864193184876, 36457.97508454026, 44808.96679269872, 24214.605893445718, 24986.65749867648, -3075.8906097281706, 148.6838041167026, -0.1054375, 0.987375, 0.25446875, 192.0, 0.0, 0.0, 0.0, 0.0, 0.0, 0.0, 0.0, 0.0, 0.0, 1.7068827177090065E9, 0.0, 2024-02-02 15:05:17.709
90.0, 59921.115329398555, 63069.73851558429, -31307.931996337415, -2621.5690519295995, 17124.38668303331, 8283.78001258135, 28197.82086584817, 4928.850225073126, 36792.82656822522, 47899.497795045114, 36458.086843262536, 44812.6771822783, 24204.324090996277, 25010.61856873257, -3076.359996361732, 142.96175753614398, -0.1054375, 0.987375, 0.25446875, 192.0, 0.0, 0.0, 0.0, 0.0, 0.0, 0.0, 0.0, 0.0, 0.0, 1.7068827177160797E9, 0.0, 2024-02-02 15:05:17.716
92.0, 59932.13473941502, 63077.382812188014, -31297.046696787682, -2611.4437116913455, 17132.63447673732, 8298.532163921853, 28205.308700240697, 4942.440085701953, 36769.58075399169, 47897.08380664395, 36473.330732981056, 44821.81904576052, 24222.205486560524, 25021.503868282303, -3070.74970850345, 153.55648440795952, -0.1054375, 0.987375, 0.25446875, 192.0, 0.0, 0.0, 0.0, 0.0, 0.0, 0.0, 0.0, 0.0, 0.0, 1.7068827177240329E9, 0.0, 2024-02-02 15:05:17.724
94.0, 59930.05602718068, 63076.19816973188, -31305.00391781377, -2623.8489298640407, 17125.951305145183, 8291.379605696155, 28207.789743875237, 4942.842417102149, 36722.619738891095, 47893.842803697924, 36462.06545377558, 44818.332173625495, 24223.79246041685, 25026.711824740392, -3079.176316163101, 155.7693071090349, -0.10571875, 0.9886874999999999, 0.253234375, 192.0, 126.0, 88.0, 15.0, 120.0, 3.5, 112.0, 0.0, 0.0, 0.0, 1.7068827177330947E9, 0.0, 2024-02-02 15:05:17.733
96.0, 59930.65952428097, 63074.74530634229, -31304.601586413573, -2626.620546176499, 17125.794842933996, 8291.223143484967, 28202.29121473923, 4935.30987922071, 36748.972445603904, 47901.77767297956, 36478.31517199459, 44820.12031318192, 24216.282274279867, 25038.804118490712, -3072.5154963154196, 150.82957158441207, -0.10571875, 0.9886874999999999, 0.253234375, 192.0, 0.0, 0.0, 0.0, 0.0, 0.0, 0.0, 0.0, 0.0, 0.0, 1.706882717740065E9, 0.0, 2024-02-02 15:05:17.740
98.0, 59924.80336723368, 63074.365326686544, -31305.00391781377, -2620.8314443625745, 17124.25257256658, 8289.010320783893, 28206.40393571901, 4935.667507131995, 36712.53910214175, 47880.14118434682, 36467.89925907842, 44817.03577244709, 24206.73807939745, 24995.061754591676, -3079.6680545411177, 156.5963216538813, -0.10571875, 0.9886874999999999, 0.253234375, 192.0, 0.0, 0.0, 0.0, 0.0, 0.0, 0.0, 0.0, 0.0, 0.0, 1.7068827177483044E9, 0.0, 2024-02-02 15:05:17.748
100.0, 59932.00062894829, 63079.059193022156, -31294.90092931997, -2616.5175576827, 17131.047502880992, 8295.604085398209, 28203.945243828923, 4938.394419955543, 36706.14650322754, 47886.13145186084, 36473.68836089234, 44823.853054505955, 24217.13164056917, 25011.42323153296, -3071.733185259484, 156.37280420932822, -0.10571875, 0.9886874999999999, 0.253234375, 192.0, 0.0, 0.0, 0.0, 0.0, 0.0, 0.0, 0.0, 0.0, 0.0, 1.7068827177560987E9, 0.0, 2024-02-02 15:05:17.756
102.0, 59934.77224526075, 63083.26132097976, -31293.135141508003, -2615.6905431378536, 17136.836604694916, 8295.69349237603, 28212.997700333322, 4940.6295944010735, 36702.72668632587, 47882.48811751463, 36479.29864875062, 44828.72573479721, 24221.71374818251, 25019.067528136675, -3065.1170689007126, 158.4962199325824, -0.10571875, 0.9886874999999999, 0.253234375, 192.0, 0.0, 0.0, 0.0, 0.0, 0.0, 0.0, 0.0, 0.0, 0.0, 1.7068827177651095E9, 0.0, 2024-02-02 15:05:17.765
104.0, 59929.72075101385, 63079.17095174443, -31297.292565976688, -2621.3455344850463, 17133.506194771075, 8292.184268496547, 28209.62258692057, 4938.036792044258, 36698.65866883501, 47892.0546641415, 36474.247154503726, 44828.77043828612, 24221.244361548946, 25026.17538287346, -3068.6486445246514, 161.26783624504046, -0.105859375, 0.98834375, 0.2546171875, 192.0, 126.0, 88.0, 15.0, 112.0, 4.0, 0.0, 0.0, 0.0, 0.0, 1.706882717772189E9, 0.0, 2024-02-02 15:05:17.772
106.0, 59931.8441667371, 63079.2380069778, -31299.2371677443, -2622.418418218901, 17129.862860424862, 8292.49719291892, 28201.307737983196, 4934.795789098238, 36694.724761810874, 47884.0527396265, 36471.564945169084, 44822.48959809418, 24218.472745236486, 25017.882885680545, -3071.8002404928498, 153.8470570858785, -0.105859375, 0.98834375, 0.2546171875, 192.0, 0.0, 0.0, 0.0, 0.0, 0.0, 0.0, 0.0, 0.0, 0.0, 1.7068827177804427E9, 0.0, 2024-02-02 15:05:17.780
108.0, 59933.85582373808, 63080.40029768948, -31298.43250494391, -2621.5243484406888, 17129.05819762447, 8288.965617294982, 28207.141543286034, 4932.9405943084475, 36702.79374155924, 47896.010922910085, 36476.83995686054, 44830.290356909085, 24223.770108672394, 25025.61658926208, -3072.6496067821513, 157.71390887664663, -0.105859375, 0.98834375, 0.2546171875, 192.0, 0.0, 0.0, 0.0, 0.0, 0.0, 0.0, 0.0, 0.0, 0.0, 1.7068827177891352E9, 0.0, 2024-02-02 15:05:17.789
110.0, 59931.95592545938, 63079.886207567004, -31301.025307300726, -2622.70899089682, 17127.91825865725, 8286.037538771336, 28205.934549085447, 4928.157320995012, 36697.60813684561, 47895.809757209994, 36468.52510792317, 44818.9803742147, 24211.297835266334, 25016.608836246593, -3084.3842726211874, 142.84999881386744, -0.105859375, 0.98834375, 0.2546171875, 192.0, 0.0, 0.0, 0.0, 0.0, 0.0, 0.0, 0.0, 0.0, 0.0, 1.706882717796148E9, 0.0, 2024-02-02 15:05:17.796
112.0, 59920.60123927608, 63068.95620452836, -31308.826066115627, -2627.4475607213453, 17119.983389375615, 8282.751832336406, 28197.127961770057, 4920.960059280403, 36701.78791305875, 47900.45892005669, 36471.34142772453, 44822.48959809418, 24214.784707401363, 25027.76235672979, -3076.2258858950004, 152.5506559074707, -0.105859375, 0.98834375, 0.2546171875, 192.0, 0.0, 0.0, 0.0, 0.0, 0.0, 0.0, 0.0, 0.0, 0.0, 1.7068827178042767E9, 0.0, 2024-02-02 15:05:17.804
114.0, 59917.71786424135, 63071.77252432973, -31311.217702772345, -2630.263880522714, 17118.955209130672, 8283.243570714423, 28195.96567105838, 4917.5625941231965, 36698.03281999026, 47910.58426029495, 36462.02075028667, 44819.315650381526, 24217.93630336956, 25022.867324694078, -3084.0936999432683, 148.32617620541768, -0.1029296875, 0.985171875, 0.25630859375000004, 192.0, 126.0, 112.0, 15.0, 88.0, 4.0, 8.0, 0.0, 0.0, 0.0, 1.7068827178124876E9, 0.0, 2024-02-02 15:05:17.812
116.0, 59918.96956193085, 63070.67728885142, -31309.496618449288, -2628.7663136442084, 17118.128194585825, 8288.540934150331, 28189.97540354436, 4918.479015645864, 36704.380715415566, 47924.84467325744, 36462.31132296459, 44813.839472989974, 24220.64086444865, 25029.03640616374, -3085.054824954847, 148.32617620541768, -0.1029296875, 0.985171875, 0.25630859375000004, 192.0, 0.0, 0.0, 0.0, 0.0, 0.0, 0.0, 0.0, 0.0, 0.0, 1.7068827178201768E9, 0.0, 2024-02-02 15:05:17.820
118.0, 59915.52739328473, 63064.41880040393, -31313.67639466243, -2637.8187701486077, 17110.506249726564, 8273.811134554284, 28187.96374654338, 4916.154434222512, 36712.09206725265, 47931.68430706076, 36458.98091304075, 44814.062990434526, 24223.300722038835, 25045.755511016312, -3087.401758122654, 143.09586800287582, -0.1029296875, 0.985171875, 0.25630859375000004, 192.0, 0.0, 0.0, 0.0, 0.0, 0.0, 0.0, 0.0, 0.0, 0.0, 1.7068827178281791E9, 0.0, 2024-02-02 15:05:17.828
120.0, 59921.51766079875, 63068.79974231718, -31305.115676536047, -2643.3172992846135, 17125.68308421172, 8288.160954494591, 28209.68964215394, 4936.539225165752, 36728.74411687185, 47949.29748169154, 36456.38811068393, 44809.369124098914, 24236.89058266766, 25066.29676417074, -3084.876010999204, 138.3125946894401, -0.1029296875, 0.985171875, 0.25630859375000004, 192.0, 0.0, 0.0, 0.0, 0.0, 0.0, 0.0, 0.0, 0.0, 0.0, 1.7068827178363783E9, 0.0, 2024-02-02 15:05:17.836
122.0, 59917.02496016324, 63065.89401553798, -31306.501484692275, -2630.129770055982, 17118.329360285923, 8298.59921915522, 28200.838351349637, 4934.281698975766, 36728.87822733858, 47930.07498145998, 36460.41142468589, 44802.037751917574, 24251.173347374603, 25050.605839563115, -3083.5125545874307, 147.65562387175845, -0.1029296875, 0.985171875, 0.25630859375000004, 192.0, 0.0, 0.0, 0.0, 0.0, 0.0, 0.0, 0.0, 0.0, 0.0, 1.706882717845268E9, 0.0, 2024-02-02 15:05:17.845
124.0, 59923.90929745547, 63076.399335431975, -31300.42181020043, -2626.844063621052, 17126.554802245475, 8303.494251190932, 28203.25233975081, 4940.40607695652, 36750.96175086043, 47994.380950257895, 36464.591200899034, 44819.15918817034, 24232.12966109868, 25077.450284653936, -3079.8692202412153, 154.27174023052936, -0.10546484375000001, 0.9905859375, 0.257154296875, 192.0, 126.0, 80.0, 15.5, 16.0, 4.0, 8.0, 0.0, 0.0, 0.0, 1.7068827178512607E9, 0.0, 2024-02-02 15:05:17.851
126.0, 59924.557498044676, 63074.90176855347, -31298.81248459965, -2591.125975981471, 17134.512023271564, 8299.269771488878, 28214.45056372292, 4948.296242749244, 36783.81881520973, 47978.77943262809, 36476.97406732727, 44829.999784231164, 24264.56204230333, 25043.319170870684, -3069.408603836132, 163.927693835222, -0.10546484375000001, 0.9905859375, 0.257154296875, 192.0, 0.0, 0.0, 0.0, 0.0, 0.0, 0.0, 0.0, 0.0, 0.0, 1.7068827178602335E9, 0.0, 2024-02-02 15:05:17.860
128.0, 59917.51669854125, 63066.98925101629, -31315.129258052024, -2624.5194821977, 17123.24674406609, 8279.153201479103, 28210.360194487595, 4936.6956873769395, 36772.35237030416, 48001.46645325023, 36458.26565721818, 44818.08630443648, 24291.786467049893, 25045.95667671641, -3079.533944074386, 148.25912097205173, -0.10546484375000001, 0.9905859375, 0.257154296875, 192.0, 0.0, 0.0, 0.0, 0.0, 0.0, 0.0, 0.0, 0.0, 0.0, 1.7068827178686345E9, 0.0, 2024-02-02 15:05:17.868
130.0, 59921.674123009936, 63073.65007086397, -31297.538435165698, -2629.973307844795, 17122.732653943618, 8302.130794779157, 28199.944281571425, 4929.788998340249, 36790.56904203523, 47980.187592528775, 36469.93326782385, 44823.00368821665, 24269.524129572408, 25073.20345320743, -3077.9022667291483, 143.0064610250546, -0.10546484375000001, 0.9905859375, 0.257154296875, 192.0, 0.0, 0.0, 0.0, 0.0, 0.0, 0.0, 0.0, 0.0, 0.0, 1.7068827178762856E9, 0.0, 2024-02-02 15:05:17.876
132.0, 59916.82379446314, 63069.02325976173, -31310.256577760767, -2620.0491333066384, 17125.23604932261, 8288.853858572706, 28208.929682842456, 4928.492597161841, 36803.913033475044, 47979.38292972838, 36467.11694802248, 44824.23303416169, 24255.21901312101, 25021.749737471313, -3072.068461426313, 152.7965250964791, -0.10546484375000001, 0.9905859375, 0.257154296875, 192.0, 0.0, 0.0, 0.0, 0.0, 0.0, 0.0, 0.0, 0.0, 0.0, 1.7068827178843164E9, 0.0, 2024-02-02 15:05:17.884
134.0, 59913.202811861374, 63064.57526261512, -31315.10690630757, -2641.7526771727416, 17118.888153897304, 8285.411689926588, 28199.76546761578, 4924.558690137707, 36811.78084752332, 47977.90771459433, 36454.19763972731, 44808.51975780961, 24263.55621380284, 25034.400824833017, -3082.551429575852, 144.39226918128364, -0.10546484375000001, 0.9905859375, 0.257154296875, 192.0, 0.0, 0.0, 0.0, 0.0, 0.0, 0.0, 0.0, 0.0, 0.0, 1.7068827178924062E9, 0.0, 2024-02-02 15:05:17.892
136.0, 59919.70716949787, 63071.72782084082, -31318.616130187052, -2627.492264210256, 17133.573250004443, 8289.122079506169, 28215.8587236236, 4938.126199022079, 36790.18906237949, 47974.44319420376, 36458.82445082956, 44815.40409510185, 24306.248045712477, 25028.47761255236, -3080.137441174679, 143.22997846960766, -0.106, 0.988, 0.256, 192.0, 126.0, 88.0, 15.0, 112.0, 4.0, 0.0, 0.0, 0.0, 0.0, 1.7068827179005852E9, 0.0, 2024-02-02 15:05:17.900
138.0, 59916.510870040765, 63070.163198728944, -31317.789115642205, -2626.933470598873, 17114.171935817234, 8285.009358526393, 28195.876264080558, 4931.30891696321, 36821.14622845009, 47985.26143852013, 36458.846802574015, 44814.46532183472, 24285.639737324684, 25070.58829910616, -3082.3502638757545, 141.93357729119984, -0.106, 0.988, 0.256, 192.0, 0.0, 0.0, 0.0, 0.0, 0.0, 0.0, 0.0, 0.0, 0.0, 1.7068827179073029E9, 0.0, 2024-02-02 15:05:17.907
140.0, 59922.21056487686, 63078.366288944046, -31297.493731676786, -2630.71091541182, 17130.82398543644, 8294.464146430988, 28223.43596499395, 4950.8443416171485, 36787.81977746723, 47961.814458586516, 36467.72044512277, 44816.991068958174, 24268.160673160633, 25046.738987772347, -3084.8313075102938, 146.40392618226127, -0.106, 0.988, 0.256, 192.0, 0.0, 0.0, 0.0, 0.0, 0.0, 0.0, 0.0, 0.0, 0.0, 1.7068827179163177E9, 0.0, 2024-02-02 15:05:17.916
142.0, 59924.66925676695, 63082.546065157185, -31296.174978753923, -2609.4991099237336, 17140.68110474123, 8307.74108263744, 28226.274636539776, 4958.041603331757, 36796.11227466015, 47988.45773797724, 36470.7602823687, 44821.5284730826, 24265.009077192437, 25042.80508074821, -3066.9946154349586, 153.78000185251258, -0.106, 0.988, 0.256, 192.0, 0.0, 0.0, 0.0, 0.0, 0.0, 0.0, 0.0, 0.0, 0.0, 1.706882717924472E9, 0.0, 2024-02-02 15:05:17.924
144.0, 59917.44964330789, 63074.74530634229, -31312.983490584316, -2627.514615954711, 17121.793880676494, 8296.051120287315, 28208.326185742164, 4947.133952037568, 36789.40675132356, 47965.83777258847, 36460.053796774606, 44811.85016773346, 24263.578565547297, 25032.232705620852, -3082.3502638757545, 144.79460058147916, -0.106, 0.988, 0.256, 192.0, 0.0, 0.0, 0.0, 0.0, 0.0, 0.0, 0.0, 0.0, 0.0, 1.7068827179313707E9, 0.0, 2024-02-02 15:05:17.931
146.0, 59922.456434065876, 63073.739477841795, -31312.67056616194, -2622.776046130186, 17127.582982490418, 8289.323245206268, 28210.11432529859, 4949.033850316268, 36791.932498447, 47941.049687987535, 36459.56205839659, 44804.429388574295, 24266.03725743738, 25018.553438014205, -3087.6029238227516, 144.3028622034624, -0.10400000000000001, 0.994, 0.25, 192.0, 126.0, 96.0, 15.5, 8.0, 3.5, 104.0, 0.0, 0.0, 0.0, 1.7068827179403536E9, 0.0, 2024-02-02 15:05:17.940
148.0, 59915.41563456245, 63070.185550473405, -31333.16711582746, -2651.2745203107024, 17121.704473698675, 8279.175553223557, 28207.320357241675, 4946.239882259355, 36775.50396627235, 47942.793124055046, 36448.363834424475, 44803.31180135153, 24269.121798172215, 25013.792516445224, -3092.274438413911, 141.75476333555739, -0.10400000000000001, 0.994, 0.25, 192.0, 0.0, 0.0, 0.0, 0.0, 0.0, 0.0, 0.0, 0.0, 0.0, 1.706882717948377E9, 0.0, 2024-02-02 15:05:17.948
150.0, 59924.401035833485, 63077.24870172128, -31305.316842236145, -2621.2337757627697, 17121.458604509666, 8288.943265550526, 28211.634243921548, 4953.3700887405985, 36798.99564969488, 47943.754249066624, 36461.03727353064, 44795.958077425734, 24282.689307056586, 25052.170461674985, -3096.0518832268576, 132.07645798640942, -0.10400000000000001, 0.994, 0.25, 192.0, 0.0, 0.0, 0.0, 0.0, 0.0, 0.0, 0.0, 0.0, 0.0, 1.7068827179565127E9, 0.0, 2024-02-02 15:05:17.956
152.0, 59920.4447770649, 63069.35853592856, -31314.63751967401, -2641.1491800724484, 17123.090281854904, 8291.245495229423, 28209.91315959849, 4948.810332871715, 36803.71186777495, 47897.419082810775, 36461.61841888648, 44806.239879875175, 24223.680701694575, 25018.776955458758, -3087.5582203338413, 149.10848726135342, -0.10400000000000001, 0.994, 0.25, 192.0, 0.0, 0.0, 0.0, 0.0, 0.0, 0.0, 0.0, 0.0, 0.0, 1.706882717963418E9, 0.0, 2024-02-02 15:05:17.963
154.0, 59921.22708812083, 63076.24287322079, -31330.507258237274, -2651.743906944264, 17119.446947508688, 8283.511791647887, 28207.81209561969, 4939.6908211339505, 36777.31445757323, 47875.0002831221, 36446.68745359033, 44790.45954828973, 24235.28125706688, 25031.33863584264, -3095.6719035711176, 136.77032432202392, -0.10400000000000001, 0.994, 0.25, 192.0, 0.0, 0.0, 0.0, 0.0, 0.0, 0.0, 0.0, 0.0, 0.0, 1.7068827179724057E9, 0.0, 2024-02-02 15:05:17.972
156.0, 59915.61680026255, 63070.72199234033, -31340.610246731074, -2626.1064560540267, 17116.18359281821, 8291.826640585261, 28208.929682842456, 4943.177693268978, 36781.069550641725, 47876.18492557823, 36448.2520757022, 44804.94347869676, 24201.37366072818, 25023.29200783873, -3097.370636149721, 138.44670515617196, -0.108, 0.988, 0.252, 192.0, 126.0, 80.0, 15.0, 112.0, 3.5, 112.0, 0.0, 0.0, 0.0, 1.7068827179805949E9, 0.0, 2024-02-02 15:05:17.980
158.0, 59934.48167258283, 63089.69862338289, -31314.05637431817, -2640.657441694432, 17131.069854625446, 8283.891771303626, 28215.746964901326, 4951.537245695263, 36771.16772784802, 47863.24326553861, 36447.26859894617, 44797.835623959974, 24255.442530565564, 24991.7983999012, -3097.9741332500143, 149.6672808727361, -0.108, 0.988, 0.252, 192.0, 0.0, 0.0, 0.0, 0.0, 0.0, 0.0, 0.0, 0.0, 0.0, 1.7068827179874246E9, 0.0, 2024-02-02 15:05:17.987
160.0, 59940.896623241504, 63099.08635605411, -31294.029211286215, -2615.8246536045854, 17135.026113394037, 8310.199774527524, 28218.1609533025, 4957.683975420472, 36785.87517569961, 47851.91093109977, 36468.88273583445, 44817.348696869456, 24194.69048913604, 25036.948923700922, -3082.439670853576, 148.3708796943283, -0.108, 0.988, 0.252, 192.0, 0.0, 0.0, 0.0, 0.0, 0.0, 0.0, 0.0, 0.0, 0.0, 1.7068827179954612E9, 0.0, 2024-02-02 15:05:17.995
162.0, 59938.08030344013, 63098.63932116501, -31313.63169117352, -2652.0791831110937, 17124.498441755586, 8276.49334388892, 28207.320357241675, 4942.775361868783, 36769.93838190298, 47823.05482900797, 36465.86525033299, 44813.28067937859, 24192.92470132407, 25030.28810385324, -3077.499935328953, 149.734336106102, -0.108, 0.988, 0.252, 192.0, 0.0, 0.0, 0.0, 0.0, 0.0, 0.0, 0.0, 0.0, 0.0, 1.70688271800478E9, 0.0, 2024-02-02 15:05:18.004
164.0, 59922.52348929924, 63083.4401349354, -31330.149630325992, -2652.4815145112893, 17112.026168349526, 8280.337843935233, 28198.513769926285, 4932.806483841716, 36734.734384385876, 47845.89831184129, 36442.708843077286, 44799.2214321162, 24180.16185524009, 25004.829466918643, -3101.4163018961317, 126.06383872793184, -0.108, 0.988, 0.252, 192.0, 0.0, 0.0, 0.0, 0.0, 0.0, 0.0, 0.0, 0.0, 0.0, 1.7068827180125377E9, 0.0, 2024-02-02 15:05:18.012
166.0, 59933.408788848974, 63086.54702741469, -31310.10011554958, -2633.2143107908146, 17116.094185840393, 8297.124004021169, 28201.553607172205, 4938.014440299802, 36709.52161664029, 47808.41443638974, 36455.53874439463, 44798.573231527, 24190.93539606755, 24993.72064992436, -3091.715644802528, 136.993841766577, -0.112, 0.98, 0.252, 192.0, 126.0, 64.0, 15.0, 80.0, 3.5, 112.0, 0.0, 0.0, 0.0, 1.706882718019539E9, 0.0, 2024-02-02 15:05:18.019
168.0, 59929.34077135811, 63092.04555655069, -31318.258502275767, -2636.678831181387, 17124.18551733321, 8289.993797539926, 28194.803380346704, 4935.511044920808, 36677.58097381365, 47825.9382040427, 36455.67285486136, 44803.356504840434, 24174.663326104084, 25009.836257676634, -3089.7710430349166, 134.93748127668874, -0.112, 0.98, 0.252, 192.0, 0.0, 0.0, 0.0, 0.0, 0.0, 0.0, 0.0, 0.0, 0.0, 1.7068827180285263E9, 0.0, 2024-02-02 15:05:18.028
170.0, 59929.58664054712, 63086.79289660369, -31317.05150807518, -2642.4232295064007, 17118.262305052558, 8285.098765504214, 28196.52446466976, 4933.655850131017, 36615.13019980553, 47815.11995972633, 36443.602912855495, 44799.310839094025, 24187.649689632617, 24988.55739695518, -3098.845851283771, 134.51279813203791, -0.112, 0.98, 0.252, 192.0, 0.0, 0.0, 0.0, 0.0, 0.0, 0.0, 0.0, 0.0, 0.0, 1.7068827180368102E9, 0.0, 2024-02-02 15:05:18.036
172.0, 59933.31938187115, 63093.67723389593, -31313.43052547342, -2641.260938794725, 17132.3439040594, 8277.342710178222, 28206.046307807723, 4938.953213566925, 36622.930958620425, 47800.233697919095, 36463.71948286527, 44802.50713855113, 24166.795512055818, 24995.821713903155, -3080.4503655970534, 144.23580697009646, -0.112, 0.98, 0.252, 192.0, 0.0, 0.0, 0.0, 0.0, 0.0, 0.0, 0.0, 0.0, 0.0, 1.7068827180435414E9, 0.0, 2024-02-02 15:05:18.043
174.0, 59933.7440650158, 63096.22533276383, -31299.05835378866, -2631.3814677454793, 17123.917296399748, 8296.788727854339, 28189.260147721787, 4936.427466443475, 36567.11865271552, 47799.674904307714, 36460.389072941434, 44804.94347869676, 24153.49622410491, 24995.464085991873, -3090.4192436241206, 139.69840284566914, -0.112, 0.98, 0.252, 192.0, 0.0, 0.0, 0.0, 0.0, 0.0, 0.0, 0.0, 0.0, 0.0, 1.7068827180515351E9, 0.0, 2024-02-02 15:05:18.051
176.0, 59940.896623241504, 63111.33511201562, -31296.174978753923, -2619.199767017337, 17135.696665727697, 8303.11427153519, 28215.59050269014, 4952.565425940207, 36512.84861717804, 47799.183165929695, 36466.71461662229, 44813.370086356415, 24149.83053801424, 25013.18901934493, -3080.875048741704, 149.86844657283385, -0.11, 0.982, 0.25, 192.0, 126.0, 72.0, 15.0, 88.0, 3.5, 104.0, 0.0, 0.0, 0.0, 1.706882718060935E9, 0.0, 2024-02-02 15:05:18.060
178.0, 59934.41461734947, 63113.1456033165, -31306.076801547624, -2630.934432856373, 17127.2924098125, 8294.732367364451, 28204.682851395948, 4945.099943292134, 36474.00128531471, 47806.71570381114, 36466.066416033085, 44818.600394558955, 24164.73915156593, 25009.500981509806, -3074.2589323829334, 157.37863270981703, -0.11, 0.982, 0.25, 192.0, 0.0, 0.0, 0.0, 0.0, 0.0, 0.0, 0.0, 0.0, 0.0, 1.7068827180675673E9, 0.0, 2024-02-02 15:05:18.067
180.0, 59928.53610855772, 63117.63830395202, -31315.4421824744, -2668.9547501748502, 17115.110709084358, 8280.270788701868, 28189.461313421885, 4930.034867529258, 36394.38437156491, 47787.00146520155, 36457.237476973234, 44802.48478680668, 24154.21147992748, 25027.85176370761, -3087.379406378199, 139.72075459012444, -0.11, 0.982, 0.25, 192.0, 0.0, 0.0, 0.0, 0.0, 0.0, 0.0, 0.0, 0.0, 0.0, 1.706882718075568E9, 0.0, 2024-02-02 15:05:18.075
182.0, 59935.35339061659, 63131.4516820254, -31309.5413219382, -2616.495205938245, 17117.457642252164, 8293.950056308515, 28194.378697202053, 4937.299184477232, 36376.838252167494, 47788.20845940214, 36461.39490144192, 44802.529490295594, 24143.527346077844, 25012.943150155923, -3090.8439267687713, 132.41173415323905, -0.11, 0.982, 0.25, 192.0, 0.0, 0.0, 0.0, 0.0, 0.0, 0.0, 0.0, 0.0, 0.0, 1.7068827180845995E9, 0.0, 2024-02-02 15:05:18.084
184.0, 59941.2989546417, 63142.940478675424, -31307.19438877039, -2629.5039212112333, 17118.4411190082, 8286.529277149353, 28195.11630476908, 4933.924071064481, 36357.548696702564, 47788.633142546794, 36465.015884043685, 44818.48863583668, 24147.01421821287, 24992.446600490406, -3091.335665146788, 141.08421100189818, -0.11, 0.982, 0.25, 192.0, 0.0, 0.0, 0.0, 0.0, 0.0, 0.0, 0.0, 0.0, 0.0, 1.7068827180925736E9, 0.0, 2024-02-02 15:05:18.092
186.0, 59943.73529478733, 63146.18148162145, -31303.863978846548, -2632.2531857792364, 17124.81136617796, 8289.2561899729, 28199.564301915685, 4936.002783298824, 36338.01327204863, 47775.64677901826, 36468.9050875789, 44815.85112999095, 24148.668247302565, 25006.9528826419, -3089.055787212347, 137.21735921113006, -0.10400000000000001, 0.986, 0.252, 192.0, 126.0, 96.0, 15.0, 104.0, 3.5, 112.0, 0.0, 0.0, 0.0, 1.7068827180998282E9, 0.0, 2024-02-02 15:05:18.099
188.0, 59931.754759759286, 63138.24661233981, -31313.18465628441, -2641.4174010059123, 17116.652979451774, 8275.375756666155, 28189.86364482208, 4925.519815149286, 36326.43506842078, 47769.65651150424, 36463.965352054285, 44813.48184507869, 24150.76931128136, 25006.86347566408, -3089.972208735014, 134.73631557659098, -0.10400000000000001, 0.986, 0.252, 192.0, 0.0, 0.0, 0.0, 0.0, 0.0, 0.0, 0.0, 0.0, 0.0, 1.7068827181076202E9, 0.0, 2024-02-02 15:05:18.107
190.0, 59932.782940004225, 63141.06293214118, -31314.034022573713, -2640.4115725054235, 17110.282732282012, 8276.649806100108, 28190.265976222276, 4926.726809349872, 36316.600300860446, 47758.234770087576, 36455.09170950553, 44807.20100488675, 24144.890802489615, 24992.491303979317, -3094.1519849481565, 129.34954516286197, -0.10400000000000001, 0.986, 0.252, 192.0, 0.0, 0.0, 0.0, 0.0, 0.0, 0.0, 0.0, 0.0, 0.0, 1.7068827181167936E9, 0.0, 2024-02-02 15:05:18.116
192.0, 59937.38739936202, 63149.109560145094, -31302.209949756856, -2630.1074183115265, 17128.38764529081, 8290.127908006658, 28201.285386238742, 4939.2661379893, 36325.406888175836, 47754.390270041265, 36457.25982871769, 44810.75493225514, 24149.249392658403, 25014.66423447898, -3093.950819248059, 134.57985336540384, -0.10400000000000001, 0.986, 0.252, 192.0, 0.0, 0.0, 0.0, 0.0, 0.0, 0.0, 0.0, 0.0, 0.0, 1.7068827181236277E9, 0.0, 2024-02-02 15:05:18.123
194.0, 59935.26398363877, 63146.42735081045, -31302.43346720141, -2637.5729009595993, 17122.978523132628, 8272.626492098152, 28196.926796069958, 4933.164111753001, 36337.43212669279, 47754.993767141554, 36458.98091304075, 44810.73258051069, 24144.82374725625, 25045.062606938198, -3084.8313075102938, 134.95983302114405, -0.10400000000000001, 0.986, 0.252, 192.0, 0.0, 0.0, 0.0, 0.0, 0.0, 0.0, 0.0, 0.0, 0.0, 1.7068827181317785E9, 0.0, 2024-02-02 15:05:18.131
196.0, 59941.34365813061, 63154.764551492284, -31294.878577575517, -2619.2221187617924, 17124.18551733321, 8306.869364603683, 28195.853912336104, 4941.7471816238385, 36361.95199036026, 47765.47673529109, 36464.05475903211, 44817.46045559174, 24148.78000602484, 25019.268693836773, -3082.8643539982268, 142.06768775793168, -0.108, 0.988, 0.25, 192.0, 126.0, 80.0, 15.0, 112.0, 3.5, 104.0, 0.0, 0.0, 0.0, 1.7068827181397064E9, 0.0, 2024-02-02 15:05:18.139
198.0, 59935.643963294504, 63153.89283345853, -31300.84649334508, -2637.0811625815827, 17116.272999796034, 8291.424309185066, 28180.92294703996, 4931.443027429942, 36390.271650585135, 47762.50395327854, 36465.440567188336, 44813.05716193404, 24157.564241595777, 25027.67294975197, -3084.3619208767323, 146.69449886018026, -0.108, 0.988, 0.25, 192.0, 0.0, 0.0, 0.0, 0.0, 0.0, 0.0, 0.0, 0.0, 0.0, 1.7068827181490953E9, 0.0, 2024-02-02 15:05:18.149
200.0, 59937.968544717856, 63153.445798569424, -31300.131237522513, -2641.1715318169036, 17121.570363231942, 8287.557457394298, 28191.785894845238, 4929.163149495501, 36416.57965380903, 47755.3737467973, 36453.99647402722, 44805.21169963023, 24143.504994333387, 25034.981970188855, -3094.5766680928077, 129.97539400761056, -0.108, 0.988, 0.25, 192.0, 0.0, 0.0, 0.0, 0.0, 0.0, 0.0, 0.0, 0.0, 0.0, 1.70688271815569E9, 0.0, 2024-02-02 15:05:18.155
202.0, 59942.81887326466, 63165.24751964182, -31297.940766565895, -2620.160892028915, 17118.888153897304, 8293.16774525258, 28185.125074997555, 4926.97267853888, 36472.771939369675, 47767.801316714445, 36467.42987244485, 44818.82391200351, 24165.49911087741, 25038.893525468535, -3085.747729032961, 139.63134761230322, -0.108, 0.988, 0.25, 192.0, 0.0, 0.0, 0.0, 0.0, 0.0, 0.0, 0.0, 0.0, 0.0, 1.706882718163938E9, 0.0, 2024-02-02 15:05:18.163
204.0, 59940.42723660794, 63160.285432372744, -31299.14776076648, -2624.8994618534402, 17118.15054633028, 8288.786803339339, 28187.740229098825, 4922.837605814649, 36526.08084989558, 47764.850886446344, 36461.998398542215, 44818.91331898133, 24168.06956148977, 25023.96256017239, -3091.983865735992, 145.9121878042445, -0.108, 0.988, 0.25, 192.0, 0.0, 0.0, 0.0, 0.0, 0.0, 0.0, 0.0, 0.0, 0.0, 1.7068827181718683E9, 0.0, 2024-02-02 15:05:18.171
206.0, 59928.49140506881, 63147.41082756649, -31327.757993669275, -2674.0285961662053, 17102.95136010067, 8257.986099479926, 28177.01139176028, 4909.180689952456, 36536.56381804512, 47755.10552586383, 36454.801136827606, 44806.88808046438, 24183.156988997103, 25046.9625052169, -3099.1587757061457, 128.2096061956413, -0.106, 0.986, 0.256, 192.0, 126.0, 88.0, 15.0, 104.0, 4.0, 0.0, 0.0, 0.0, 0.0, 1.7068827181797383E9, 0.0, 2024-02-02 15:05:18.179
208.0, 59938.48263484033, 63156.88796721554, -31290.20706298436, -2629.928604355884, 17120.877459153828, 8297.861611588194, 28179.783008072736, 4917.87551854557, 36616.94069110641, 47766.46021204713, 36448.52029663567, 44788.693760477756, 24173.568090625777, 25045.509641827302, -3105.6407815981847, 114.03860021097664, -0.106, 0.986, 0.256, 192.0, 0.0, 0.0, 0.0, 0.0, 0.0, 0.0, 0.0, 0.0, 0.0, 1.7068827181878066E9, 0.0, 2024-02-02 15:05:18.187
210.0, 59939.26494589626, 63156.59739453762, -31300.734734622805, -2647.072392353105, 17113.94841837268, 8288.764451594883, 28178.173682471956, 4919.998934268825, 36685.20291867291, 47791.74003502608, 36469.37447421247, 44828.59162433048, 24170.148273724113, 25021.727385726856, -3086.8876680001817, 145.2639872150406, -0.106, 0.986, 0.256, 192.0, 0.0, 0.0, 0.0, 0.0, 0.0, 0.0, 0.0, 0.0, 0.0, 1.7068827181957376E9, 0.0, 2024-02-02 15:05:18.195
212.0, 59938.41557960696, 63156.77620849326, -31300.779438111716, -2614.885880337463, 17119.223430064136, 8283.556495136798, 28185.840330820123, 4919.082512746157, 36693.02602923227, 47781.68175002119, 36451.8060030706, 44808.45270257625, 24167.68958183403, 25020.60979850409, -3103.919697275126, 122.04052472597657, -0.106, 0.986, 0.256, 192.0, 0.0, 0.0, 0.0, 0.0, 0.0, 0.0, 0.0, 0.0, 0.0, 1.706882718205035E9, 0.0, 2024-02-02 15:05:18.205
214.0, 59936.67214353945, 63154.429275325456, -31318.549074953688, -2640.4786277387893, 17108.472240981133, 8274.146410721112, 28180.565319128673, 4909.963001008392, 36719.13286675607, 47779.29011336448, 36457.19277348433, 44814.86765323492, 24217.109288824715, 25005.343557041117, -3097.102415216257, 142.04533601347637, -0.106, 0.986, 0.256, 192.0, 0.0, 0.0, 0.0, 0.0, 0.0, 0.0, 0.0, 0.0, 0.0, 1.7068827182107508E9, 0.0, 2024-02-02 15:05:18.210
216.0, 59937.78973076222, 63159.21254863889, -31305.62976665852, -2646.6700609529094, 17110.640360193298, 8281.477782902453, 28179.201862716898, 4912.8687277875815, 36712.3155846972, 47770.952912682646, 36457.57275314006, 44808.22918513169, 24155.86550901717, 25000.001490116298, -3096.8341942827933, 130.46713238562734, -0.10200000000000001, 0.978, 0.256, 192.0, 126.0, 104.0, 15.0, 72.0, 4.0, 0.0, 0.0, 0.0, 0.0, 1.706882718219812E9, 0.0, 2024-02-02 15:05:18.219
218.0, 59946.43985586642, 63166.8121417537, -31299.952423566872, -2651.721555199809, 17118.977560875126, 8262.791724537818, 28186.04149652022, 4914.232184199355, 36738.71299489892, 47779.53598255348, 36450.44254665882, 44805.97165894171, 24171.73524758044, 25085.63102312458, -3100.94691526257, 128.12019921782007, -0.10200000000000001, 0.978, 0.256, 192.0, 0.0, 0.0, 0.0, 0.0, 0.0, 0.0, 0.0, 0.0, 0.0, 1.7068827182278602E9, 0.0, 2024-02-02 15:05:18.227
220.0, 59948.652678567494, 63168.53322607675, -31288.62008912803, -2613.5671274145993, 17122.442081265697, 8307.83048961526, 28192.657612878993, 4929.5431291512405, 36781.5836407642, 47792.52234608202, 36475.275334748665, 44828.323403397015, 24179.17837848406, 25018.15110661401, -3082.75259527595, 145.44280117068305, -0.10200000000000001, 0.978, 0.256, 192.0, 0.0, 0.0, 0.0, 0.0, 0.0, 0.0, 0.0, 0.0, 0.0, 1.706882718236136E9, 0.0, 2024-02-02 15:05:18.236
222.0, 59952.60893733608, 63171.751877278315, -31291.458760673853, -2635.0471538361494, 17122.240915565602, 8301.437890701043, 28187.62847037655, 4934.616975142596, 36765.91506790103, 47785.03451168949, 36468.9050875789, 44828.815141775034, 24181.12298025167, 25007.623434975558, -3093.0343977253915, 151.9471588071774, -0.10200000000000001, 0.978, 0.256, 192.0, 0.0, 0.0, 0.0, 0.0, 0.0, 0.0, 0.0, 0.0, 0.0, 1.706882718243811E9, 0.0, 2024-02-02 15:05:18.243
224.0, 59953.547710603205, 63172.042449956236, -31285.267327459733, -2616.808130360619, 17118.038787608002, 8292.45248943001, 28188.27667096575, 4935.9357280654585, 36777.783844206795, 47799.809014774444, 36475.09652079303, 44821.37201087141, 24190.93539606755, 25039.42996733546, -3096.521269860419, 146.62744362681434, -0.10200000000000001, 0.978, 0.256, 192.0, 0.0, 0.0, 0.0, 0.0, 0.0, 0.0, 0.0, 0.0, 0.0, 1.706882718251838E9, 0.0, 2024-02-02 15:05:18.251
226.0, 59956.833417038135, 63174.56819707969, -31280.416998912933, -2620.2502990067364, 17132.165090103757, 8295.69349237603, 28201.263034494288, 4940.473132189886, 36791.977201935915, 47780.85473547634, 36477.734026638755, 44830.916205753834, 24191.74005886794, 25021.168592115475, -3078.0587289403356, 154.80818209745672, -0.106, 0.984, 0.246, 192.0, 126.0, 88.0, 15.0, 96.0, 3.5, 88.0, 0.0, 0.0, 0.0, 1.7068827182610843E9, 0.0, 2024-02-02 15:05:18.261
228.0, 59942.86357675357, 63163.19115915194, -31310.591853927595, -2654.1131918565266, 17106.438232235698, 8279.175553223557, 28179.87241505056, 4924.35752443761, 36756.79555616326, 47784.028683189, 36462.53484040914, 44813.39243810087, 24195.338689725246, 25025.77305147327, -3102.109205974246, 133.2163969536301, -0.106, 0.984, 0.246, 192.0, 0.0, 0.0, 0.0, 0.0, 0.0, 0.0, 0.0, 0.0, 0.0, 1.7068827182668557E9, 0.0, 2024-02-02 15:05:18.266
230.0, 59943.04239070921, 63164.286394630246, -31297.516083421244, -2620.9655548293063, 17116.76473817405, 8282.014224769382, 28183.739266841327, 4925.788036082749, 36740.47878271089, 47764.76147946853, 36455.27052346117, 44810.79963574406, 24142.007427454882, 25024.81192646169, -3097.9517815055588, 136.52445513301555, -0.106, 0.984, 0.246, 192.0, 0.0, 0.0, 0.0, 0.0, 0.0, 0.0, 0.0, 0.0, 0.0, 1.70688271827588E9, 0.0, 2024-02-02 15:05:18.275
232.0, 59950.53022510174, 63175.194045924436, -31282.071028002625, -2625.2123862758144, 17134.15439536028, 8298.06277728829, 28211.76835438828, 4950.062030561213, 36762.91993414402, 47787.47085183512, 36466.8040236001, 44821.886100993885, 24187.202654743513, 25015.066565879177, -3082.9537609760478, 146.33687094889535, -0.106, 0.984, 0.246, 192.0, 0.0, 0.0, 0.0, 0.0, 0.0, 0.0, 0.0, 0.0, 0.0, 1.7068827182838893E9, 0.0, 2024-02-02 15:05:18.283
234.0, 59941.880099997536, 63164.66637428598, -31283.14391173648, -2629.3698107445016, 17124.58784873341, 8271.26303568638, 28195.608043147095, 4938.2156059999, 36721.34568945714, 47781.16765989872, 36468.34629396752, 44822.601356816456, 24165.990849255428, 25024.297836339218, -3080.0033307079475, 147.25329247156293, -0.106, 0.984, 0.246, 192.0, 0.0, 0.0, 0.0, 0.0, 0.0, 0.0, 0.0, 0.0, 0.0, 1.7068827182918975E9, 0.0, 2024-02-02 15:05:18.291
236.0, 59944.00351572079, 63165.22516789737, -31302.254653245767, -2631.001488089739, 17114.14958407278, 8285.92578004906, 28189.28249946624, 4935.98043155437, 36691.439055375944, 47759.285302076976, 36467.34046546704, 44820.992031215676, 24190.957747812005, 25015.223028090364, -3088.0276069674023, 142.42531566921662, -0.10400000000000001, 0.988, 0.249, 192.0, 126.0, 104.0, 15.5, 0.0, 3.5, 112.0, 0.0, 0.0, 0.0, 1.706882718300217E9, 0.0, 2024-02-02 15:05:18.300
238.0, 59939.44375985191, 63164.08522893015, -31291.05642927366, -2656.3483663020575, 17121.34684578739, 8290.843163829228, 28189.595423888615, 4932.270041974788, 36652.703482234894, 47768.6730347482, 36455.96342753928, 44813.95123171225, 24157.74305555142, 25035.026673677767, -3109.0158950109358, 125.9520800056553, -0.10400000000000001, 0.988, 0.249, 192.0, 0.0, 0.0, 0.0, 0.0, 0.0, 0.0, 0.0, 0.0, 0.0, 1.7068827183079567E9, 0.0, 2024-02-02 15:05:18.307
240.0, 59948.27269891175, 63173.54001683474, -31284.57442338162, -2608.2250604897813, 17130.511061014065, 8296.252285987412, 28200.324261227164, 4945.189350269956, 36639.58300823963, 47784.27455237801, 36466.5581544111, 44830.67033656482, 24138.96759020896, 25019.782783959246, -3078.282246384889, 150.6284058843143, -0.10400000000000001, 0.988, 0.249, 192.0, 0.0, 0.0, 0.0, 0.0, 0.0, 0.0, 0.0, 0.0, 0.0, 1.706882718314988E9, 0.0, 2024-02-02 15:05:18.314
242.0, 59942.014210464265, 63165.113409175094, -31303.014612557246, -2636.656479436932, 17121.48095625412, 8290.194963240023, 28196.032726291745, 4937.8132745997045, 36621.63455744202, 47761.69929047815, 36467.653389889405, 44828.52456909711, 24182.061753518792, 25028.924647441465, -3082.9314092315926, 145.6216151263255, -0.10400000000000001, 0.988, 0.249, 192.0, 0.0, 0.0, 0.0, 0.0, 0.0, 0.0, 0.0, 0.0, 0.0, 1.7068827183230448E9, 0.0, 2024-02-02 15:05:18.323
244.0, 59944.40584712099, 63168.9132057325, -31285.04381001518, -2620.4067612179233, 17122.978523132628, 8290.954922551504, 28192.076467523155, 4938.908510078015, 36605.47424620083, 47780.16183139823, 36466.53580266664, 44830.60328133146, 24160.604078841698, 25021.682682237948, -3089.055787212347, 145.01811802603223, -0.10400000000000001, 0.988, 0.249, 192.0, 0.0, 0.0, 0.0, 0.0, 0.0, 0.0, 0.0, 0.0, 0.0, 1.706882718332153E9, 0.0, 2024-02-02 15:05:18.332
246.0, 59940.02490520775, 63166.722734775874, -31283.032153014203, -2628.296927010647, 17121.05627310947, 8286.417518427077, 28192.85877857909, 4938.148550766534, 36611.039830570204, 47763.59918875685, 36466.8040236001, 44821.461417849234, 24146.522479834854, 25030.556324786703, -3092.94499074757, 137.0608969999429, -0.10700000000000001, 0.991, 0.2465, 192.0, 126.0, 72.0, 15.5, 8.0, 3.5, 80.0, 0.0, 0.0, 0.0, 1.7068827183400187E9, 0.0, 2024-02-02 15:05:18.340
248.0, 59940.02490520775, 63166.11923767558, -31286.183748982403, -2624.228909519781, 17120.318665542443, 8288.943265550526, 28198.33495597064, 4942.104809535123, 36573.86887954103, 47784.20749714464, 36469.41917770138, 44832.12319995442, 24149.83053801424, 25017.055871135697, -3084.6524935546513, 149.64492912828078, -0.10700000000000001, 0.991, 0.2465, 192.0, 0.0, 0.0, 0.0, 0.0, 0.0, 0.0, 0.0, 0.0, 0.0, 1.706882718347011E9, 0.0, 2024-02-02 15:05:18.347
250.0, 59934.9957627053, 63156.61974628208, -31293.224548485825, -2627.8945956104512, 17120.832755664916, 8284.294102703823, 28195.04924953571, 4937.83562634416, 36568.03507423819, 47772.53988653897, 36465.708788121796, 44822.735467283186, 24150.41168337008, 25009.411574531983, -3088.139365689679, 146.71685060463557, -0.10700000000000001, 0.991, 0.2465, 192.0, 0.0, 0.0, 0.0, 0.0, 0.0, 0.0, 0.0, 0.0, 0.0, 1.7068827183553982E9, 0.0, 2024-02-02 15:05:18.355
252.0, 59937.879137740034, 63158.78786549424, -31296.465551431844, -2637.684659681876, 17122.240915565602, 8281.410727669088, 28192.76937160127, 4937.656812388517, 36549.527829829196, 47771.377595827296, 36466.98283755575, 44823.94246148378, 24155.06084621678, 25016.675891479957, -3083.825479009805, 147.54386514948192, -0.10700000000000001, 0.991, 0.2465, 192.0, 0.0, 0.0, 0.0, 0.0, 0.0, 0.0, 0.0, 0.0, 0.0, 1.706882718364276E9, 0.0, 2024-02-02 15:05:18.364
254.0, 59924.758663744775, 63148.46135955589, -31310.97183358334, -2645.4407150078673, 17109.63453169281, 8269.229026940946, 28185.952089542403, 4924.245765715333, 36527.019623162705, 47770.461174304626, 36450.62136061447, 44811.02315318861, 24150.2999246478, 25015.491249023828, -3102.2209646965225, 127.18142595069719, -0.10700000000000001, 0.991, 0.2465, 192.0, 0.0, 0.0, 0.0, 0.0, 0.0, 0.0, 0.0, 0.0, 0.0, 1.70688271837102E9, 0.0, 2024-02-02 15:05:18.371
0.0, 59933.408788848974, 63155.03277242575, -31301.651156145475, -2664.327939072602, 17124.20786907767, 8277.230951455946, 28193.216406490377, 4934.751085609328, 36524.71739348381, 47758.25712183203, 36454.26469496068, 44808.72092350971, 24142.11918617716, 25017.56996125817, -3094.554316348352, 131.2941469304737, -0.10650000000000001, 0.9904999999999999, 0.24825, 192.0, 126.0, 88.0, 15.0, 120.0, 3.5, 104.0, 0.0, 0.0, 0.0, 1.706882718379037E9, 0.0, 2024-02-02 15:05:18.379
2.0, 59925.54097480071, 63152.61878402458, -31304.512179435755, -2631.739095656764, 17117.927028885726, 8285.21052422649, 28193.596386146117, 4931.286565218755, 36507.595957231046, 47759.39706079925, 36449.68258734734, 44807.51392930913, 24141.78391001033, 25052.77395877528, -3096.588325093785, 122.06287647043187, -0.10650000000000001, 0.9904999999999999, 0.24825, 192.0, 0.0, 0.0, 0.0, 0.0, 0.0, 0.0, 0.0, 0.0, 0.0, 1.7068827183882732E9, 0.0, 2024-02-02 15:05:18.388
4.0, 59923.708131755375, 63146.06972289917, -31304.109848035558, -2635.0248020916943, 17116.161241073758, 8283.802364325806, 28184.20865347489, 4929.520777406786, 36524.60563476153, 47768.717738237116, 36454.9575990388, 44819.56151957053, 24152.4009886266, 24981.60600442958, -3094.621371581718, 145.6216151263255, -0.10650000000000001, 0.9904999999999999, 0.24825, 192.0, 0.0, 0.0, 0.0, 0.0, 0.0, 0.0, 0.0, 0.0, 0.0, 1.7068827183960974E9, 0.0, 2024-02-02 15:05:18.396
6.0, 59929.00549519128, 63150.0036299233, -31298.521911921733, -2637.8187701486077, 17125.3925115338, 8289.479707417453, 28199.43019144895, 4939.333193222666, 36527.08667839607, 47765.47673529109, 36459.98674154124, 44815.20292940175, 24152.713913048974, 25002.9519203844, -3089.033435467891, 141.33008019090656, -0.10650000000000001, 0.9904999999999999, 0.24825, 192.0, 0.0, 0.0, 0.0, 0.0, 0.0, 0.0, 0.0, 0.0, 0.0, 1.7068827184031012E9, 0.0, 2024-02-02 15:05:18.403
