%OpenBCI Raw EXG Data
%Number of channels = 16
%Sample Rate = 125 Hz
%Board = OpenBCI_GUI$BoardCytonSerialDaisy
Sample Index, EXG Channel 0, EXG Channel 1, EXG Channel 2, EXG Channel 3, EXG Channel 4, EXG Channel 5, EXG Channel 6, EXG Channel 7, EXG Channel 8, EXG Channel 9, EXG Channel 10, EXG Channel 11, EXG Channel 12, EXG Channel 13, EXG Channel 14, EXG Channel 15, Accel Channel 0, Accel Channel 1, Accel Channel 2, Other, Other, Other, Other, Other, Other, Other, Analog Channel 0, Analog Channel 1, Analog Channel 2, Timestamp, Other, Timestamp (Formatted)
192.0, 61199.277484330836, 64517.3268934878, -29836.918990244747, -605.195832871894, 16664.365430398637, 7727.512148322124, 27541.81951782936, 4494.1758506507695, 37356.09052849896, 46237.24326339284, 36737.170724531505, 45712.58076579342, 23850.25010707976, 25804.619587018442, -5668.983539221709, -428.1476650414068, 0.0, 0.0, 0.0, 192.0, 0.0, 0.0, 0.0, 0.0, 0.0, 0.0, 0.0, 0.0, 0.0, 1.7068828867924707E9, 0.0, 2024-02-02 15:08:06.792
194.0, 61176.76927766434, 64492.985843775976, -29847.893696772302, -617.0869609221174, 16657.59285182868, 7721.253659874637, 27529.771927567952, 4484.162269134792, 37352.223676708185, 46229.241338877844, 36721.278634223774, 45697.42628305272, 23842.605810476045, 25794.606005502465, -5681.478164372225, -442.31867102607146, 0.0, 0.0, 0.0, 192.0, 0.0, 0.0, 0.0, 0.0, 0.0, 0.0, 0.0, 0.0, 0.0, 1.7068828867925115E9, 0.0, 2024-02-02 15:08:06.792
0.0, 30817.646481710257, 32411.45997184038, -14908.166516800704, -404.0748362630411, 8314.893640863138, 3791.6158189315584, 13716.058578021357, 2361.1265255363614, 18673.899015653016, 23108.44041209703, 18358.06886649953, 22844.75688275777, 11918.039550547546, 12893.782602999521, -2843.1418947150582, -224.3668108423723, -0.094, 0.98, 0.276, 192.0, 126.5, 8.0, 15.0, 80.0, 4.0, 80.0, 0.0, 0.0, 0.0, 1.7068828868717277E9, 0.0, 2024-02-02 15:08:06.871
2.0, 61611.175431153235, 64796.92486487924, -29827.53125757352, -824.3323355117245, 16618.209078098425, 7571.139344112796, 27417.074432024296, 4711.390103267444, 37520.17468454536, 46262.38897590506, 36771.95003890396, 45897.49674767217, 23673.224290993727, 25956.32087663661, -5824.1046457415405, -481.7247965007778, -0.094, 0.98, 0.276, 192.0, 0.0, 0.0, 0.0, 0.0, 0.0, 0.0, 0.0, 0.0, 0.0, 1.706882886878759E9, 0.0, 2024-02-02 15:08:06.878
4.0, 61582.296977316975, 64761.832626084404, -29829.699376785684, -824.5782047007328, 16618.052615887238, 7573.933312169709, 27417.074432024296, 4712.261821301201, 37500.70631512479, 46249.96140598791, 36749.97827410439, 45873.98271250519, 23659.880299553908, 25941.27815261819, -5840.667288382922, -495.49347108524694, -0.094, 0.98, 0.276, 192.0, 0.0, 0.0, 0.0, 0.0, 0.0, 0.0, 0.0, 0.0, 0.0, 1.7068828868850827E9, 0.0, 2024-02-02 15:08:06.885
6.0, 61561.35339276236, 64736.66456182773, -29832.515696587052, -821.091332565705, 16615.28099957478, 7575.07325113693, 27410.681833110077, 4712.0606556011035, 37494.31371621057, 46241.66890879499, 36749.955922359935, 45870.74170955917, 23659.321505942527, 25948.587173055075, -5836.711029614334, -488.13974715945096, -0.094, 0.98, 0.276, 192.0, 0.0, 0.0, 0.0, 0.0, 0.0, 0.0, 0.0, 0.0, 0.0, 1.70688288689278E9, 0.0, 2024-02-02 15:08:06.892
8.0, 61548.32232574491, 64726.38275937829, -29825.51960057254, -811.4800824499229, 16615.86214493062, 7576.54846627098, 27408.29019645336, 4716.128673091969, 37489.597498130504, 46239.99252796084, 36746.58080894718, 45869.60177059195, 23661.98136353271, 25950.978809711793, -5835.7275528582995, -480.0037121777192, -0.092, 0.986, 0.272, 192.0, 126.5, 16.0, 15.0, 104.0, 4.0, 64.0, 0.0, 0.0, 0.0, 1.706882886900781E9, 0.0, 2024-02-02 15:08:06.900
10.0, 61542.801444864446, 64716.14566041776, -29817.89765571328, -806.3615329696576, 16622.321799078203, 7579.431841305714, 27424.33874897227, 4724.6223359849855, 37488.3010969521, 46247.50271409783, 36750.13473631558, 45874.027415994104, 23662.40604667736, 25954.75625452474, -5832.374791190004, -477.8355929655544, -0.092, 0.986, 0.272, 192.0, 0.0, 0.0, 0.0, 0.0, 0.0, 0.0, 0.0, 0.0, 0.0, 1.7068828869099076E9, 0.0, 2024-02-02 15:08:06.909
12.0, 61527.781072590486, 64700.07475615439, -29824.133792416313, -816.866852863652, 16618.00791239833, 7576.704928482167, 27416.89561806865, 4720.710780705307, 37486.244736462206, 46233.2646528798, 36752.30285552774, 45870.65230258135, 23664.21653797824, 25953.839833002072, -5827.546814387658, -479.42256682188116, -0.092, 0.986, 0.272, 192.0, 0.0, 0.0, 0.0, 0.0, 0.0, 0.0, 0.0, 0.0, 0.0, 1.7068828869167778E9, 0.0, 2024-02-02 15:08:06.916
14.0, 61519.46622365311, 64690.79878220544, -29839.310626901464, -837.4304577625344, 16606.966150637407, 7565.529056254513, 27406.390298174658, 4711.434806756354, 37477.68401833582, 46229.08487666665, 36735.829619864184, 45852.703851783735, 23655.544061129578, 25941.99340844076, -5838.990907548775, -492.1183576724956, -0.092, 0.986, 0.272, 192.0, 0.0, 0.0, 0.0, 0.0, 0.0, 0.0, 0.0, 0.0, 0.0, 1.7068828869249015E9, 0.0, 2024-02-02 15:08:06.924
16.0, 61521.45552890963, 64690.97759616109, -29837.52248734504, -837.2963472958025, 16610.7212437059, 7569.8652946788425, 27406.99379527495, 4714.228774813268, 37476.92405902434, 46216.27732709376, 36731.13575352857, 45843.69609876825, 23653.375941917413, 25936.22665837129, -5843.528311673202, -499.136805431462, -0.092, 0.986, 0.272, 192.0, 0.0, 0.0, 0.0, 0.0, 0.0, 0.0, 0.0, 0.0, 0.0, 1.7068828869328246E9, 0.0, 2024-02-02 15:08:06.932
18.0, 61527.82577607939, 64700.47708755459, -29832.76156577606, -830.2778995368361, 16614.074005374194, 7573.083945880408, 27412.38056568868, 4722.096588861536, 37479.71802708126, 46220.68062075146, 36730.77812561728, 45849.86518023792, 23656.549889630067, 25939.13238515048, -5839.996736049264, -493.6829797843671, -0.092, 0.992, 0.27, 192.0, 126.5, 16.0, 15.5, 0.0, 4.0, 56.0, 0.0, 0.0, 0.0, 1.7068828869409783E9, 0.0, 2024-02-02 15:08:06.940
20.0, 61535.26890698301, 64713.30698887193, -29837.43308036722, -827.9756698579396, 16607.837868671166, 7569.887646423298, 27403.886902795664, 4714.631106213464, 37489.37398068595, 46234.47164708038, 36741.41755597801, 45860.661072809824, 23658.53919488659, 25943.110995663526, -5839.415590693426, -490.37492160498164, -0.092, 0.992, 0.27, 192.0, 0.0, 0.0, 0.0, 0.0, 0.0, 0.0, 0.0, 0.0, 0.0, 1.706882886948835E9, 0.0, 2024-02-02 15:08:06.948
22.0, 61543.69551464266, 64724.035826210486, -29841.814022280458, -829.2050158029814, 16604.306293047226, 7564.6349864763015, 27405.42917316308, 4711.792434667639, 37484.925983539346, 46228.23551037735, 36741.350500744644, 45859.23056116469, 23649.64320059338, 25935.734919993272, -5848.669212897923, -496.1863751633615, -0.092, 0.992, 0.27, 192.0, 0.0, 0.0, 0.0, 0.0, 0.0, 0.0, 0.0, 0.0, 0.0, 1.7068828869568477E9, 0.0, 2024-02-02 15:08:06.956
24.0, 61551.33981124638, 64733.49061411508, -29845.457356626674, -831.3060797817802, 16604.038072113763, 7561.461038763648, 27408.29019645336, 4711.077178845069, 37486.78117832913, 46244.52993208527, 36742.57984668969, 45863.2762269111, 23651.453691894258, 25938.46183281682, -5848.266881497727, -489.1902791488504, -0.092, 0.992, 0.27, 192.0, 0.0, 0.0, 0.0, 0.0, 0.0, 0.0, 0.0, 0.0, 0.0, 1.7068828869660416E9, 0.0, 2024-02-02 15:08:06.966
26.0, 61576.641985969785, 64756.736428348595, -29832.47099309814, -821.6501261770876, 16617.359711809124, 7572.860428435854, 27419.019033791905, 4719.906117904916, 37487.47408240725, 46238.02557444877, 36742.825715878695, 45863.075061211, 23651.58780236099, 25935.421995570898, -5847.752791375255, -494.19706990683915, -0.092, 0.992, 0.27, 192.0, 0.0, 0.0, 0.0, 0.0, 0.0, 0.0, 0.0, 0.0, 0.0, 1.7068828869722168E9, 0.0, 2024-02-02 15:08:06.972
28.0, 61586.52145701903, 64771.62269015583, -29829.453507596674, -822.7230099109423, 16615.28099957478, 7570.9158266682425, 27417.454411680035, 4719.79435918264, 37503.56733841507, 46255.90697001302, 36757.95784687494, 45877.78250906259, 23668.30690721356, 25952.18580391238, -5828.306773699138, -479.7354912442555, -0.098, 0.992, 0.272, 192.0, 126.0, 120.0, 15.5, 0.0, 4.0, 64.0, 0.0, 0.0, 0.0, 1.7068828869808812E9, 0.0, 2024-02-02 15:08:06.980
30.0, 61596.51268679055, 64785.324309506934, -29829.542914574497, -821.2924982658027, 16614.498688518845, 7575.900265681776, 27416.828562835286, 4720.5096150052095, 37494.336067955024, 46257.62805433608, 36747.05019558075, 45871.4793171262, 23655.924040785318, 25942.596905541053, -5835.705201113845, -489.9725902047861, -0.098, 0.992, 0.272, 192.0, 0.0, 0.0, 0.0, 0.0, 0.0, 0.0, 0.0, 0.0, 0.0, 1.7068828869888844E9, 0.0, 2024-02-02 15:08:06.988
32.0, 61619.28911439051, 64810.87235341935, -29814.81311497845, -802.8746608346297, 16626.903906691543, 7591.12180365584, 27433.435908965577, 4735.999373912737, 37515.324355998564, 46264.51239162831, 36769.670160969516, 45894.300448215065, 23671.167930503838, 25959.4277691159, -5815.566279359613, -470.0348341506522, -0.098, 0.992, 0.272, 192.0, 0.0, 0.0, 0.0, 0.0, 0.0, 0.0, 0.0, 0.0, 0.0, 1.7068828869971535E9, 0.0, 2024-02-02 15:08:06.997
34.0, 61611.734224764616, 64806.53611499502, -29828.402975607274, -814.4975679513893, 16612.643493729054, 7577.64370174929, 27419.935455314575, 4718.229737070767, 37516.97838508825, 46280.8738685696, 36769.871326669614, 45903.50936693065, 23667.16696824634, 25960.165376682926, -5818.695523583356, -471.3535870735153, -0.098, 0.992, 0.272, 192.0, 0.0, 0.0, 0.0, 0.0, 0.0, 0.0, 0.0, 0.0, 0.0, 1.706882887004967E9, 0.0, 2024-02-02 15:08:07.004
36.0, 61625.927582493736, 64817.77904245604, -29822.882094726814, -811.7259516389313, 16621.785357211276, 7586.584399531413, 27421.61183614872, 4723.728266206774, 37516.97838508825, 46271.30732194273, 36772.91116391554, 45901.922393074325, 23668.55277640257, 25954.264516146723, -5822.316506185116, -477.2544476097164, -0.098, 0.992, 0.272, 192.0, 0.0, 0.0, 0.0, 0.0, 0.0, 0.0, 0.0, 0.0, 0.0, 1.7068828870129583E9, 0.0, 2024-02-02 15:08:07.012
38.0, 61610.50487881958, 64802.6469114598, -29848.92187701725, -838.9503763854952, 16598.62894995558, 7561.014003874541, 27400.24356844945, 4701.153004306913, 37512.06100130809, 46271.08380449817, 36763.6798934555, 45891.52883190261, 23661.98136353271, 25946.553164309644, -5835.861663325031, -487.29038087014925, -0.094, 0.986, 0.28, 192.0, 126.5, 8.0, 15.0, 104.0, 4.0, 96.0, 0.0, 0.0, 0.0, 1.7068828870209348E9, 0.0, 2024-02-02 15:08:07.020
40.0, 61623.96062898167, 64817.53317326703, -29847.826641538937, -832.8259984047412, 16599.947702878442, 7565.30553880996, 27396.4661236365, 4701.510632218198, 37502.874434336954, 46262.90306602753, 36751.94522761646, 45877.89426778487, 23647.38567440339, 25938.506536305733, -5854.212445522839, -503.13776768896196, -0.094, 0.986, 0.28, 192.0, 0.0, 0.0, 0.0, 0.0, 0.0, 0.0, 0.0, 0.0, 0.0, 1.7068828870283568E9, 0.0, 2024-02-02 15:08:07.028
42.0, 61646.71470483717, 64838.78968224403, -29835.95786523317, -822.6336029331211, 16613.962246651918, 7575.140306370296, 27419.175496003092, 4718.497958004232, 37516.08431531004, 46270.94969403144, 36769.29018131378, 45891.79705283607, 23658.29332569758, 25950.442367844866, -5840.86845408302, -491.2466396387386, -0.094, 0.986, 0.28, 192.0, 0.0, 0.0, 0.0, 0.0, 0.0, 0.0, 0.0, 0.0, 0.0, 1.7068828870371957E9, 0.0, 2024-02-02 15:08:07.037
44.0, 61646.53589088153, 64844.265859635576, -29839.601199579385, -827.9980216023948, 16612.844659429153, 7571.07228887943, 27416.940321557562, 4717.000391125726, 37521.85106537951, 46286.148880261055, 36773.42525403801, 45899.59781165097, 23662.942488544286, 25953.839833002072, -5835.749904602755, -489.2796861266716, -0.094, 0.986, 0.28, 192.0, 0.0, 0.0, 0.0, 0.0, 0.0, 0.0, 0.0, 0.0, 0.0, 1.7068828870450292E9, 0.0, 2024-02-02 15:08:07.045
46.0, 61653.64374561832, 64848.959725971195, -29836.13667918881, -822.7677133998529, 16620.28779033277, 7574.939140670198, 27423.33292047178, 4720.174338838379, 37515.592576932024, 46273.631903366084, 36770.74304470337, 45896.267401727135, 23661.847253065975, 25948.14013816597, -5832.777122590199, -490.08434892706265, -0.094, 0.986, 0.28, 192.0, 0.0, 0.0, 0.0, 0.0, 0.0, 0.0, 0.0, 0.0, 0.0, 1.706882887052999E9, 0.0, 2024-02-02 15:08:07.052
48.0, 61663.187940500735, 64860.336763898944, -29833.119193687344, -818.2750127643362, 16620.511307777324, 7573.598036002879, 27419.37666170319, 4718.989696382248, 37519.727649656255, 46283.22080173741, 36774.0287511383, 45901.005971551655, 23667.12226475743, 25952.878707990494, -5826.429227164892, -484.1611366464063, -0.092, 0.99, 0.28400000000000003, 192.0, 126.5, 16.0, 15.0, 120.0, 4.0, 112.0, 0.0, 0.0, 0.0, 1.706882887060022E9, 0.0, 2024-02-02 15:08:07.060
50.0, 61662.71855386717, 64862.61664183339, -29839.265923412553, -821.82894013273, 16616.219772841905, 7570.759364457055, 27420.963635559518, 4719.481434760265, 37514.74321064272, 46297.056531555245, 36773.62641973811, 45905.29750648708, 23663.45657866676, 25954.75625452474, -5825.982192275786, -482.84238372354315, -0.092, 0.99, 0.28400000000000003, 192.0, 0.0, 0.0, 0.0, 0.0, 0.0, 0.0, 0.0, 0.0, 0.0, 1.7068828870690396E9, 0.0, 2024-02-02 15:08:07.069
52.0, 61666.898330080316, 64869.94801401473, -29839.46708911265, -825.092294823205, 16613.068176873705, 7570.848771434877, 27431.33484498678, 4721.604850483519, 37509.13292278444, 46284.83012733819, 36772.531184259795, 45902.72705587472, 23657.19809021927, 25946.59786779855, -5827.747980087755, -488.11739541499566, -0.092, 0.99, 0.28400000000000003, 192.0, 0.0, 0.0, 0.0, 0.0, 0.0, 0.0, 0.0, 0.0, 0.0, 1.7068828870760827E9, 0.0, 2024-02-02 15:08:07.076
54.0, 61674.095591794925, 64877.189979218245, -29839.66825481275, -822.9241756110401, 16608.70958670492, 7573.285111580505, 27419.533123914378, 4717.045094614637, 37512.12805654145, 46297.883546100085, 36776.442739539474, 45907.018590810134, 23656.795758819077, 25953.705722535342, -5832.039515023174, -485.01050293570796, -0.092, 0.99, 0.28400000000000003, 192.0, 0.0, 0.0, 0.0, 0.0, 0.0, 0.0, 0.0, 0.0, 0.0, 1.7068828870841656E9, 0.0, 2024-02-02 15:08:07.084
56.0, 61682.11986805438, 64883.09083975445, -29835.823754766436, -816.1963005299928, 16612.44232802896, 7581.063518650952, 27418.929626814086, 4720.621373727486, 37512.50803619719, 46296.2295170104, 36783.64000125408, 45910.50546294516, 23658.53919488659, 25954.823309758107, -5832.754770845744, -483.848212224032, -0.092, 0.99, 0.28400000000000003, 192.0, 0.0, 0.0, 0.0, 0.0, 0.0, 0.0, 0.0, 0.0, 0.0, 1.706882887093068E9, 0.0, 2024-02-02 15:08:07.093
58.0, 61683.68449016625, 64882.64380486534, -29837.880115256325, -819.571413942744, 16606.273246559293, 7575.162658114751, 27412.067641266305, 4714.094664346536, 37516.03961182113, 46299.76109263433, 36787.39509432258, 45915.7357711477, 23661.646087365876, 25954.59979231355, -5834.744076102266, -482.23888662324987, -0.094, 0.986, 0.28, 192.0, 126.5, 8.0, 15.0, 104.0, 4.0, 96.0, 0.0, 0.0, 0.0, 1.7068828871010766E9, 0.0, 2024-02-02 15:08:07.101
60.0, 61685.83025763396, 64887.00239503413, -29834.259132654566, -815.1010650516827, 16610.631836728076, 7577.889570938298, 27413.073469766794, 4713.871146901983, 37514.2514722647, 46299.135243789584, 36786.05398965526, 45918.26151827115, 23661.914308299343, 25949.95062946685, -5836.442808680869, -484.0493779241298, -0.094, 0.986, 0.28, 192.0, 0.0, 0.0, 0.0, 0.0, 0.0, 0.0, 0.0, 0.0, 0.0, 1.7068828871080673E9, 0.0, 2024-02-02 15:08:07.108
62.0, 61687.61839719038, 64889.99752879114, -29834.14737393229, -814.4305127180235, 16613.917543163006, 7577.576646515924, 27415.398051190146, 4715.167548080391, 37513.53621644214, 46294.86606059862, 36787.03746641129, 45919.2896985161, 23665.66940136783, 25948.72128352181, -5834.63231737999, -484.0717296685851, -0.094, 0.986, 0.28, 192.0, 0.0, 0.0, 0.0, 0.0, 0.0, 0.0, 0.0, 0.0, 0.0, 1.706882887116335E9, 0.0, 2024-02-02 15:08:07.116
64.0, 61695.061528094004, 64898.580598661974, -29831.085184941912, -807.0767887922274, 16620.734825221876, 7583.164582629751, 27418.348481458248, 4721.895423161438, 37516.5537019436, 46310.55698520625, 36786.85865245565, 45921.52487296163, 23671.994945048686, 25954.443330102367, -5828.552642888146, -475.8909911979427, -0.094, 0.986, 0.28, 192.0, 0.0, 0.0, 0.0, 0.0, 0.0, 0.0, 0.0, 0.0, 0.0, 1.7068828871251075E9, 0.0, 2024-02-02 15:08:07.125
66.0, 61704.561019487504, 64902.38039521938, -29827.106574428868, -801.0865212782052, 16624.936953179473, 7586.763213487055, 27422.103574526736, 4726.611641241508, 37517.47012346627, 46310.3781712506, 36796.11227466015, 45924.855282885466, 23675.861796839454, 25958.645458059964, -5823.612907363523, -469.6101510060014, -0.094, 0.986, 0.28, 192.0, 0.0, 0.0, 0.0, 0.0, 0.0, 0.0, 0.0, 0.0, 0.0, 1.7068828871321447E9, 0.0, 2024-02-02 15:08:07.132
68.0, 61697.229647306165, 64896.18896200526, -29836.650769311284, -811.1671580275486, 16614.05165362974, 7577.040204648996, 27411.017109276905, 4718.497958004232, 37514.81026587609, 46310.42287473952, 36796.939289204995, 45925.481131730216, 23676.420590450834, 25957.37140862601, -5822.830596307587, -467.30792132710474, -0.1, 0.988, 0.272, 192.0, 126.0, 112.0, 15.0, 112.0, 4.0, 64.0, 0.0, 0.0, 0.0, 1.7068828871401682E9, 0.0, 2024-02-02 15:08:07.140
70.0, 61699.44247000724, 64901.4192702078, -29833.812097765458, -810.8765853496296, 16617.76204320932, 7576.9060941822645, 27415.822734334797, 4718.565013237598, 37505.8025128606, 46304.58906943668, 36789.83143446821, 45924.27413752963, 23666.407008934857, 25951.55995506763, -5831.279555711693, -476.44978480932537, -0.1, 0.988, 0.272, 192.0, 0.0, 0.0, 0.0, 0.0, 0.0, 0.0, 0.0, 0.0, 0.0, 1.706882887148579E9, 0.0, 2024-02-02 15:08:07.148
72.0, 61705.25392356562, 64906.98485457717, -29822.3903563488, -799.5666026552442, 16627.596810769657, 7586.517344298047, 27425.76926061741, 4730.076161632081, 37516.71016415479, 46303.80675838074, 36802.84014974119, 45935.00297486818, 23680.175683519326, 25958.354885382043, -5815.834500293076, -467.28556958264943, -0.1, 0.988, 0.272, 192.0, 0.0, 0.0, 0.0, 0.0, 0.0, 0.0, 0.0, 0.0, 0.0, 1.706882887157202E9, 0.0, 2024-02-02 15:08:07.157
74.0, 61693.96629261569, 64899.09468878445, -29830.839315752903, -806.5403469253, 16617.270304831305, 7578.3142540829485, 27420.226027992492, 4724.108245862513, 37510.921062340865, 46312.0322003403, 36797.207510138454, 45932.52193123364, 23676.73351487321, 25960.00891447174, -5818.427302649892, -466.4585550378031, -0.1, 0.988, 0.272, 192.0, 0.0, 0.0, 0.0, 0.0, 0.0, 0.0, 0.0, 0.0, 0.0, 1.706882887164163E9, 0.0, 2024-02-02 15:08:07.164
76.0, 61691.50760072561, 64896.39012770535, -29834.013263465557, -806.1603672695599, 16610.96711289491, 7580.080041894918, 27414.012243033918, 4722.253051072723, 37503.0532482926, 46303.42677872501, 36792.91597520304, 45925.25761428566, 23669.692715369787, 25954.108053935535, -5822.204747462839, -470.9512556733198, -0.1, 0.988, 0.272, 192.0, 0.0, 0.0, 0.0, 0.0, 0.0, 0.0, 0.0, 0.0, 0.0, 1.70688288717248E9, 0.0, 2024-02-02 15:08:07.172
78.0, 61699.621283962886, 64908.013034822114, -29829.94524597469, -801.9582393119621, 16611.056519872727, 7583.701024496678, 27410.10068775424, 4722.02953362817, 37506.741286127726, 46307.941831104974, 36796.1346264046, 45928.67743118732, 23674.140712516393, 25960.590059827577, -5823.255279452238, -468.51491552769136, -0.1, 0.982, 0.276, 192.0, 126.0, 112.0, 15.0, 88.0, 4.0, 80.0, 0.0, 0.0, 0.0, 1.7068828871811705E9, 0.0, 2024-02-02 15:08:07.181
80.0, 61699.0624903515, 64907.16366853281, -29829.922894230236, -804.9757248134285, 16612.978769895886, 7580.8400012063985, 27414.772202345397, 4718.721475448785, 37506.450713449805, 46313.619174196625, 36796.69342001598, 45928.90094863188, 23674.87832008342, 25958.645458059964, -5828.284421954682, -475.1310318864622, -0.1, 0.982, 0.276, 192.0, 0.0, 0.0, 0.0, 0.0, 0.0, 0.0, 0.0, 0.0, 0.0, 1.7068828871882143E9, 0.0, 2024-02-02 15:08:07.188
82.0, 61703.2646183091, 64907.63305516638, -29823.19501914919, -796.7726345983309, 16618.76787170981, 7586.539696042502, 27417.633225635676, 4724.532929007164, 37511.45750420779, 46315.31790677523, 36808.741010277394, 45937.171094080346, 23683.39433472089, 25963.384027884487, -5817.756750316233, -471.3982905624259, -0.1, 0.982, 0.276, 192.0, 0.0, 0.0, 0.0, 0.0, 0.0, 0.0, 0.0, 0.0, 0.0, 1.7068828871962364E9, 0.0, 2024-02-02 15:08:07.196
84.0, 61680.01880407558, 64881.101534497924, -29834.974388477134, -807.3226579812358, 16612.062348373216, 7573.821553447432, 27417.09678376875, 4717.603888226019, 37503.455579692796, 46314.64735444157, 36803.153074163565, 45933.103076589476, 23680.041573052597, 25959.830100516094, -5823.411741663425, -475.57806677556835, -0.1, 0.982, 0.276, 192.0, 0.0, 0.0, 0.0, 0.0, 0.0, 0.0, 0.0, 0.0, 0.0, 1.7068828872042391E9, 0.0, 2024-02-02 15:08:07.204
86.0, 61661.42215268876, 64856.291098152535, -29840.584676335417, -813.961126084462, 16611.481203017378, 7572.480448780114, 27410.52537089889, 4712.440635256843, 37487.96582078526, 46289.12166227361, 36791.0831321577, 45913.99233508019, 23672.06200028205, 25944.295638119656, -5833.760599346233, -486.8209942365878, -0.1, 0.982, 0.276, 192.0, 0.0, 0.0, 0.0, 0.0, 0.0, 0.0, 0.0, 0.0, 0.0, 1.706882887213241E9, 0.0, 2024-02-02 15:08:07.213
88.0, 61634.018913986554, 64826.76444372707, -29845.77028104905, -818.2303092754256, 16608.48606926037, 7566.6913469661895, 27405.00449001843, 4708.529079977165, 37483.83074806103, 46285.97006630541, 36784.623478010115, 45908.85143385547, 23675.6382793949, 25949.03420794418, -5832.620660379012, -484.29524711313815, -0.095, 0.984, 0.276, 192.0, 126.5, 24.0, 15.0, 104.0, 4.0, 80.0, 0.0, 0.0, 0.0, 1.7068828872202485E9, 0.0, 2024-02-02 15:08:07.220
90.0, 61608.85084972988, 64797.506010235076, -29837.9918739786, -811.6812481500207, 16617.270304831305, 7576.369652315338, 27408.84899006474, 4717.000391125726, 37469.391521142905, 46280.203316235944, 36772.73234995989, 45899.70957037325, 23672.8890148269, 25947.938972465872, -5834.453503424347, -485.70340701382247, -0.095, 0.984, 0.276, 192.0, 0.0, 0.0, 0.0, 0.0, 0.0, 0.0, 0.0, 0.0, 0.0, 1.7068828872283916E9, 0.0, 2024-02-02 15:08:07.228
92.0, 61581.76053545005, 64760.75974235055, -29834.125022187833, -806.7415126253978, 16624.445214801457, 7581.376443073326, 27419.28725472537, 4725.449350529832, 37463.110680950966, 46264.44533639495, 36772.66529472653, 45893.249916225664, 23682.768485876142, 25955.382103369488, -5820.43895965087, -476.9415231873421, -0.095, 0.984, 0.276, 192.0, 0.0, 0.0, 0.0, 0.0, 0.0, 0.0, 0.0, 0.0, 0.0, 1.7068828872373593E9, 0.0, 2024-02-02 15:08:07.237
94.0, 61546.288316999475, 64722.65001805426, -29853.973371264146, -818.5432336977999, 16614.118708863105, 7571.049937134974, 27420.98598730397, 4717.782702181662, 37446.2351138872, 46256.48811536886, 36755.72267242941, 45878.90009628536, 23675.012430550152, 25953.3257428796, -5822.249450951749, -475.33219758655997, -0.095, 0.984, 0.276, 192.0, 0.0, 0.0, 0.0, 0.0, 0.0, 0.0, 0.0, 0.0, 0.0, 1.7068828872442749E9, 0.0, 2024-02-02 15:08:07.244
96.0, 61537.057046539434, 64711.921180715704, -29861.23768821212, -824.6005564451882, 16606.519115748302, 7567.741878955589, 27403.52927488438, 4709.736074177751, 37424.91154967684, 46229.97894644486, 36739.13767804357, 45857.44242160826, 23660.17087223183, 25937.031321171682, -5835.593442391568, -488.43031983736995, -0.095, 0.984, 0.276, 192.0, 0.0, 0.0, 0.0, 0.0, 0.0, 0.0, 0.0, 0.0, 0.0, 1.7068828872525687E9, 0.0, 2024-02-02 15:08:07.252
98.0, 61522.93074404368, 64701.304102099435, -29856.990856765613, -824.3546872561798, 16608.32960704918, 7566.579588243912, 27411.93353079957, 4712.753559679218, 37421.31291881954, 46237.66794653749, 36739.540009443765, 45859.52113384261, 23660.237927465194, 25939.735882250774, -5840.890805827476, -491.5372123166576, -0.0905, 0.987, 0.274, 192.0, 126.5, 40.0, 15.0, 120.0, 4.0, 64.0, 0.0, 0.0, 0.0, 1.7068828872603185E9, 0.0, 2024-02-02 15:08:07.260
100.0, 61512.403072405235, 64689.23416009357, -29858.890755044315, -828.8920913806071, 16604.887438403064, 7562.489219008591, 27410.011280776416, 4708.104396832514, 37414.98737513869, 46238.71847852689, 36738.89180885456, 45857.800049519545, 23661.266107710137, 25934.215001370314, -5836.1969394918615, -490.44197683834756, -0.0905, 0.987, 0.274, 192.0, 0.0, 0.0, 0.0, 0.0, 0.0, 0.0, 0.0, 0.0, 0.0, 1.706882887269333E9, 0.0, 2024-02-02 15:08:07.269
102.0, 61514.39237766175, 64689.01064264902, -29858.086092243924, -827.5956902021993, 16604.57451398069, 7563.606806231357, 27407.66434760861, 4709.490204988743, 37408.05833435754, 46220.34534458463, 36736.74604138685, 45852.21211340572, 23659.29915419807, 25927.55418152263, -5839.460294182336, -493.3700553619928, -0.0905, 0.987, 0.274, 192.0, 0.0, 0.0, 0.0, 0.0, 0.0, 0.0, 0.0, 0.0, 0.0, 1.7068828872765248E9, 0.0, 2024-02-02 15:08:07.276
104.0, 61513.54301137245, 64689.23416009357, -29868.323191204454, -837.2292920624367, 16598.00310111083, 7557.527131739514, 27404.51275164041, 4705.377484008966, 37410.85230241445, 46235.43277209196, 36735.02495706379, 45852.92736922829, 23659.522671642622, 25931.823364713597, -5842.097800028062, -494.0629594401073, -0.0905, 0.987, 0.274, 192.0, 0.0, 0.0, 0.0, 0.0, 0.0, 0.0, 0.0, 0.0, 0.0, 1.706882887284368E9, 0.0, 2024-02-02 15:08:07.284
106.0, 61520.09207249786, 64694.19624736265, -29872.34650520641, -839.6209287191544, 16599.321854033693, 7560.321099796427, 27401.450562650036, 4704.706931675307, 37402.291584288076, 46221.93231844096, 36728.3194337272, 45841.01388943361, 23652.54892737257, 25922.636797742463, -5848.892730342475, -502.6683810554005, -0.0905, 0.987, 0.274, 192.0, 0.0, 0.0, 0.0, 0.0, 0.0, 0.0, 0.0, 0.0, 0.0, 1.7068828872933729E9, 0.0, 2024-02-02 15:08:07.293
108.0, 61528.45162492414, 64705.59563703486, -29872.659429628784, -840.6938124530093, 16594.96326386491, 7557.30361429496, 27388.844178777243, 4700.88478337345, 37410.539377992085, 46232.54939705723, 36734.13088728558, 45847.29472962555, 23659.72383734272, 25928.850582701038, -5847.3504599750595, -501.05905545461843, -0.08925, 0.9844999999999999, 0.273, 192.0, 126.5, 32.0, 15.0, 88.0, 4.0, 64.0, 0.0, 0.0, 0.0, 1.7068828872995934E9, 0.0, 2024-02-02 15:08:07.299
110.0, 61546.89181409977, 64729.22143092412, -29859.985990522626, -826.9251378685401, 16610.922409405997, 7569.909998167754, 27415.28629246787, 4717.760350437206, 37409.66765995832, 46242.026536706275, 36733.5720936742, 45851.40745060533, 23657.287497197092, 25928.31414083411, -5850.1667797764285, -499.9861717207637, -0.08925, 0.9844999999999999, 0.273, 192.0, 0.0, 0.0, 0.0, 0.0, 0.0, 0.0, 0.0, 0.0, 0.0, 1.7068828873083692E9, 0.0, 2024-02-02 15:08:07.308
112.0, 61560.74989566206, 64746.253460199056, -29857.169670721254, -822.2759750218362, 16607.86022041562, 7568.412431289248, 27405.47387665199, 4712.753559679218, 37427.370241566925, 46246.228664663875, 36753.46514623942, 45870.33937815898, 23672.173759004327, 25939.2217921283, -5831.927756300897, -484.2058401353169, -0.08925, 0.9844999999999999, 0.273, 192.0, 0.0, 0.0, 0.0, 0.0, 0.0, 0.0, 0.0, 0.0, 0.0, 1.706882887316462E9, 0.0, 2024-02-02 15:08:07.316
114.0, 61569.06474459943, 64757.027001026516, -29860.701246345194, -828.5568152137776, 16601.221752312395, 7559.382326529304, 27398.14250447065, 4704.6622281863965, 37426.78909621109, 46256.510467113316, 36750.872343882605, 45871.61342759293, 23667.09991301297, 25937.36659733851, -5841.427247694403, -491.7383780167554, -0.08925, 0.9844999999999999, 0.273, 192.0, 0.0, 0.0, 0.0, 0.0, 0.0, 0.0, 0.0, 0.0, 0.0, 1.7068828873244293E9, 0.0, 2024-02-02 15:08:07.324
116.0, 61588.37665180882, 64777.992937325595, -29847.46901362765, -818.8561581201742, 16612.308217562226, 7568.680652222712, 27416.873266324197, 4716.7545219367175, 37426.09619213297, 46252.0177664778, 36755.58856196267, 45875.68144508379, 23666.384657190403, 25932.784489725174, -5837.806265092643, -494.50999432921344, -0.08925, 0.9844999999999999, 0.273, 192.0, 0.0, 0.0, 0.0, 0.0, 0.0, 0.0, 0.0, 0.0, 0.0, 1.7068828873324263E9, 0.0, 2024-02-02 15:08:07.332
118.0, 61603.28526536051, 64792.58862645491, -29841.925781002737, -811.7035998944759, 16615.169240852505, 7570.513495268046, 27416.85091457974, 4716.642763214441, 37442.52472430762, 46267.619284107604, 36770.94421040347, 45893.20521273676, 23682.008526564663, 25943.535678808177, -5823.255279452238, -479.80254647762143, -0.090625, 0.98525, 0.2725, 192.0, 126.5, 16.0, 15.0, 104.0, 4.0, 64.0, 0.0, 0.0, 0.0, 1.706882887340619E9, 0.0, 2024-02-02 15:08:07.340
120.0, 61599.91015194776, 64792.3427572659, -29857.929630032737, -821.314850010258, 16604.37334828059, 7561.438687019192, 27401.89759753914, 4703.678751430363, 37439.28372136161, 46268.75922307483, 36763.25521031085, 45890.79122433558, 23678.678116640822, 25939.311199106123, -5831.994811534263, -487.8715262259873, -0.090625, 0.98525, 0.2725, 192.0, 0.0, 0.0, 0.0, 0.0, 0.0, 0.0, 0.0, 0.0, 0.0, 1.7068828873494573E9, 0.0, 2024-02-02 15:08:07.349
122.0, 61608.13559390731, 64802.2445800596, -29861.304743445486, -819.7725796428418, 16601.355862779124, 7563.2268265756165, 27404.71391734051, 4709.579611966564, 37437.27206436063, 46265.98760676236, 36763.590486477675, 45890.813576080036, 23672.978421804717, 25937.478356060787, -5836.420456936415, -492.4759855837805, -0.090625, 0.98525, 0.2725, 192.0, 0.0, 0.0, 0.0, 0.0, 0.0, 0.0, 0.0, 0.0, 0.0, 1.7068828873555048E9, 0.0, 2024-02-02 15:08:07.355
124.0, 61612.13655616481, 64806.89374290631, -29866.57975513694, -822.8794721221295, 16591.18581905196, 7557.907111395253, 27391.43698113406, 4699.163699050391, 37433.62873001441, 46279.19748773545, 36759.947152131455, 45891.95351504726, 23665.378828689914, 25937.3218938496, -5850.010317565241, -498.35449437552626, -0.090625, 0.98525, 0.2725, 192.0, 0.0, 0.0, 0.0, 0.0, 0.0, 0.0, 0.0, 0.0, 0.0, 1.706882887364498E9, 0.0, 2024-02-02 15:08:07.364
126.0, 61623.58064932593, 64819.96951341266, -29853.258115441575, -813.670553406543, 16602.249932557337, 7568.59124524489, 27408.580769131277, 4710.898364889427, 37432.22057011373, 46280.06920576921, 36767.52439350181, 45898.12259651692, 23667.524596157622, 25941.3228561071, -5844.511788429236, -497.30396238612684, -0.090625, 0.98525, 0.2725, 192.0, 0.0, 0.0, 0.0, 0.0, 0.0, 0.0, 0.0, 0.0, 0.0, 1.706882887372633E9, 0.0, 2024-02-02 15:08:07.372
128.0, 61624.20649817068, 64821.131804124336, -29857.214374210165, -819.5043587093782, 16596.483182487867, 7560.231692818606, 27400.84706554974, 4705.891574131439, 37440.311901606554, 46280.6727028695, 36776.308629072744, 45903.79993960857, 23675.012430550152, 25942.95453345234, -5839.907329071442, -495.4487675963363, -0.09131249999999999, 0.985625, 0.27025, 192.0, 126.5, 16.0, 15.0, 104.0, 4.0, 48.0, 0.0, 0.0, 0.0, 1.7068828873804889E9, 0.0, 2024-02-02 15:08:07.380
130.0, 61635.33766690942, 64833.849946719405, -29852.162879963267, -810.4071987160681, 16606.876743659584, 7569.462963278647, 27409.206617976026, 4717.670943459385, 37436.199180626776, 46279.80098483575, 36771.68181797049, 45898.27905872811, 23671.905538070863, 25938.685350261374, -5840.957861060841, -498.35449437552626, -0.09131249999999999, 0.985625, 0.27025, 192.0, 0.0, 0.0, 0.0, 0.0, 0.0, 0.0, 0.0, 0.0, 0.0, 1.7068828873877628E9, 0.0, 2024-02-02 15:08:07.387
132.0, 61635.80705354298, 64835.68278976474, -29858.95781027768, -817.8726813641407, 16603.412223269013, 7559.538788740491, 27411.50884765492, 4712.842966657039, 37438.25554111666, 46280.11390925812, 36776.50979477284, 45900.15660526235, 23677.78404686261, 25941.814594485117, -5833.827654579599, -496.9016309859313, -0.09131249999999999, 0.985625, 0.27025, 192.0, 0.0, 0.0, 0.0, 0.0, 0.0, 0.0, 0.0, 0.0, 0.0, 1.706882887396499E9, 0.0, 2024-02-02 15:08:07.396
134.0, 61643.69721933571, 64844.131749168846, -29859.650714355794, -816.4421697190011, 16601.780545923775, 7557.080096850407, 27406.61381561921, 4709.378446266466, 37436.042718415585, 46287.24411573936, 36772.48648077089, 45899.396645950874, 23677.672288140333, 25939.66882701741, -5838.901500570953, -503.6742095558894, -0.09131249999999999, 0.985625, 0.27025, 192.0, 0.0, 0.0, 0.0, 0.0, 0.0, 0.0, 0.0, 0.0, 0.0, 1.706882887404822E9, 0.0, 2024-02-02 15:08:07.404
136.0, 61654.8507398189, 64855.57584232996, -29852.498156130096, -807.0097335588615, 16610.363615794613, 7567.563064999947, 27412.894655811153, 4717.8721091594825, 37436.17682888232, 46285.47832792739, 36772.93351565999, 45900.76010236265, 23677.001735806673, 25939.4229578284, -5840.3096604716375, -507.27284041319376, -0.09131249999999999, 0.985625, 0.27025, 192.0, 0.0, 0.0, 0.0, 0.0, 0.0, 0.0, 0.0, 0.0, 0.0, 1.706882887411607E9, 0.0, 2024-02-02 15:08:07.411
138.0, 61654.53781539653, 64855.64289756333, -29854.375702664343, -813.6482016620877, 16606.42970877048, 7562.355108541859, 27408.33489994227, 4712.462987001299, 37447.82208774353, 46299.64933391206, 36780.95779191945, 45907.82325361053, 23689.96574759075, 25947.961324210326, -5828.843215566065, -497.2369071527609, -0.09265625, 0.9888125, 0.268125, 192.0, 126.5, 8.0, 15.5, 0.0, 4.0, 40.0, 0.0, 0.0, 0.0, 1.7068828874206328E9, 0.0, 2024-02-02 15:08:07.420
140.0, 61650.91683279477, 64853.18420567325, -29862.444682412708, -821.0689808212496, 16602.80872616872, 7560.388155029793, 27399.818885304798, 4707.4114927544, 37438.903741705864, 46294.3743222206, 36769.49134701388, 45897.027361038614, 23683.506093443168, 25937.098376405047, -5845.137637273984, -509.97740149228594, -0.09265625, 0.9888125, 0.268125, 192.0, 0.0, 0.0, 0.0, 0.0, 0.0, 0.0, 0.0, 0.0, 0.0, 1.7068828874286368E9, 0.0, 2024-02-02 15:08:07.428
142.0, 61657.465893920176, 64860.135598198845, -29860.701246345194, -821.0689808212496, 16610.229505327883, 7564.120896353829, 27420.293083225857, 4718.944992893337, 37441.51889580714, 46279.26454296882, 36774.0287511383, 45896.55797440505, 23690.859817368964, 25938.148908394447, -5839.996736049264, -503.5177473447022, -0.09265625, 0.9888125, 0.268125, 192.0, 0.0, 0.0, 0.0, 0.0, 0.0, 0.0, 0.0, 0.0, 0.0, 1.706882887436798E9, 0.0, 2024-02-02 15:08:07.436
144.0, 61663.813789345484, 64865.947051757226, -29861.66237135677, -820.2643180208586, 16608.553124493734, 7565.596111487879, 27416.962673302016, 4717.626239970475, 37445.02811968662, 46297.01182806633, 36773.581716249195, 45898.636686639395, 23693.69848891479, 25940.22762062879, -5843.617718651023, -503.6742095558894, -0.09265625, 0.9888125, 0.268125, 192.0, 0.0, 0.0, 0.0, 0.0, 0.0, 0.0, 0.0, 0.0, 0.0, 1.706882887443666E9, 0.0, 2024-02-02 15:08:07.443
146.0, 61668.999394059116, 64869.63508959235, -29861.282391701032, -816.0845418077162, 16609.000159382842, 7568.971224900631, 27416.113307012714, 4719.12380684898, 37441.69770976278, 46292.295609986264, 36775.258097083344, 45900.313067473544, 23691.820942380542, 25938.66299851692, -5845.0035268072525, -504.30005840063797, -0.09265625, 0.9888125, 0.268125, 192.0, 0.0, 0.0, 0.0, 0.0, 0.0, 0.0, 0.0, 0.0, 0.0, 1.7068828874528618E9, 0.0, 2024-02-02 15:08:07.452
148.0, 61676.24135926263, 64878.30756644101, -29856.186193965223, -810.8542336051743, 16609.491897760858, 7569.8652946788425, 27407.66434760861, 4720.733132449762, 37449.945503466784, 46302.62211592461, 36785.271678599325, 45912.31595424604, 23700.806343651577, 25948.207193399336, -5837.53804415918, -493.0124274507079, -0.092328125, 0.99140625, 0.2670625, 192.0, 126.5, 16.0, 15.5, 8.0, 4.0, 40.0, 0.0, 0.0, 0.0, 1.7068828874606276E9, 0.0, 2024-02-02 15:08:07.460
150.0, 61682.2092750322, 64885.236607222156, -29855.873269542848, -806.3838847141129, 16609.246028571848, 7569.820591189932, 27404.93743478506, 4719.056751615614, 37445.22928538672, 46305.729008403905, 36783.4835390429, 45911.645401912385, 23696.961843605262, 25943.71449276382, -5846.903425085953, -497.2145554083056, -0.092328125, 0.99140625, 0.2670625, 192.0, 0.0, 0.0, 0.0, 0.0, 0.0, 0.0, 0.0, 0.0, 0.0, 1.7068828874676287E9, 0.0, 2024-02-02 15:08:07.467
152.0, 61683.528027955064, 64887.36002294541, -29856.90144978779, -808.5520039262777, 16608.888400660562, 7566.132553354807, 27414.503981411934, 4718.855585915517, 37453.18650641281, 46298.799967622756, 36793.20654788095, 45921.61427993945, 23705.321396031548, 25948.45306258834, -5837.58274764809, -489.36909310449283, -0.092328125, 0.99140625, 0.2670625, 192.0, 0.0, 0.0, 0.0, 0.0, 0.0, 0.0, 0.0, 0.0, 0.0, 1.7068828874766283E9, 0.0, 2024-02-02 15:08:07.476
154.0, 61682.477495965664, 64888.74583110164, -29863.450510913197, -812.9105940950626, 16598.47248774439, 7562.153942841762, 27399.550664371334, 4711.792434667639, 37447.26329413215, 46304.63377292559, 36782.27654484231, 45912.45006471277, 23695.86660812695, 25942.93218170788, -5850.747925132266, -501.0143519657078, -0.092328125, 0.99140625, 0.2670625, 192.0, 0.0, 0.0, 0.0, 0.0, 0.0, 0.0, 0.0, 0.0, 0.0, 1.706882887484866E9, 0.0, 2024-02-02 15:08:07.484
156.0, 61689.25007453562, 64892.34446195894, -29855.381531164832, -805.0874835357051, 16606.072080859194, 7570.424088290226, 27404.691565596055, 4721.493091761243, 37451.644236045395, 46305.59489793717, 36786.07634139971, 45917.27804151512, 23693.83259938152, 25944.452100330844, -5850.926739087909, -499.6061920650235, -0.092328125, 0.99140625, 0.2670625, 192.0, 0.0, 0.0, 0.0, 0.0, 0.0, 0.0, 0.0, 0.0, 0.0, 1.7068828874916306E9, 0.0, 2024-02-02 15:08:07.491
158.0, 61700.7612229301, 64902.223933008194, -29844.58563859292, -797.3984834430795, 16614.029301885283, 7575.632044748312, 27424.450507694546, 4733.65244074493, 37476.588782857514, 46318.35774402115, 36804.78475150881, 45932.70074518928, 23709.948207133795, 25959.830100516094, -5834.7887795911765, -483.3117703571046, -0.0901640625, 0.990703125, 0.26553125, 192.0, 126.5, 32.0, 15.0, 120.0, 4.0, 32.0, 0.0, 0.0, 0.0, 1.7068828874996376E9, 0.0, 2024-02-02 15:08:07.499
160.0, 61694.79330716054, 64896.79245910555, -29849.301856672988, -806.1156637806492, 16608.441365771458, 7565.97609114362, 27415.2192372345, 4722.767141195195, 37479.56156487007, 46312.21101429594, 36798.72742876142, 45926.464608486254, 23700.336957018015, 25949.771815511205, -5840.466122682825, -492.61009605051237, -0.0901640625, 0.990703125, 0.26553125, 192.0, 0.0, 0.0, 0.0, 0.0, 0.0, 0.0, 0.0, 0.0, 0.0, 1.7068828875089345E9, 0.0, 2024-02-02 15:08:07.508
162.0, 61690.88175188086, 64892.25505498112, -29849.257153184077, -805.7580358693643, 16612.531735006778, 7568.993576645086, 27421.768298359908, 4729.6067749985195, 37489.44103591931, 46298.59880192266, 36799.66620202854, 45923.20125379578, 23696.604215693977, 25946.016722442713, -5834.364096446526, -490.8219564940878, -0.0901640625, 0.990703125, 0.26553125, 192.0, 0.0, 0.0, 0.0, 0.0, 0.0, 0.0, 0.0, 0.0, 0.0, 1.7068828875156455E9, 0.0, 2024-02-02 15:08:07.515
164.0, 61668.68646963674, 64867.9140052693, -29859.56130737797, -818.1409022976044, 16605.62504597009, 7562.489219008591, 27412.537027899867, 4722.990658639748, 37495.34189645552, 46302.46565371343, 36790.34552459067, 45919.088532816, 23690.41278247986, 25945.882611975983, -5839.952032560353, -491.09017742755145, -0.0901640625, 0.990703125, 0.26553125, 192.0, 0.0, 0.0, 0.0, 0.0, 0.0, 0.0, 0.0, 0.0, 0.0, 1.7068828875237284E9, 0.0, 2024-02-02 15:08:07.523
166.0, 61662.49503642262, 64856.581670830456, -29854.018074753058, -813.7823121288195, 16614.409281541026, 7573.508629025058, 27418.61670239171, 4728.93622266486, 37496.05715227809, 46277.87873481259, 36786.14339663308, 45908.85143385547, 23682.54496843159, 25941.769890996206, -5839.125018015507, -490.1961076493392, -0.0901640625, 0.990703125, 0.26553125, 192.0, 0.0, 0.0, 0.0, 0.0, 0.0, 0.0, 0.0, 0.0, 0.0, 1.706882887531892E9, 0.0, 2024-02-02 15:08:07.531
168.0, 61649.754542083094, 64837.51563281008, -29851.15705146278, -807.9485068259844, 16621.62889500009, 7578.537771527502, 27435.447565966555, 4737.608699513519, 37512.61979491947, 46271.597894620645, 36790.010248423845, 45911.578346679016, 23688.512884201158, 25948.587173055075, -5830.318430700116, -482.7082732568113, -0.09308203125, 0.9903515625, 0.266765625, 192.0, 126.5, 0.0, 15.0, 120.0, 4.0, 48.0, 0.0, 0.0, 0.0, 1.7068828875407476E9, 0.0, 2024-02-02 15:08:07.540
170.0, 61622.351303380885, 64807.34077779541, -29858.644885855305, -815.7269138964313, 16612.554086751235, 7571.7428412130885, 27420.60600764823, 4725.605812741019, 37514.60910017599, 46268.379243419084, 36784.31055358774, 45907.867957099435, 23682.410857964856, 25953.19163241287, -5832.575956890101, -483.8929157129426, -0.09308203125, 0.9903515625, 0.266765625, 192.0, 0.0, 0.0, 0.0, 0.0, 0.0, 0.0, 0.0, 0.0, 0.0, 1.7068828875477111E9, 0.0, 2024-02-02 15:08:07.547
172.0, 61598.457288558166, 64778.976414081626, -29855.068606742458, -814.1622917845598, 16617.29265657576, 7574.045070891985, 27422.5729611603, 4728.332725564566, 37509.89288209592, 46243.27823439577, 36778.09676862917, 45898.39081745039, 23679.86275909695, 25951.13527192298, -5830.430189422392, -486.0386831806521, -0.09308203125, 0.9903515625, 0.266765625, 192.0, 0.0, 0.0, 0.0, 0.0, 0.0, 0.0, 0.0, 0.0, 0.0, 1.7068828875557384E9, 0.0, 2024-02-02 15:08:07.555
174.0, 61563.99089860808, 64738.18448045069, -29866.020961525555, -828.3332977692245, 16603.971016880398, 7560.991652130086, 27404.13277198467, 4712.753559679218, 37504.059076793084, 46238.00322270432, 36764.7304254449, 45884.84566031047, 23671.905538070863, 25947.84956548805, -5835.481683669292, -488.2738576261828, -0.09308203125, 0.9903515625, 0.266765625, 192.0, 0.0, 0.0, 0.0, 0.0, 0.0, 0.0, 0.0, 0.0, 0.0, 1.7068828875648718E9, 0.0, 2024-02-02 15:08:07.564
176.0, 61552.32328800241, 64721.778300020494, -29863.29404870201, -824.2876320228139, 16609.849525672143, 7568.032451633508, 27409.497190653943, 4716.910984147905, 37495.34189645552, 46217.73019048336, 36754.493326484364, 45868.21596243572, 23663.03189552211, 25939.490013061764, -5841.807227350143, -495.7616920187107, -0.09308203125, 0.9903515625, 0.266765625, 192.0, 0.0, 0.0, 0.0, 0.0, 0.0, 0.0, 0.0, 0.0, 0.0, 1.7068828875717633E9, 0.0, 2024-02-02 15:08:07.571
178.0, 61543.87432859831, 64714.67044528371, -29866.1997754812, -827.3498210131909, 16602.786374424264, 7565.2831870655045, 27397.360193414712, 4710.250164300223, 37506.24954774971, 46224.078085908666, 36761.26590505432, 45876.77668056211, 23670.07269502553, 25951.962286467828, -5833.402971434948, -483.7588052462108, -0.095541015625, 0.9891757812499999, 0.2683828125, 192.0, 126.0, 120.0, 15.0, 112.0, 4.0, 56.0, 0.0, 0.0, 0.0, 1.7068828875797849E9, 0.0, 2024-02-02 15:08:07.579
180.0, 61533.905450571234, 64702.846372466855, -29866.020961525555, -829.1156088251602, 16604.418051769502, 7562.600977730868, 27405.98796677446, 4711.725379434273, 37502.807379103586, 46223.63105101956, 36753.68866368397, 45867.54541010206, 23663.25541296666, 25944.653266030942, -5840.466122682825, -490.39727334943694, -0.095541015625, 0.9891757812499999, 0.2683828125, 192.0, 0.0, 0.0, 0.0, 0.0, 0.0, 0.0, 0.0, 0.0, 0.0, 1.7068828875877895E9, 0.0, 2024-02-02 15:08:07.587
182.0, 61533.07843602639, 64708.38960509177, -29858.689589344216, -822.6783064220317, 16609.51424950531, 7566.289015565993, 27413.498152911445, 4716.486301003254, 37505.06490529358, 46215.405609060006, 36759.83539340918, 45870.540543859075, 23665.803511834565, 25943.692141019364, -5832.754770845744, -487.1786221478727, -0.095541015625, 0.9891757812499999, 0.2683828125, 192.0, 0.0, 0.0, 0.0, 0.0, 0.0, 0.0, 0.0, 0.0, 0.0, 1.70688288759699E9, 0.0, 2024-02-02 15:08:07.596
184.0, 61518.192174219155, 64694.95620667413, -29872.52531916205, -838.0116031183724, 16598.025452855283, 7551.872140392321, 27401.584673116766, 4704.081082830558, 37500.90748082489, 46223.496940552825, 36752.66048343903, 45869.40060489185, 23660.752017587667, 25944.161527652923, -5838.186244748384, -490.9784187052749, -0.095541015625, 0.9891757812499999, 0.2683828125, 192.0, 0.0, 0.0, 0.0, 0.0, 0.0, 0.0, 0.0, 0.0, 0.0, 1.7068828876038878E9, 0.0, 2024-02-02 15:08:07.603
186.0, 61529.882136569286, 64706.132078901785, -29869.61959238286, -831.1719693150484, 16606.22854307038, 7564.523227754024, 27413.073469766794, 4715.83810041405, 37493.95608829929, 46200.96638214188, 36740.232913521875, 45854.33552912898, 23652.30305818356, 25932.583324025076, -5845.696430885367, -501.9978287217413, -0.095541015625, 0.9891757812499999, 0.2683828125, 192.0, 0.0, 0.0, 0.0, 0.0, 0.0, 0.0, 0.0, 0.0, 0.0, 1.706882887611858E9, 0.0, 2024-02-02 15:08:07.611
188.0, 61533.301953470946, 64713.463451083124, -29874.62638314085, -830.8366931482188, 16603.412223269013, 7564.523227754024, 27412.827600577784, 4716.843928914539, 37512.731553641745, 46223.38518183055, 36756.05794859624, 45874.74267181667, 23665.177662989816, 25953.102225435046, -5830.541948144669, -483.51293605720235, -0.095541015625, 0.9891757812499999, 0.2683828125, 192.0, 0.0, 0.0, 0.0, 0.0, 0.0, 0.0, 0.0, 0.0, 0.0, 1.706882887620874E9, 0.0, 2024-02-02 15:08:07.620
190.0, 61538.666372140215, 64720.97363722011, -29880.795464610514, -833.8541786496853, 16594.76209816481, 7556.588358472391, 27402.679908595077, 4709.065521844092, 37501.93566106983, 46223.094609152635, 36743.85389612364, 45867.657168824335, 23649.531441871102, 25942.976885196793, -5845.629375652001, -497.97451471978604, -0.092, 0.988, 0.272, 192.0, 126.5, 16.0, 15.0, 112.0, 4.0, 64.0, 0.0, 0.0, 0.0, 1.7068828876280084E9, 0.0, 2024-02-02 15:08:07.628
192.0, 61566.427238753706, 64743.168919464224, -29867.42912142624, -823.9523558559843, 16603.032243613274, 7562.399812030771, 27406.99379527495, 4714.474644002276, 37515.9055013544, 46223.787513230745, 36756.817907907716, 45875.569686361516, 23654.91821228483, 25942.820422985606, -5842.969518061819, -499.2038606648279, -0.092, 0.988, 0.272, 192.0, 0.0, 0.0, 0.0, 0.0, 0.0, 0.0, 0.0, 0.0, 0.0, 1.7068828876360424E9, 0.0, 2024-02-02 15:08:07.636
194.0, 61579.503009260065, 64762.21260574015, -29859.784824822527, -818.0291435753279, 16608.173144837994, 7566.847809177377, 27413.721670355997, 4721.426036527877, 37530.38943176144, 46243.94878672943, 36764.81983242271, 45883.01281726513, 23658.829767564508, 25950.218850400313, -5840.801398849654, -493.4371105953587, -0.092, 0.988, 0.272, 192.0, 0.0, 0.0, 0.0, 0.0, 0.0, 0.0, 0.0, 0.0, 0.0, 1.7068828876439493E9, 0.0, 2024-02-02 15:08:07.643
196.0, 61598.07730890242, 64781.077478060426, -29857.70611258818, -817.5821086862218, 16609.491897760858, 7570.066460378941, 27410.592426132254, 4722.856548173017, 37545.23099007976, 46246.072202452684, 36775.66042848354, 45890.70181735776, 23664.30594495606, 25955.560917325132, -5831.681887111889, -484.3846540909594, -0.092, 0.988, 0.272, 192.0, 0.0, 0.0, 0.0, 0.0, 0.0, 0.0, 0.0, 0.0, 0.0, 1.706882887652906E9, 0.0, 2024-02-02 15:08:07.652
198.0, 61601.63123627082, 64790.018175842546, -29865.462167914175, -822.9018238665848, 16601.221752312395, 7564.120896353829, 27402.791667317353, 4717.335667292556, 37546.05800462461, 46250.006109476824, 36772.9782191489, 45892.15468074736, 23658.583898375502, 25955.18093766939, -5842.209558750339, -491.9842472057638, -0.092, 0.988, 0.272, 192.0, 0.0, 0.0, 0.0, 0.0, 0.0, 0.0, 0.0, 0.0, 0.0, 1.7068828876601195E9, 0.0, 2024-02-02 15:08:07.660
200.0, 61606.705082262175, 64798.17656256873, -29867.652638870793, -823.3712105001463, 16601.624083712588, 7561.9974806305745, 27404.42334466259, 4714.6981614468295, 37549.45546978182, 46257.33748165816, 36769.84897492516, 45892.199384236264, 23656.281668696603, 25953.41514985742, -5843.573015162113, -493.3924071064481, -0.094, 0.99, 0.276, 192.0, 126.5, 8.0, 15.0, 120.0, 4.0, 80.0, 0.0, 0.0, 0.0, 1.706882887667898E9, 0.0, 2024-02-02 15:08:07.667
202.0, 61625.41349237126, 64816.01325464407, -29854.263943942064, -806.3615329696576, 16611.302389061737, 7575.006195903564, 27410.882998810175, 4726.164606352402, 37555.78101346266, 46257.02455723579, 36777.53797501779, 45900.08955002899, 23662.428398421813, 25959.651286560453, -5835.5487389026575, -488.6761890263783, -0.094, 0.99, 0.276, 192.0, 0.0, 0.0, 0.0, 0.0, 0.0, 0.0, 0.0, 0.0, 0.0, 1.7068828876759944E9, 0.0, 2024-02-02 15:08:07.675
204.0, 61618.75267252358, 64811.766423197565, -29865.77509233655, -817.7385708974089, 16596.729051676877, 7561.952777141664, 27387.614832832198, 4709.4231497553765, 37562.82181296609, 46274.056586510735, 36782.544765775776, 45909.00789606666, 23661.288459454594, 25968.01083898674, -5835.414628435926, -480.6519127669231, -0.094, 0.99, 0.276, 192.0, 0.0, 0.0, 0.0, 0.0, 0.0, 0.0, 0.0, 0.0, 0.0, 1.7068828876839285E9, 0.0, 2024-02-02 15:08:07.683
206.0, 61635.516480865066, 64826.47387104916, -29850.665313084763, -808.5296521818224, 16618.76787170981, 7577.397832560281, 27426.931551329086, 4731.953708166327, 37558.55262977513, 46256.19754269094, 36777.89560292907, 45899.41899769533, 23655.566412874035, 25956.61144931453, -5835.302869713649, -484.96579944679735, -0.094, 0.99, 0.276, 192.0, 0.0, 0.0, 0.0, 0.0, 0.0, 0.0, 0.0, 0.0, 0.0, 1.7068828876923149E9, 0.0, 2024-02-02 15:08:07.692
208.0, 61641.3502861679, 64830.8995164513, -29860.701246345194, -818.7443993978977, 16607.256723315328, 7570.200570845673, 27408.71487959801, 4720.487263260754, 37572.25424912623, 46268.245132952354, 36787.81977746723, 45909.119654788934, 23665.26706996764, 25966.401513385954, -5824.797549819655, -474.28166559716055, -0.094, 0.99, 0.276, 192.0, 0.0, 0.0, 0.0, 0.0, 0.0, 0.0, 0.0, 0.0, 0.0, 1.7068828876999333E9, 0.0, 2024-02-02 15:08:07.699
210.0, 61651.073295005954, 64839.61669678888, -29861.930592290235, -817.1797772860263, 16613.269342573803, 7575.632044748312, 27421.164801259616, 4728.064504631103, 37571.33782760356, 46271.08380449817, 36779.01319015183, 45904.26932624213, 23655.76757857413, 25961.23826041678, -5837.694506370367, -487.24567738123864, -0.096, 0.988, 0.272, 192.0, 126.5, 0.0, 15.0, 112.0, 4.0, 64.0, 0.0, 0.0, 0.0, 1.7068828877089386E9, 0.0, 2024-02-02 15:08:07.708
212.0, 61654.783684585535, 64844.757598013595, -29863.025827768546, -818.3197162532468, 16608.553124493734, 7570.40173654577, 27416.627397135187, 4719.07910336007, 37578.177461406885, 46268.8709817971, 36787.12687338911, 45911.66775365684, 23661.891956554886, 25967.295583164167, -5829.491416155269, -484.00467443521916, -0.096, 0.988, 0.272, 192.0, 0.0, 0.0, 0.0, 0.0, 0.0, 0.0, 0.0, 0.0, 0.0, 1.7068828877150166E9, 0.0, 2024-02-02 15:08:07.715
214.0, 61650.96153628368, 64842.96945845717, -29874.849900585403, -830.8813966371295, 16594.918560375998, 7557.281262550505, 27395.840274791753, 4703.276420030167, 37571.22606888128, 46271.039101009264, 36775.2804488278, 45903.397608208375, 23649.911421526842, 25953.728074279796, -5845.87524484101, -494.6664565404006, -0.096, 0.988, 0.272, 192.0, 0.0, 0.0, 0.0, 0.0, 0.0, 0.0, 0.0, 0.0, 0.0, 1.7068828877241957E9, 0.0, 2024-02-02 15:08:07.724
216.0, 61670.72047838217, 64858.83919702044, -29858.91310678877, -817.3585912416687, 16609.827173927686, 7575.587341259402, 27413.341690700257, 4722.40951328391, 37578.020999195694, 46269.00509226383, 36785.51754778833, 45910.036076311604, 23653.7335698287, 25958.42194061541, -5838.946204059864, -489.07852042657385, -0.096, 0.988, 0.272, 192.0, 0.0, 0.0, 0.0, 0.0, 0.0, 0.0, 0.0, 0.0, 0.0, 1.7068828877319734E9, 0.0, 2024-02-02 15:08:07.731
218.0, 61668.39589695882, 64857.72160979767, -29863.204641724187, -820.6890011655095, 16607.882572160073, 7571.318158068438, 27411.352385443734, 4716.799225425628, 37585.240612654765, 46275.55415338924, 36793.11714090314, 45917.76977989314, 23660.14852048737, 25969.441350631878, -5830.765465589222, -478.5955522770348, -0.096, 0.988, 0.272, 192.0, 0.0, 0.0, 0.0, 0.0, 0.0, 0.0, 0.0, 0.0, 0.0, 1.7068828877400146E9, 0.0, 2024-02-02 15:08:07.740
220.0, 61668.37354521437, 64861.811979032995, -29867.138548748324, -820.2419662764033, 16605.602694225632, 7568.948873156175, 27406.27853945238, 4712.418283512388, 37581.038484697165, 46277.36464469012, 36785.405789066055, 45911.06425655654, 23654.806453562553, 25965.216870929824, -5840.041439538174, -487.35743610351517, -0.10200000000000001, 0.984, 0.268, 192.0, 126.0, 104.0, 15.0, 96.0, 4.0, 48.0, 0.0, 0.0, 0.0, 1.706882887748256E9, 0.0, 2024-02-02 15:08:07.748
222.0, 61668.86528359238, 64866.707011068705, -29870.938345305723, -824.0194110893502, 16599.210095311417, 7563.673861464723, 27397.159027714617, 4706.897402631927, 37573.975333449285, 46266.74756607385, 36783.684704743, 45907.42092221033, 23649.285572682093, 25959.85245226055, -5845.0035268072525, -493.86179374000955, -0.10200000000000001, 0.984, 0.268, 192.0, 0.0, 0.0, 0.0, 0.0, 0.0, 0.0, 0.0, 0.0, 0.0, 1.7068828877560487E9, 0.0, 2024-02-02 15:08:07.756
224.0, 61690.88175188086, 64890.60102589143, -29855.783862565026, -809.44607370449, 16612.218810584403, 7574.290940080994, 27413.43109767808, 4720.151987093925, 37582.13372017547, 46288.16053726203, 36791.59722228017, 45919.4908642162, 23653.44299715078, 25965.50744360774, -5841.114323272029, -486.2174971362945, -0.10200000000000001, 0.984, 0.268, 192.0, 0.0, 0.0, 0.0, 0.0, 0.0, 0.0, 0.0, 0.0, 0.0, 1.7068828877640512E9, 0.0, 2024-02-02 15:08:07.764
226.0, 61696.62615020587, 64899.40761320682, -29852.14052821881, -806.5850504142106, 16618.365540309613, 7576.392004059792, 27418.28142622488, 4724.398818540432, 37594.62834532599, 46298.95642983395, 36808.15986492156, 45933.23718705621, 23663.076599011016, 25974.403437900954, -5828.776160332699, -477.299151098627, -0.10200000000000001, 0.984, 0.268, 192.0, 0.0, 0.0, 0.0, 0.0, 0.0, 0.0, 0.0, 0.0, 0.0, 1.7068828877710755E9, 0.0, 2024-02-02 15:08:07.771
228.0, 61687.28312102355, 64891.04806078054, -29857.996685266102, -808.7531696263754, 16609.53660124977, 7571.496972024081, 27405.831504563273, 4719.772007438184, 37592.32611564709, 46296.765958877324, 36807.33285037671, 45933.55011147858, 23661.60138387697, 25973.911699522938, -5830.631355122489, -477.5450202876354, -0.10200000000000001, 0.984, 0.268, 192.0, 0.0, 0.0, 0.0, 0.0, 0.0, 0.0, 0.0, 0.0, 0.0, 1.7068828877802043E9, 0.0, 2024-02-02 15:08:07.780
230.0, 61682.94688259922, 64884.99073803315, -29858.734292833127, -808.797873115286, 16607.390833782058, 7573.285111580505, 27405.317414440804, 4721.403684783421, 37584.79357776565, 46291.4238919525, 36800.31440261775, 45927.939823620305, 23653.82297680652, 25969.84368203207, -5838.923852315409, -480.89778195593146, -0.096, 0.982, 0.264, 192.0, 126.5, 0.0, 15.0, 88.0, 4.0, 32.0, 0.0, 0.0, 0.0, 1.7068828877880707E9, 0.0, 2024-02-02 15:08:07.788
232.0, 61686.478458223166, 64887.963520045705, -29851.29116192951, -802.8299573457191, 16611.39179603956, 7581.018815162041, 27409.34072844276, 4729.897347676439, 37587.76635977821, 46283.73489185988, 36807.01992595434, 45929.99618411019, 23658.025104764118, 25972.257670433246, -5831.570128389612, -475.80158422012147, -0.096, 0.982, 0.264, 192.0, 0.0, 0.0, 0.0, 0.0, 0.0, 0.0, 0.0, 0.0, 0.0, 1.7068828877951477E9, 0.0, 2024-02-02 15:08:07.795
234.0, 61669.334670225944, 64868.49515062513, -29858.108443988378, -808.2390795039034, 16604.306293047226, 7574.514457525547, 27398.030745748372, 4723.750617951228, 37587.274621400196, 46292.96616231992, 36803.309536374756, 45929.1915213098, 23657.578069875013, 25971.922394266418, -5834.811131335632, -478.2155726212946, -0.096, 0.982, 0.264, 192.0, 0.0, 0.0, 0.0, 0.0, 0.0, 0.0, 0.0, 0.0, 0.0, 1.7068828878040822E9, 0.0, 2024-02-02 15:08:07.804
236.0, 61654.87309156336, 64850.23377540515, -29853.772205564048, -802.4276259455236, 16613.33639780717, 7586.137364642306, 27413.47580116699, 4735.015897156703, 37577.618667795505, 46281.320903458705, 36798.59331829468, 45922.061314828556, 23656.147558229874, 25971.542414610674, -5831.078390011596, -477.38855807644825, -0.096, 0.982, 0.264, 192.0, 0.0, 0.0, 0.0, 0.0, 0.0, 0.0, 0.0, 0.0, 0.0, 1.706882887812314E9, 0.0, 2024-02-02 15:08:07.812
238.0, 61624.161794681764, 64819.12014712336, -29858.108443988378, -809.1107975376603, 16611.660016973023, 7578.515419783047, 27411.553551143832, 4731.059638388114, 37572.74598750425, 46273.922476044, 36793.87710021462, 45914.10409380247, 23657.890994297388, 25973.08468497809, -5828.083256254585, -475.68982549784494, -0.096, 0.982, 0.264, 192.0, 0.0, 0.0, 0.0, 0.0, 0.0, 0.0, 0.0, 0.0, 0.0, 1.7068828878191452E9, 0.0, 2024-02-02 15:08:07.819
240.0, 61591.327082076925, 64784.81021938446, -29868.85963307138, -820.1972627874927, 16604.686272702966, 7571.675785979723, 27390.252338677925, 4715.6369347139525, 37555.28927508465, 46262.59014160516, 36777.20269885095, 45897.65320988336, 23648.972648259718, 25963.026399973205, -5835.794608091665, -486.68688376985597, -0.094, 0.984, 0.26, 192.0, 126.5, 8.0, 15.0, 96.0, 4.0, 16.0, 0.0, 0.0, 0.0, 1.7068828878271224E9, 0.0, 2024-02-02 15:08:07.827
242.0, 61568.14832307677, 64754.52360564752, -29867.652638870793, -821.5607191992664, 16608.48606926037, 7574.7379749700995, 27411.419440677102, 4725.516405763198, 37545.90154241342, 46240.59602506114, 36770.40776853654, 45884.9797707772, 23649.19616570427, 25962.08762670608, -5838.789741848676, -490.330218116071, -0.094, 0.984, 0.26, 192.0, 0.0, 0.0, 0.0, 0.0, 0.0, 0.0, 0.0, 0.0, 0.0, 1.7068828878361423E9, 0.0, 2024-02-02 15:08:07.836
244.0, 61550.46809321262, 64736.21752693863, -29870.62542088335, -826.4557512349786, 16610.47537451689, 7572.54750401348, 27426.52921992889, 4730.970231410293, 37537.49728649823, 46239.18786516045, 36759.388358520075, 45878.18484046279, 23648.145633714874, 25958.93603073788, -5832.061866767629, -481.85890696750965, -0.094, 0.984, 0.26, 192.0, 0.0, 0.0, 0.0, 0.0, 0.0, 0.0, 0.0, 0.0, 0.0, 1.706882887844166E9, 0.0, 2024-02-02 15:08:07.844
246.0, 61541.86267159733, 64725.71220704463, -29870.46895867216, -822.7230099109423, 16611.928237906486, 7577.6884052382, 27414.81690583431, 4731.238452343757, 37534.345690530026, 46230.13540865605, 36757.95784687494, 45876.262590439634, 23647.430377892302, 25959.56187958263, -5832.330087701093, -480.13782264445103, -0.094, 0.984, 0.26, 192.0, 0.0, 0.0, 0.0, 0.0, 0.0, 0.0, 0.0, 0.0, 0.0, 1.7068828878513975E9, 0.0, 2024-02-02 15:08:07.851
248.0, 61521.65669460973, 64705.774450990495, -29890.160845537288, -839.8444461637075, 16597.57841796618, 7561.505742252558, 27408.22314121999, 4718.475606259776, 37527.30489102661, 46225.888577209545, 36749.330073515186, 45868.730052558196, 23643.04943597906, 25955.27034464721, -5839.504997671247, -484.94344770234204, -0.094, 0.984, 0.26, 192.0, 0.0, 0.0, 0.0, 0.0, 0.0, 0.0, 0.0, 0.0, 0.0, 1.706882887859184E9, 0.0, 2024-02-02 15:08:07.859
250.0, 61509.40793864822, 64694.03978515146, -29889.467941459174, -836.0222978618501, 16602.249932557337, 7570.178219101217, 27411.978234288483, 4726.701048219329, 37513.938547842336, 46223.58634753065, 36736.09784079764, 45856.36953787441, 23634.466366108223, 25951.157623667437, -5844.958823318341, -487.29038087014925, -0.094, 0.988, 0.266, 192.0, 126.5, 8.0, 15.0, 112.0, 4.0, 40.0, 0.0, 0.0, 0.0, 1.7068828878681927E9, 0.0, 2024-02-02 15:08:07.868
252.0, 61507.68685432516, 64690.91054092772, -29895.793485140024, -840.6491089640987, 16597.220790054893, 7567.652471977767, 27403.797495817842, 4718.565013237598, 37506.026030305155, 46212.611641003095, 36735.60610241963, 45854.089659939964, 23629.839555005976, 25951.93993472337, -5845.785837863188, -490.68784602735593, -0.094, 0.988, 0.266, 192.0, 0.0, 0.0, 0.0, 0.0, 0.0, 0.0, 0.0, 0.0, 0.0, 1.7068828878752937E9, 0.0, 2024-02-02 15:08:07.875
254.0, 61506.166935702204, 64691.13405837227, -29898.743915408126, -845.1418095996154, 16598.338377277658, 7566.512533010547, 27405.540931885356, 4719.369676037989, 37509.42349546236, 46221.15000738502, 36734.53321868578, 45854.246122151155, 23634.220496919217, 25954.66684754692, -5846.769314619221, -489.3467413600375, -0.094, 0.988, 0.266, 192.0, 0.0, 0.0, 0.0, 0.0, 0.0, 0.0, 0.0, 0.0, 0.0, 1.7068828878832037E9, 0.0, 2024-02-02 15:08:07.883
0.0, 61509.34088341486, 64696.02909040798, -29897.58162469645, -841.4537717644897, 16596.505534232325, 7568.390079544793, 27403.95395802903, 4719.414379526899, 37497.912347067875, 46210.82350144667, 36727.0677360377, 45848.725241270695, 23623.022272947106, 25947.246068387758, -5853.027803066708, -495.784043763166, -0.094, 0.988, 0.266, 192.0, 0.0, 0.0, 0.0, 0.0, 0.0, 0.0, 0.0, 0.0, 0.0, 1.706882887892279E9, 0.0, 2024-02-02 15:08:07.892
2.0, 61521.36612193181, 64705.95326494614, -29899.369764252875, -843.9795188879394, 16591.498743474334, 7563.025660875519, 27390.453504378023, 4709.4231497553765, 37506.42836170535, 46218.80307421721, 36735.628454164085, 45859.275264653596, 23629.10194743895, 25953.772777768707, -5848.512750686736, -493.88414548446485, -0.094, 0.988, 0.266, 192.0, 0.0, 0.0, 0.0, 0.0, 0.0, 0.0, 0.0, 0.0, 0.0, 1.706882887900267E9, 0.0, 2024-02-02 15:08:07.900
4.0, 61536.81117735043, 64725.44398611117, -29897.87219737437, -843.6442427211098, 16591.319929518693, 7563.249178320072, 27387.212501432005, 4705.623353197975, 37505.04255354912, 46226.67088826548, 36736.45546870893, 45859.208209420234, 23626.978531715697, 25949.637705044475, -5856.559378690646, -502.3331048885709, -0.09, 0.988, 0.268, 192.0, 126.5, 24.0, 15.0, 112.0, 4.0, 48.0, 0.0, 0.0, 0.0, 1.7068828879074214E9, 0.0, 2024-02-02 15:08:07.907
6.0, 61555.720753159614, 64744.59943110937, -29894.899415361815, -841.0514403642942, 16596.460830743414, 7562.600977730868, 27399.28244343787, 4710.6524957004185, 37514.2514722647, 46230.71655401189, 36750.447660737955, 45868.61829383592, 23633.795813774566, 25953.57161206861, -5849.563282676135, -495.0464361961408, -0.09, 0.988, 0.268, 192.0, 0.0, 0.0, 0.0, 0.0, 0.0, 0.0, 0.0, 0.0, 0.0, 1.7068828879152553E9, 0.0, 2024-02-02 15:08:07.915
8.0, 61562.33686951839, 64756.95994579315, -29900.66616543128, -843.5548357432885, 16591.81166789671, 7555.5378264829915, 27392.59927184573, 4705.623353197975, 37517.31366125508, 46241.132466928066, 36746.826678136196, 45867.90303801335, 23631.068900951017, 25950.15179516695, -5854.838294367587, -496.4992995857358, -0.09, 0.988, 0.268, 192.0, 0.0, 0.0, 0.0, 0.0, 0.0, 0.0, 0.0, 0.0, 0.0, 1.706882887924265E9, 0.0, 2024-02-02 15:08:07.924
10.0, 61574.675032457715, 64770.08041978841, -29899.81679914198, -841.4314200200344, 16590.85054288513, 7554.5990532158685, 27392.263995678903, 4702.203536296312, 37517.917158355376, 46236.39389710354, 36751.58759970518, 45871.166392703824, 23629.593685816966, 25944.921486964406, -5852.983099577797, -497.61688680850114, -0.09, 0.988, 0.268, 192.0, 0.0, 0.0, 0.0, 0.0, 0.0, 0.0, 0.0, 0.0, 0.0, 1.7068828879313028E9, 0.0, 2024-02-02 15:08:07.931
12.0, 61596.9373699352, 64792.40981249927, -29891.904281604802, -836.379925773135, 16596.013795854305, 7556.476599750114, 27398.61189110421, 4706.450367742821, 37530.769411417175, 46247.8156385202, 36763.34461728867, 45884.64449461037, 23635.941581242274, 25950.55412656714, -5848.2892332421825, -494.86762224049835, -0.09, 0.988, 0.268, 192.0, 0.0, 0.0, 0.0, 0.0, 0.0, 0.0, 0.0, 0.0, 0.0, 1.706882887939521E9, 0.0, 2024-02-02 15:08:07.939
14.0, 61601.161849637254, 64798.66830094675, -29892.91011010529, -836.2011118174926, 16596.170258065493, 7557.415373017237, 27400.020051004896, 4708.752597421718, 37533.921007385376, 46262.38897590506, 36766.40680627904, 45890.65711386885, 23638.132052198896, 25953.906888235437, -5845.5846721630905, -494.3088286291157, -0.094, 0.98, 0.272, 192.0, 126.5, 8.0, 15.0, 80.0, 4.0, 64.0, 0.0, 0.0, 0.0, 1.7068828879483063E9, 0.0, 2024-02-02 15:08:07.948
16.0, 61610.03549218601, 64810.53707725252, -29887.94802283621, -832.3789635156351, 16602.13817383506, 7560.4105067742485, 27407.485533652965, 4711.658324200907, 37533.76454517419, 46256.510467113316, 36770.34071330318, 45893.31697145903, 23641.19424118927, 25953.504556835243, -5839.929680815898, -491.1795844053727, -0.094, 0.98, 0.272, 192.0, 0.0, 0.0, 0.0, 0.0, 0.0, 0.0, 0.0, 0.0, 0.0, 1.7068828879563253E9, 0.0, 2024-02-02 15:08:07.956
18.0, 61610.52723056403, 64812.57108599795, -29892.1054473049, -842.1019723536936, 16594.627987698077, 7552.118009581329, 27398.634242848664, 4703.321123519078, 37531.7081846843, 46263.66302533901, 36766.94324814597, 45894.05457902606, 23640.97072374472, 25952.766949268218, -5844.668250640422, -491.6936745278448, -0.094, 0.98, 0.272, 192.0, 0.0, 0.0, 0.0, 0.0, 0.0, 0.0, 0.0, 0.0, 0.0, 1.7068828879633536E9, 0.0, 2024-02-02 15:08:07.963
20.0, 61624.22884991513, 64824.59632451491, -29881.39896171081, -837.1622368290707, 16604.708624447423, 7559.538788740491, 27408.75958308692, 4710.093702089036, 37536.111478342, 46260.8690572821, 36774.632248238595, 45895.619201137924, 23643.563526101534, 25947.80486199914, -5841.851930839054, -492.27481988368277, -0.094, 0.98, 0.272, 192.0, 0.0, 0.0, 0.0, 0.0, 0.0, 0.0, 0.0, 0.0, 0.0, 1.7068828879715793E9, 0.0, 2024-02-02 15:08:07.971
22.0, 61632.11901570786, 64833.8052432305, -29879.67787738775, -834.9717658724506, 16604.216886069404, 7557.63889046179, 27405.116248740705, 4711.814786412095, 37540.693585955334, 46264.4229846505, 36782.79063496478, 45906.2362797542, 23646.290438925083, 25949.57064981111, -5836.599270892057, -489.45850008231406, -0.094, 0.98, 0.272, 192.0, 0.0, 0.0, 0.0, 0.0, 0.0, 0.0, 0.0, 0.0, 0.0, 1.7068828879803543E9, 0.0, 2024-02-02 15:08:07.980
24.0, 61638.28809717752, 64840.488414822634, -29878.023848298057, -830.412010003568, 16609.04486287175, 7562.958605642153, 27408.133734242172, 4718.162681837402, 37536.69262369783, 46275.64356036706, 36779.16965236302, 45906.66096289885, 23644.010560990642, 25948.497766077253, -5838.856797082043, -490.48668032725817, -0.1, 0.99, 0.268, 192.0, 126.0, 112.0, 15.0, 120.0, 4.0, 48.0, 0.0, 0.0, 0.0, 1.7068828879873667E9, 0.0, 2024-02-02 15:08:07.987
26.0, 61639.02570474455, 64843.93058346875, -29884.572909423463, -832.2895565378138, 16606.47441225939, 7560.4105067742485, 27406.3679464302, 4716.821577170083, 37532.06581259559, 46268.82627830819, 36780.5331087748, 45911.17601527882, 23644.05526447955, 25947.380178854488, -5831.279555711693, -486.01633143619677, -0.1, 0.99, 0.268, 192.0, 0.0, 0.0, 0.0, 0.0, 0.0, 0.0, 0.0, 0.0, 0.0, 1.7068828879954133E9, 0.0, 2024-02-02 15:08:07.995
28.0, 61643.4513501467, 64852.7595225286, -29885.042296057025, -829.1156088251602, 16605.75915643682, 7565.082021365407, 27407.753754586432, 4721.783664439162, 37529.22714104976, 46281.924400559, 36777.023884895316, 45914.72994264722, 23641.663627822832, 25950.04003644467, -5833.53708190168, -481.23305812276107, -0.1, 0.99, 0.268, 192.0, 0.0, 0.0, 0.0, 0.0, 0.0, 0.0, 0.0, 0.0, 0.0, 1.7068828880034113E9, 0.0, 2024-02-02 15:08:08.003
30.0, 61660.461027677185, 64868.092819224934, -29875.63221164134, -816.6880389080095, 16611.883534417575, 7577.151963371273, 27411.844123821753, 4731.685487232863, 37532.89282714043, 46280.15861274703, 36784.198794865464, 45920.94372760579, 23644.52465111311, 25955.13623418048, -5832.575956890101, -477.07563365407395, -0.1, 0.99, 0.268, 192.0, 0.0, 0.0, 0.0, 0.0, 0.0, 0.0, 0.0, 0.0, 0.0, 1.706882888011444E9, 0.0, 2024-02-02 15:08:08.011
32.0, 61667.9041585808, 64875.40183966182, -29874.045237785012, -821.4042569880793, 16613.71637746291, 7573.776849958522, 27421.410670448622, 4730.836120943561, 37540.38066153296, 46285.76890060531, 36790.2337658684, 45922.10601831746, 23652.30305818356, 25960.43359761639, -5829.91609929992, -474.3710725749818, -0.1, 0.99, 0.268, 192.0, 0.0, 0.0, 0.0, 0.0, 0.0, 0.0, 0.0, 0.0, 0.0, 1.7068828880194168E9, 0.0, 2024-02-02 15:08:08.019
34.0, 61666.49599868012, 64876.58648211796, -29882.360086722387, -829.3391262697132, 16606.80968842622, 7567.719527211133, 27408.871341809197, 4720.062580116103, 37544.828658679566, 46292.429720452994, 36793.1841961365, 45923.2906607736, 23655.789930318588, 25961.215908672322, -5828.574994632601, -474.97456967527506, -0.10200000000000001, 0.988, 0.271, 192.0, 126.0, 96.0, 15.0, 104.0, 4.0, 72.0, 0.0, 0.0, 0.0, 1.7068828880277278E9, 0.0, 2024-02-02 15:08:08.027
36.0, 61670.16168477079, 64881.19094147575, -29881.711886133184, -823.0806378222272, 16612.308217562226, 7574.827381947921, 27418.32612971379, 4728.757408709217, 37531.52937072866, 46276.090595256166, 36784.15409137656, 45913.724114146724, 23645.77634880261, 25953.28103939069, -5838.476817426303, -485.32342735808226, -0.10200000000000001, 0.988, 0.271, 192.0, 0.0, 0.0, 0.0, 0.0, 0.0, 0.0, 0.0, 0.0, 0.0, 1.7068828880366416E9, 0.0, 2024-02-02 15:08:08.036
38.0, 61668.66411789228, 64881.54856938703, -29888.59622342542, -824.7123151674647, 16603.233409313372, 7569.462963278647, 27404.75862082942, 4722.163644094902, 37540.40301327741, 46295.89424084357, 36788.49032980089, 45924.855282885466, 23653.308886684048, 25964.4792633628, -5832.240680723272, -476.203915620317, -0.10200000000000001, 0.988, 0.271, 192.0, 0.0, 0.0, 0.0, 0.0, 0.0, 0.0, 0.0, 0.0, 0.0, 1.7068828880434706E9, 0.0, 2024-02-02 15:08:08.043
40.0, 61679.124734297366, 64890.28810146906, -29881.555423921996, -815.3245824962357, 16608.10608960463, 7577.777812216022, 27405.406821418623, 4725.024667385182, 37532.62460620697, 46284.38309244908, 36784.82464371021, 45918.641497926896, 23644.368188901924, 25954.912716735926, -5840.197901749361, -482.5965145345348, -0.10200000000000001, 0.988, 0.271, 192.0, 0.0, 0.0, 0.0, 0.0, 0.0, 0.0, 0.0, 0.0, 0.0, 1.706882888051497E9, 0.0, 2024-02-02 15:08:08.051
42.0, 61681.24815002062, 64894.043194537546, -29880.81781635497, -817.0456668192944, 16607.323778548693, 7572.994538902586, 27409.27367320939, 4723.527100506675, 37546.39328079144, 46295.98364782139, 36801.29787937378, 45932.119599833444, 23657.287497197092, 25969.66486807643, -5826.049247509151, -472.7170434852891, -0.10200000000000001, 0.988, 0.271, 192.0, 0.0, 0.0, 0.0, 0.0, 0.0, 0.0, 0.0, 0.0, 0.0, 1.7068828880598042E9, 0.0, 2024-02-02 15:08:08.059
44.0, 61680.242321520134, 64891.56215090301, -29884.707019890193, -823.281803522325, 16604.172182580493, 7567.764230700044, 27406.166780730106, 4718.252088815223, 37537.85491440951, 46298.75526413385, 36793.40771358105, 45923.55888170706, 23650.11258722694, 25959.405417371443, -5838.990907548775, -485.59164829154594, -0.10300000000000001, 0.988, 0.2715, 192.0, 126.0, 96.0, 15.0, 112.0, 4.0, 64.0, 0.0, 0.0, 0.0, 1.7068828880675163E9, 0.0, 2024-02-02 15:08:08.067
46.0, 61688.40070824632, 64899.22879925118, -29878.62734539835, -814.5646231847553, 16608.262551815817, 7574.536809270002, 27402.165818472604, 4721.873071416983, 37539.9112748994, 46291.110967530134, 36799.934422962004, 45926.50931197516, 23655.16408147384, 25960.165376682926, -5838.789741848676, -484.42935757987, -0.10300000000000001, 0.988, 0.2715, 192.0, 0.0, 0.0, 0.0, 0.0, 0.0, 0.0, 0.0, 0.0, 0.0, 1.706882888075585E9, 0.0, 2024-02-02 15:08:08.075
48.0, 61686.456106478705, 64899.38526146237, -29880.236670999133, -814.7881406293084, 16608.262551815817, 7571.429916790715, 27410.257149965426, 4724.801149940628, 37541.72176620028, 46302.867985113626, 36802.21430089644, 45934.71240219026, 23660.126168742918, 25965.99918198576, -5836.219291236316, -480.4060435779147, -0.10300000000000001, 0.988, 0.2715, 192.0, 0.0, 0.0, 0.0, 0.0, 0.0, 0.0, 0.0, 0.0, 0.0, 1.7068828880836873E9, 0.0, 2024-02-02 15:08:08.083
50.0, 61696.78261241706, 64912.013997079615, -29870.759531350082, -804.7969108577861, 16618.7231682209, 7582.695195996189, 27421.455373937533, 4736.804036713128, 37543.93458890136, 46303.29266825828, 36807.26579514334, 45940.859131915466, 23663.925965300317, 25966.848548275062, -5826.563337631624, -473.8122789635991, -0.10300000000000001, 0.988, 0.2715, 192.0, 0.0, 0.0, 0.0, 0.0, 0.0, 0.0, 0.0, 0.0, 0.0, 1.706882888091882E9, 0.0, 2024-02-02 15:08:08.091
52.0, 61687.506638468105, 64901.19575276325, -29874.358162207387, -811.2342132609145, 16608.061386115718, 7574.0897743808955, 27409.586597631765, 4727.6174697419965, 37546.12505985797, 46306.980706093396, 36810.66326030055, 45944.59187323951, 23666.407008934857, 25969.083722720592, -5823.389389918971, -466.8608864379986, -0.10300000000000001, 0.988, 0.2715, 192.0, 0.0, 0.0, 0.0, 0.0, 0.0, 0.0, 0.0, 0.0, 0.0, 1.7068828880986023E9, 0.0, 2024-02-02 15:08:08.098
54.0, 61688.3113012685, 64902.38039521938, -29873.218223240165, -807.4567684479676, 16605.468583758902, 7576.347300570882, 27405.116248740705, 4725.158777851913, 37536.089126597544, 46307.76301714934, 36806.21526315394, 45937.014631869155, 23657.354552430457, 25963.71930405132, -5831.413666178425, -471.91238068489804, -0.0985, 0.987, 0.27275000000000005, 192.0, 126.5, 8.0, 15.0, 104.0, 4.0, 72.0, 0.0, 0.0, 0.0, 1.7068828881075904E9, 0.0, 2024-02-02 15:08:08.107
56.0, 61692.312263526, 64903.78855512006, -29869.351371449397, -793.576335141222, 16613.17993559598, 7588.730166999122, 27417.7226326135, 4735.50763553472, 37541.34178654454, 46309.841729383676, 36818.79929528228, 45947.58700699652, 23664.194186233784, 25974.98458325679, -5824.194052719361, -460.22241833477244, -0.0985, 0.987, 0.27275000000000005, 192.0, 0.0, 0.0, 0.0, 0.0, 0.0, 0.0, 0.0, 0.0, 0.0, 1.706882888115738E9, 0.0, 2024-02-02 15:08:08.115
58.0, 61670.049926048516, 64880.09570599744, -29882.650659400304, -804.5063381798672, 16607.10026110414, 7579.811820961455, 27410.14539124315, 4727.013972641704, 37531.37290851747, 46311.54046196228, 36806.55053932077, 45943.78721043911, 23658.15921523085, 25974.93987976788, -5830.921927800408, -461.3176538130825, -0.0985, 0.987, 0.27275000000000005, 192.0, 0.0, 0.0, 0.0, 0.0, 0.0, 0.0, 0.0, 0.0, 0.0, 1.7068828881237214E9, 0.0, 2024-02-02 15:08:08.123
60.0, 61646.87116704836, 64855.46408360769, -29876.90626107529, -801.9805910564174, 16616.95738040893, 7590.317140855449, 27422.684719882574, 4738.391010569455, 37516.21842577677, 46294.48608094288, 36797.90041421657, 45935.271195801644, 23655.320543685026, 25970.134254709992, -5828.9773260327975, -464.1116218699959, -0.0985, 0.987, 0.27275000000000005, 192.0, 0.0, 0.0, 0.0, 0.0, 0.0, 0.0, 0.0, 0.0, 0.0, 1.7068828881315908E9, 0.0, 2024-02-02 15:08:08.131
62.0, 61621.3454748804, 64824.03753090353, -29875.475749430152, -806.2944777362917, 16617.33736006467, 7590.451251322181, 27419.4213651921, 4740.55912978162, 37514.2514722647, 46292.675589642, 36798.21333863895, 45932.00784111117, 23663.993020533686, 25978.694972836372, -5818.874337538999, -454.5003717542138, -0.0985, 0.987, 0.27275000000000005, 192.0, 0.0, 0.0, 0.0, 0.0, 0.0, 0.0, 0.0, 0.0, 0.0, 1.7068828881396196E9, 0.0, 2024-02-02 15:08:08.139
64.0, 61588.71192797565, 64784.38553623981, -29880.57194716596, -814.5199196958447, 16614.29752281875, 7589.35601584387, 27421.634187893178, 4740.022687914692, 37498.04645753461, 46285.031293038286, 36786.031637910804, 45917.14393104839, 23659.612078620445, 25973.308202422646, -5821.7577125737325, -455.2156275767836, -0.09525, 0.9895, 0.27137500000000003, 192.0, 126.5, 16.0, 15.5, 0.0, 4.0, 56.0, 0.0, 0.0, 0.0, 1.7068828881487665E9, 0.0, 2024-02-02 15:08:08.148
66.0, 61565.08613408639, 64753.808349824954, -29880.639002399326, -813.4246842175346, 16611.928237906486, 7588.618408276846, 27408.133734242172, 4734.837083201061, 37480.03095150363, 46253.984719989865, 36774.207565093944, 45897.40734069435, 23652.459520394747, 25965.865071519027, -5825.311639942127, -461.9882061467417, -0.09525, 0.9895, 0.27137500000000003, 192.0, 0.0, 0.0, 0.0, 0.0, 0.0, 0.0, 0.0, 0.0, 0.0, 1.7068828881548953E9, 0.0, 2024-02-02 15:08:08.154
68.0, 61544.678991398694, 64734.07175947091, -29890.317307748475, -820.0408005763055, 16606.586170981667, 7577.867219193843, 27412.00058603294, 4727.84098718655, 37477.46050089127, 46258.25390318083, 36772.03944588178, 45897.47439592772, 23657.48866289719, 25970.268365176722, -5824.305811441638, -459.2836450676495, -0.09525, 0.9895, 0.27137500000000003, 192.0, 0.0, 0.0, 0.0, 0.0, 0.0, 0.0, 0.0, 0.0, 0.0, 1.7068828881636677E9, 0.0, 2024-02-02 15:08:08.163
70.0, 61529.27863946899, 64716.99502670706, -29899.705040419703, -827.3721727576462, 16599.925351133985, 7570.02175689003, 27398.455428893023, 4716.732170192262, 37459.467346604746, 46239.05375469372, 36754.94036137347, 45879.68240734129, 23642.982380745696, 25954.309219635634, -5840.019087793718, -476.8297644650656, -0.09525, 0.9895, 0.27137500000000003, 192.0, 0.0, 0.0, 0.0, 0.0, 0.0, 0.0, 0.0, 0.0, 0.0, 1.7068828881716824E9, 0.0, 2024-02-02 15:08:08.171
72.0, 61522.99779927705, 64710.311855114924, -29895.055877573002, -821.7842366438194, 16606.966150637407, 7570.245274334583, 27410.5700743878, 4721.068408616592, 37454.907590735864, 46235.20925464741, 36755.16387881802, 45876.41905265082, 23647.20686044775, 25954.21981265781, -5835.39227669147, -474.1252033859734, -0.09525, 0.9895, 0.27137500000000003, 192.0, 0.0, 0.0, 0.0, 0.0, 0.0, 0.0, 0.0, 0.0, 0.0, 1.7068828881796684E9, 0.0, 2024-02-02 15:08:08.179
74.0, 61516.40403466273, 64708.009625436025, -29892.217206027177, -821.314850010258, 16609.558952994223, 7571.11699236834, 27417.074432024296, 4721.001353383226, 37453.678244790826, 46251.21310367741, 36755.45445149594, 45878.83304105199, 23651.811319805543, 25956.94672548136, -5832.575956890101, -472.4041190629148, -0.094625, 0.98875, 0.2726875, 192.0, 126.5, 8.0, 15.0, 112.0, 4.0, 72.0, 0.0, 0.0, 0.0, 1.706882888188014E9, 0.0, 2024-02-02 15:08:08.188
76.0, 61521.544935887454, 64712.01058769353, -29890.943156593225, -822.5441959552999, 16608.70958670492, 7571.608730746357, 27411.732365099477, 4719.101455104525, 37449.610227299956, 46241.44539135044, 36759.544820731266, 45879.36948291892, 23652.884203539397, 25957.349056881554, -5832.643012123467, -476.69565399833374, -0.094625, 0.98875, 0.2726875, 192.0, 0.0, 0.0, 0.0, 0.0, 0.0, 0.0, 0.0, 0.0, 0.0, 1.7068828881957147E9, 0.0, 2024-02-02 15:08:08.195
78.0, 61514.146508472746, 64700.678253254686, -29901.1579038093, -832.8483501491964, 16595.544409220747, 7562.511570753047, 27391.772257300887, 4709.579611966564, 37448.202067399274, 46246.161609430506, 36756.3261695297, 45880.73293933069, 23650.91725002733, 25955.762083025227, -5839.01325929323, -480.58485753355717, -0.094625, 0.98875, 0.2726875, 192.0, 0.0, 0.0, 0.0, 0.0, 0.0, 0.0, 0.0, 0.0, 0.0, 1.7068828882037156E9, 0.0, 2024-02-02 15:08:08.203
80.0, 61521.522584143, 64705.72974750159, -29901.314366020488, -832.1107425821714, 16601.154697079026, 7565.998442888074, 27403.99866151794, 4718.117978348491, 37445.31869236454, 46230.44833307843, 36754.716843928916, 45874.42974739429, 23648.6820755818, 25946.75433000974, -5840.6002331495565, -484.2281918797722, -0.094625, 0.98875, 0.2726875, 192.0, 0.0, 0.0, 0.0, 0.0, 0.0, 0.0, 0.0, 0.0, 0.0, 1.7068828882107067E9, 0.0, 2024-02-02 15:08:08.210
82.0, 61516.247572451546, 64697.75017473104, -29909.696270191227, -839.5315217413332, 16591.789316152255, 7558.130628839806, 27387.10074270973, 4709.780777666661, 37443.821125486036, 46224.6592312645, 36752.10168982764, 45869.5794188475, 23649.531441871102, 25941.70283576284, -5841.20373024985, -483.0435494236409, -0.094625, 0.98875, 0.2726875, 192.0, 0.0, 0.0, 0.0, 0.0, 0.0, 0.0, 0.0, 0.0, 0.0, 1.7068828882197924E9, 0.0, 2024-02-02 15:08:08.219
84.0, 61509.22912469258, 64690.57526476089, -29917.474677261675, -844.7841816883305, 16584.882627115563, 7551.626271203312, 27387.167797943093, 4703.656399685908, 37436.37799458241, 46218.84777770612, 36740.05409956624, 45856.83892450797, 23639.137880699385, 25931.55514378013, -5851.843160610576, -490.68784602735593, -0.09131249999999999, 0.986375, 0.27234375, 192.0, 126.5, 32.0, 15.0, 96.0, 4.0, 64.0, 0.0, 0.0, 0.0, 1.706882888227756E9, 0.0, 2024-02-02 15:08:08.227
86.0, 61528.250459224044, 64711.76471850452, -29911.35029928092, -832.5354257268222, 16590.291749273747, 7561.081059107907, 27389.09004796625, 4707.925582876871, 37432.24292185818, 46212.63399274755, 36742.51279145632, 45857.665939052815, 23636.76859578712, 25930.303446090635, -5850.479704198802, -490.03964543815204, -0.09131249999999999, 0.986375, 0.27234375, 192.0, 0.0, 0.0, 0.0, 0.0, 0.0, 0.0, 0.0, 0.0, 0.0, 1.706882888234768E9, 0.0, 2024-02-02 15:08:08.234
88.0, 61543.67316289821, 64732.57419259241, -29910.433877758252, -828.7579809138753, 16591.364633007604, 7560.5893207298905, 27393.918024768594, 4709.132577077458, 37440.55777079556, 46240.52896982777, 36751.498192727355, 45876.39670090636, 23641.01542723363, 25942.261629374225, -5848.713916386833, -485.4351860803588, -0.09131249999999999, 0.986375, 0.27234375, 192.0, 0.0, 0.0, 0.0, 0.0, 0.0, 0.0, 0.0, 0.0, 0.0, 1.7068828882430134E9, 0.0, 2024-02-02 15:08:08.243
90.0, 61555.29607001496, 64746.72284683262, -29906.276453289564, -825.025239589839, 16596.90786563252, 7565.730221954611, 27396.287309680858, 4711.703027689819, 37445.81043074255, 46243.8146762627, 36760.863573654126, 45885.09152949948, 23646.089273224985, 25943.89330671946, -5841.427247694403, -483.3117703571046, -0.09131249999999999, 0.986375, 0.27234375, 192.0, 0.0, 0.0, 0.0, 0.0, 0.0, 0.0, 0.0, 0.0, 0.0, 1.7068828882517898E9, 0.0, 2024-02-02 15:08:08.251
92.0, 61564.30382303045, 64757.04935277097, -29912.356127781408, -833.2283298049367, 16595.231484798373, 7563.718564953633, 27396.443771892045, 4709.937239877849, 37450.81722150055, 46247.703879797926, 36764.484556255884, 45889.51717490163, 23651.096063982972, 25946.351998609545, -5841.606061650045, -482.79768023463254, -0.09131249999999999, 0.986375, 0.27234375, 192.0, 0.0, 0.0, 0.0, 0.0, 0.0, 0.0, 0.0, 0.0, 0.0, 1.7068828882588246E9, 0.0, 2024-02-02 15:08:08.258
94.0, 61576.2843580585, 64772.98614656761, -29911.35029928092, -828.6015187026882, 16598.76306042231, 7569.351204556371, 27406.457353408023, 4717.26861205919, 37452.56065756806, 46258.23155143637, 36759.45541375344, 45886.611448122436, 23649.799662804566, 25947.46958583231, -5848.11041928654, -489.3467413600375, -0.08765624999999999, 0.9841875, 0.269171875, 192.0, 126.5, 48.0, 15.0, 88.0, 4.0, 40.0, 0.0, 0.0, 0.0, 1.7068828882667973E9, 0.0, 2024-02-02 15:08:08.266
96.0, 61588.26489308655, 64785.614882184855, -29904.82358989997, -823.4159139890569, 16603.702795946934, 7572.9721871581305, 27414.146353500648, 4725.762274952206, 37455.064052947055, 46257.18101944697, 36768.08318711319, 45891.998218536166, 23654.739398329188, 25950.621181800507, -5836.398105191959, -478.34968308802644, -0.08765624999999999, 0.9841875, 0.269171875, 192.0, 0.0, 0.0, 0.0, 0.0, 0.0, 0.0, 0.0, 0.0, 0.0, 1.70688288827584E9, 0.0, 2024-02-02 15:08:08.275
98.0, 61599.776041481025, 64796.231960801124, -29901.068496831478, -823.63943143361, 16601.154697079026, 7568.8594661783545, 27403.439867906556, 4720.2190423272905, 37459.55675358257, 46276.358816189626, 36772.01709413732, 45896.93795406079, 23657.466311152737, 25954.66684754692, -5833.626488879501, -475.5110115422024, -0.08765624999999999, 0.9841875, 0.269171875, 192.0, 0.0, 0.0, 0.0, 0.0, 0.0, 0.0, 0.0, 0.0, 0.0, 1.7068828882838535E9, 0.0, 2024-02-02 15:08:08.283
100.0, 61616.51749807805, 64814.15805985428, -29895.189988039732, -816.7327423969201, 16603.412223269013, 7573.508629025058, 27403.462219651014, 4722.074237117081, 37462.01544547265, 46274.86124931112, 36777.51562327333, 45903.64347739738, 23660.59555537648, 25951.649362045453, -5834.453503424347, -479.9590086888086, -0.08765624999999999, 0.9841875, 0.269171875, 192.0, 0.0, 0.0, 0.0, 0.0, 0.0, 0.0, 0.0, 0.0, 0.0, 1.706882888290865E9, 0.0, 2024-02-02 15:08:08.290
102.0, 61628.855661017384, 64824.77513847055, -29896.21816828468, -815.8833761076183, 16600.148868578537, 7572.614559246846, 27403.66338535111, 4723.348286551033, 37473.236021189216, 46287.892316328565, 36790.68080075751, 45915.60166068097, 23669.11157001395, 25963.875766262507, -5829.603174877546, -474.23696210824994, -0.08765624999999999, 0.9841875, 0.269171875, 192.0, 0.0, 0.0, 0.0, 0.0, 0.0, 0.0, 0.0, 0.0, 0.0, 1.706882888299097E9, 0.0, 2024-02-02 15:08:08.299
104.0, 61634.26478317557, 64832.19591762972, -29898.520397963573, -813.7152568954536, 16599.81359241171, 7574.916788925742, 27405.317414440804, 4727.483359275265, 37470.24088743221, 46294.35197047615, 36785.830472210706, 45913.76881763564, 23662.54015714409, 25958.019609215215, -5842.343669217071, -478.77436623267727, -0.085828125, 0.98609375, 0.26858593750000004, 192.0, 126.5, 48.0, 15.0, 112.0, 4.0, 48.0, 0.0, 0.0, 0.0, 1.7068828883078816E9, 0.0, 2024-02-02 15:08:08.307
106.0, 61649.08398974944, 64850.12201668287, -29889.110313547888, -802.5617364122554, 16608.933104149473, 7581.667015751245, 27409.65365286513, 4735.999373912737, 37476.097044479495, 46298.19647052246, 36801.85667298516, 45926.263442786156, 23673.06782878254, 25969.3295919096, -5831.681887111889, -466.30209282661593, -0.085828125, 0.98609375, 0.26858593750000004, 192.0, 0.0, 0.0, 0.0, 0.0, 0.0, 0.0, 0.0, 0.0, 0.0, 1.7068828883148906E9, 0.0, 2024-02-02 15:08:08.314
108.0, 61641.01501000107, 64837.98501944364, -29905.695307933725, -818.8561581201742, 16596.885513888064, 7562.198646330673, 27401.539969627855, 4720.956649894315, 37473.61600084496, 46306.757188648844, 36795.24055662639, 45921.05548632807, 23670.855006081463, 25965.216870929824, -5838.812093593132, -471.95708417380865, -0.085828125, 0.98609375, 0.26858593750000004, 192.0, 0.0, 0.0, 0.0, 0.0, 0.0, 0.0, 0.0, 0.0, 0.0, 1.706882888322904E9, 0.0, 2024-02-02 15:08:08.322
110.0, 61653.10730375139, 64849.67498179377, -29900.91203462029, -815.3916377296016, 16603.90396164703, 7570.491143523592, 27403.462219651014, 4728.22096684229, 37464.094157707, 46289.59104890717, 36785.42814081051, 45908.27028849963, 23660.372037931924, 25950.33060912259, -5848.870378598021, -485.34577910253756, -0.085828125, 0.98609375, 0.26858593750000004, 192.0, 0.0, 0.0, 0.0, 0.0, 0.0, 0.0, 0.0, 0.0, 0.0, 1.7068828883310888E9, 0.0, 2024-02-02 15:08:08.331
112.0, 61660.97511779966, 64857.45338886421, -29896.128761306856, -815.5480999407888, 16610.162450094514, 7574.0897743808955, 27422.461202438022, 4739.106266392025, 37475.471195634746, 46301.236307768384, 36799.19681539498, 45920.40728573886, 23674.811264850054, 25964.501615107252, -5832.888881312476, -470.9065521844092, -0.085828125, 0.98609375, 0.26858593750000004, 192.0, 0.0, 0.0, 0.0, 0.0, 0.0, 0.0, 0.0, 0.0, 0.0, 1.7068828883399353E9, 0.0, 2024-02-02 15:08:08.339
114.0, 61654.56016714098, 64854.83823476294, -29906.522322478573, -826.7239721684423, 16601.71349069041, 7564.947910898675, 27418.393184947156, 4729.65147848743, 37469.43622463181, 46300.051665312254, 36790.90431820206, 45915.10992230295, 23669.290383969594, 25955.13623418048, -5834.386448190981, -478.03675866565214, -0.0859140625, 0.988046875, 0.26729296875, 192.0, 126.5, 40.0, 15.0, 120.0, 4.0, 40.0, 0.0, 0.0, 0.0, 1.7068828883469243E9, 0.0, 2024-02-02 15:08:08.346
116.0, 61667.34536496942, 64870.93149077076, -29902.476656732164, -821.2030912879815, 16606.47441225939, 7571.83224819091, 27412.872304066696, 4733.607737256019, 37467.37986414193, 46289.926325074, 36790.39022807959, 45911.46658795674, 23667.68105836881, 25953.079873690593, -5840.622584894012, -483.3788255904705, -0.0859140625, 0.988046875, 0.26729296875, 192.0, 0.0, 0.0, 0.0, 0.0, 0.0, 0.0, 0.0, 0.0, 0.0, 1.706882888354967E9, 0.0, 2024-02-02 15:08:08.354
118.0, 61666.22777774665, 64871.28911868205, -29908.891607390837, -825.896957623596, 16599.724185433886, 7563.360937042348, 27409.385431931667, 4726.298716819134, 37473.101910722486, 46299.1799472785, 36787.61861176713, 45915.86988161444, 23668.59747989148, 25956.209117914335, -5846.2328727522945, -484.94344770234204, -0.0859140625, 0.988046875, 0.26729296875, 192.0, 0.0, 0.0, 0.0, 0.0, 0.0, 0.0, 0.0, 0.0, 0.0, 1.7068828883639832E9, 0.0, 2024-02-02 15:08:08.363
120.0, 61677.023670318566, 64882.82261882098, -29898.989784597135, -814.5869749292106, 16606.80968842622, 7575.609693003857, 27421.924760571095, 4738.70393499183, 37477.81812880256, 46298.9787815784, 36791.59722228017, 45917.6356694264, 23667.882224068908, 25958.533699337688, -5842.321317472615, -479.9590086888086, -0.0859140625, 0.988046875, 0.26729296875, 192.0, 0.0, 0.0, 0.0, 0.0, 0.0, 0.0, 0.0, 0.0, 0.0, 1.7068828883713024E9, 0.0, 2024-02-02 15:08:08.371
122.0, 61678.29771975252, 64886.39889793383, -29895.033525828545, -813.5364429398112, 16606.139136092563, 7578.224847105128, 27427.110365284727, 4744.64949901694, 37491.698562109304, 46307.07011307122, 36799.688553773, 45924.09532357399, 23670.653840381365, 25967.116769208526, -5835.660497624934, -469.52074402818016, -0.0859140625, 0.988046875, 0.26729296875, 192.0, 0.0, 0.0, 0.0, 0.0, 0.0, 0.0, 0.0, 0.0, 0.0, 1.7068828883790033E9, 0.0, 2024-02-02 15:08:08.379
124.0, 61678.76710638608, 64884.92368279978, -29903.504836977107, -820.7784081433307, 16600.394737767547, 7573.821553447432, 27416.493286668458, 4737.876920446983, 37504.93079482685, 46316.56960446473, 36800.31440261775, 45925.70464917477, 23667.435189179803, 25966.42386513041, -5837.783913348188, -468.0455288941299, -0.08895703125, 0.9890234375, 0.26864648437500005, 192.0, 126.5, 16.0, 15.0, 120.0, 4.0, 56.0, 0.0, 0.0, 0.0, 1.7068828883870206E9, 0.0, 2024-02-02 15:08:08.387
126.0, 61683.7068419107, 64890.86924682489, -29903.795409655027, -819.7278761539312, 16602.80872616872, 7575.564989514946, 27415.979196545984, 4736.759333224218, 37509.75877162919, 46299.76109263433, 36795.0840944152, 45922.35188750648, 23660.72966584321, 25958.80192027115, -5844.422381451414, -474.7957557196326, -0.08895703125, 0.9890234375, 0.26864648437500005, 192.0, 0.0, 0.0, 0.0, 0.0, 0.0, 0.0, 0.0, 0.0, 0.0, 1.70688288839599E9, 0.0, 2024-02-02 15:08:08.395
128.0, 61680.62230117587, 64894.043194537546, -29907.0587643455, -821.8736436216407, 16597.891342388553, 7570.088812123396, 27407.84316156425, 4730.389086054455, 37528.98127186076, 46309.148825305565, 36797.14045490509, 45928.09628583149, 23660.372037931924, 25964.971001740814, -5846.456390196847, -474.59459001953485, -0.08895703125, 0.9890234375, 0.26864648437500005, 192.0, 0.0, 0.0, 0.0, 0.0, 0.0, 0.0, 0.0, 0.0, 0.0, 1.706882888403272E9, 0.0, 2024-02-02 15:08:08.403
130.0, 61693.87688563787, 64906.44841271024, -29898.945081108224, -814.2069952734704, 16604.57451398069, 7575.766155215044, 27406.94909178604, 4729.919699420893, 37547.75673720321, 46304.030275825295, 36803.2871846303, 45933.34894577849, 23662.45075016627, 25968.323763409113, -5841.762523861233, -472.4711742962807, -0.08895703125, 0.9890234375, 0.26864648437500005, 192.0, 0.0, 0.0, 0.0, 0.0, 0.0, 0.0, 0.0, 0.0, 0.0, 1.7068828884110565E9, 0.0, 2024-02-02 15:08:08.411
132.0, 61681.11403955389, 64893.99849104864, -29907.48344749015, -824.9581843564731, 16591.543446963246, 7562.600977730868, 27393.202768946026, 4716.59805972553, 37562.71005424381, 46300.185775778984, 36805.79058000929, 45935.45000975728, 23662.473101910724, 25970.46953087682, -5844.377677962503, -474.90751444190914, -0.08895703125, 0.9890234375, 0.26864648437500005, 192.0, 0.0, 0.0, 0.0, 0.0, 0.0, 0.0, 0.0, 0.0, 0.0, 1.706882888420051E9, 0.0, 2024-02-02 15:08:08.420
134.0, 61685.003243089115, 64897.55241841703, -29897.49221771863, -817.2691842638475, 16599.09833658914, 7569.082983622907, 27396.242606191947, 4721.113112105502, 37567.7168450018, 46302.91268860253, 36801.119065418134, 45931.002012610676, 23656.236965207692, 25970.782455299195, -5849.876207098509, -479.82489822207674, -0.08895703125, 0.9890234375, 0.26864648437500005, 192.0, 0.0, 0.0, 0.0, 0.0, 0.0, 0.0, 0.0, 0.0, 0.0, 1.7068828884270892E9, 0.0, 2024-02-02 15:08:08.427
136.0, 61688.82539139097, 64893.37264220389, -29886.025772813056, -807.9038033370738, 16611.503554761835, 7575.363823814849, 27412.62643487769, 4731.931356421871, 37585.933516732875, 46299.001133322854, 36813.54663533528, 45937.171094080346, 23667.748113602178, 25978.605565858554, -5834.408799935437, -468.6937294833338, -0.092, 0.984, 0.262, 192.0, 126.5, 16.0, 15.0, 96.0, 4.0, 24.0, 0.0, 0.0, 0.0, 1.706882888435063E9, 0.0, 2024-02-02 15:08:08.435
138.0, 61668.86528359238, 64866.12586571287, -29894.139456050332, -815.2351755184145, 16602.89813314654, 7566.065498121441, 27394.588577102255, 4719.973173138282, 37593.04137146966, 46301.68334265749, 36810.86442600065, 45938.0428121141, 23668.932756058308, 25980.796036815173, -5831.5030731562465, -466.05622363760756, -0.092, 0.984, 0.262, 192.0, 0.0, 0.0, 0.0, 0.0, 0.0, 0.0, 0.0, 0.0, 0.0, 1.7068828884431145E9, 0.0, 2024-02-02 15:08:08.443
140.0, 61640.67973383424, 64830.51953679557, -29901.20260729821, -825.7181436679535, 16603.680444202477, 7561.796314930477, 27401.42821090558, 4715.614582969497, 37583.43012135388, 46280.8738685696, 36798.749780505874, 45920.04965782758, 23660.59555537648, 25969.508405865243, -5838.275651726205, -475.24279060873874, -0.092, 0.984, 0.262, 192.0, 0.0, 0.0, 0.0, 0.0, 0.0, 0.0, 0.0, 0.0, 0.0, 1.706882888451073E9, 0.0, 2024-02-02 15:08:08.451
142.0, 61618.46209984567, 64806.245542317105, -29900.800275898015, -828.1097803246714, 16606.295598303746, 7565.193780087684, 27410.123039498692, 4722.968306895293, 37581.932554475374, 46265.786441062264, 36793.40771358105, 45910.304297245064, 23660.17087223183, 25969.553109354154, -5835.124055758007, -473.65581675241197, -0.092, 0.984, 0.262, 192.0, 0.0, 0.0, 0.0, 0.0, 0.0, 0.0, 0.0, 0.0, 0.0, 1.706882888459094E9, 0.0, 2024-02-02 15:08:08.459
144.0, 61590.03068089851, 64772.71792563414, -29903.72835442166, -831.0602105927719, 16606.787336681766, 7564.456172520659, 27412.469972666502, 4722.40951328391, 37574.109443916015, 46259.59500784815, 36782.4330070535, 45897.98848605019, 23653.82297680652, 25967.876728520005, -5835.861663325031, -473.56640977459074, -0.092, 0.984, 0.262, 192.0, 0.0, 0.0, 0.0, 0.0, 0.0, 0.0, 0.0, 0.0, 0.0, 1.7068828884671075E9, 0.0, 2024-02-02 15:08:08.467
146.0, 61566.13666607579, 64745.269983443024, -29908.846903901926, -834.7706001723528, 16602.004063368327, 7560.231692818606, 27397.5166556259, 4716.083969603058, 37569.639095024955, 46242.42886810647, 36780.19783260797, 45888.3325324455, 23655.275840196115, 25966.602679086052, -5832.240680723272, -473.0970231410293, -0.088, 0.986, 0.268, 192.0, 126.5, 32.0, 15.0, 104.0, 4.0, 48.0, 0.0, 0.0, 0.0, 1.7068828884761417E9, 0.0, 2024-02-02 15:08:08.476
148.0, 61548.56819493392, 64728.41676812372, -29915.0606888605, -839.9338531415289, 16599.00892961132, 7558.443553262181, 27402.188170217058, 4715.279306802668, 37562.15126063243, 46237.422077348485, 36766.67502721251, 45875.145003216865, 23645.441072635782, 25961.059446461135, -5845.271747740716, -484.4070058354147, -0.088, 0.986, 0.268, 192.0, 0.0, 0.0, 0.0, 0.0, 0.0, 0.0, 0.0, 0.0, 0.0, 1.7068828884821248E9, 0.0, 2024-02-02 15:08:08.482
150.0, 61536.721770372606, 64715.25159063955, -29915.97711038317, -838.279824051836, 16603.5686854802, 7566.445477777181, 27411.911179055118, 4725.225833085279, 37561.77128097669, 46232.28117612376, 36767.52439350181, 45874.31798867202, 23647.229212192204, 25964.56867034062, -5838.834445337588, -476.9415231873421, -0.088, 0.986, 0.268, 192.0, 0.0, 0.0, 0.0, 0.0, 0.0, 0.0, 0.0, 0.0, 0.0, 1.7068828884913523E9, 0.0, 2024-02-02 15:08:08.491
152.0, 61525.07651151139, 64705.908561457225, -29925.20838084321, -845.2759200663472, 16591.766964407798, 7558.465905006637, 27392.152236956626, 4712.306524790111, 37554.886943684454, 46227.00616443231, 36758.963675375424, 45868.573590347005, 23639.696674310766, 25960.031266216192, -5842.991869806275, -480.54015404464656, -0.088, 0.986, 0.268, 192.0, 0.0, 0.0, 0.0, 0.0, 0.0, 0.0, 0.0, 0.0, 0.0, 1.706882888499124E9, 0.0, 2024-02-02 15:08:08.499
154.0, 61533.21254649312, 64717.68793078518, -29919.754555196116, -839.1068385966825, 16600.730013934375, 7564.612634731846, 27401.405859161125, 4716.732170192262, 37552.00356864972, 46238.65142329352, 36754.53802997327, 45869.199439191754, 23635.762767286633, 25961.908812750436, -5847.842198353076, -488.2068023928169, -0.088, 0.986, 0.268, 192.0, 0.0, 0.0, 0.0, 0.0, 0.0, 0.0, 0.0, 0.0, 0.0, 1.7068828885072074E9, 0.0, 2024-02-02 15:08:08.507
156.0, 61530.1727092472, 64712.547029560454, -29921.63210173036, -838.7492106853975, 16599.47831624488, 7562.891550408787, 27397.963690515007, 4713.602925968519, 37562.35242633253, 46236.371545359085, 36763.0763963552, 45874.78737530558, 23643.71998831272, 25969.62016458752, -5839.43794243788, -482.9988459347303, -0.082, 0.988, 0.274, 192.0, 126.5, 56.0, 15.0, 112.0, 4.0, 72.0, 0.0, 0.0, 0.0, 1.706882888515463E9, 0.0, 2024-02-02 15:08:08.515
158.0, 61537.36997096181, 64725.846317511365, -29919.329872051465, -838.6151002186657, 16597.62312145509, 7561.326928296916, 27400.690603338553, 4714.161719579902, 37554.685777984356, 46240.59602506114, 36757.24259105237, 45874.586209605484, 23634.645180063868, 25966.93795525288, -5846.791666363677, -488.16209890390627, -0.082, 0.988, 0.274, 192.0, 0.0, 0.0, 0.0, 0.0, 0.0, 0.0, 0.0, 0.0, 0.0, 1.7068828885231853E9, 0.0, 2024-02-02 15:08:08.523
160.0, 61547.24944201105, 64735.90460251625, -29917.1617528393, -838.6151002186657, 16598.651301700032, 7561.125762596818, 27396.108495725217, 4711.166585822891, 37561.324246087584, 46241.22187390589, 36764.3280940447, 45879.10126198546, 23635.583953330988, 25967.966135497827, -5843.707125628845, -488.8773547264761, -0.082, 0.988, 0.274, 192.0, 0.0, 0.0, 0.0, 0.0, 0.0, 0.0, 0.0, 0.0, 0.0, 1.7068828885311904E9, 0.0, 2024-02-02 15:08:08.531
162.0, 61562.24746254057, 64752.57900387991, -29912.40083127032, -833.1612745715707, 16603.836906413664, 7566.490181266092, 27403.395164417645, 4717.536832992653, 37571.42723458138, 46248.53089434277, 36770.452472025456, 45889.494823157176, 23639.651970821855, 25975.297507679166, -5835.280517969193, -480.85307846702085, -0.082, 0.988, 0.274, 192.0, 0.0, 0.0, 0.0, 0.0, 0.0, 0.0, 0.0, 0.0, 0.0, 1.7068828885382104E9, 0.0, 2024-02-02 15:08:08.538
164.0, 61565.15318931975, 64754.657716114256, -29923.219075586687, -846.4158590335678, 16595.656167943023, 7557.393021272782, 27394.14154221315, 4707.947934621327, 37575.53995556116, 46251.50367635533, 36765.02099812281, 45883.34809343197, 23634.734587041687, 25967.94378375337, -5842.053096539152, -486.1504419029286, -0.082, 0.988, 0.274, 192.0, 0.0, 0.0, 0.0, 0.0, 0.0, 0.0, 0.0, 0.0, 0.0, 1.7068828885474527E9, 0.0, 2024-02-02 15:08:08.547
166.0, 61581.69348021669, 64772.80733261196, -29917.251159817122, -840.6267572196433, 16603.7698511803, 7564.478524265114, 27402.769315572896, 4716.776873681173, 37579.25034514074, 46244.79815301873, 36766.451509767954, 45883.83983180998, 23634.421662619312, 25967.832025031094, -5841.382544205492, -489.05616868211854, -0.088, 0.992, 0.27, 192.0, 126.5, 32.0, 15.5, 0.0, 4.0, 56.0, 0.0, 0.0, 0.0, 1.706882888555275E9, 0.0, 2024-02-02 15:08:08.555
168.0, 61596.222114112636, 64788.408850241765, -29916.602959227916, -838.5927484742103, 16599.120688333594, 7563.338585297894, 27392.04047823435, 4710.540736978142, 37595.45535987084, 46264.04300499475, 36776.48744302839, 45897.89907907237, 23640.903668511353, 25971.2294901883, -5839.504997671247, -480.85307846702085, -0.088, 0.992, 0.27, 192.0, 0.0, 0.0, 0.0, 0.0, 0.0, 0.0, 0.0, 0.0, 0.0, 1.7068828885632691E9, 0.0, 2024-02-02 15:08:08.563
170.0, 61603.93346594971, 64799.450612002685, -29916.29003480554, -835.3070420392802, 16602.272284301795, 7566.668995221734, 27403.37281267319, 4716.106321347514, 37596.125912204494, 46258.83504853667, 36779.37081806312, 45899.396645950874, 23634.82399401951, 25964.926298251903, -5842.611890150534, -481.9483139453309, -0.088, 0.992, 0.27, 192.0, 0.0, 0.0, 0.0, 0.0, 0.0, 0.0, 0.0, 0.0, 0.0, 1.706882888570458E9, 0.0, 2024-02-02 15:08:08.570
172.0, 61620.76432952456, 64816.236772088625, -29912.713755692694, -828.7579809138753, 16604.552162236236, 7570.446440034681, 27403.66338535111, 4720.263745816201, 37608.9781652663, 46264.57944686168, 36791.70898100245, 45915.40049498087, 23640.277819666604, 25974.671658834417, -5834.140579001973, -472.8064504631103, -0.088, 0.992, 0.27, 192.0, 0.0, 0.0, 0.0, 0.0, 0.0, 0.0, 0.0, 0.0, 0.0, 1.7068828885792549E9, 0.0, 2024-02-02 15:08:08.579
174.0, 61631.806091285485, 64829.871336206365, -29909.986842869144, -827.9533181134842, 16607.23437157087, 7574.425050547726, 27405.742097585455, 4722.230699328268, 37609.87223504451, 46275.73296734488, 36789.71967574593, 45916.339268248, 23636.656837064846, 25976.124522224014, -5837.20276799235, -474.6839969973561, -0.088, 0.992, 0.27, 192.0, 0.0, 0.0, 0.0, 0.0, 0.0, 0.0, 0.0, 0.0, 0.0, 1.706882888587329E9, 0.0, 2024-02-02 15:08:08.587
176.0, 61644.01014375808, 64841.24837413411, -29906.119991078376, -826.4333994905234, 16610.96711289491, 7577.956626171664, 27411.28533021037, 4725.069370874092, 37619.30467120465, 46276.04589176725, 36800.89554797358, 45923.178902051324, 23643.518822612623, 25982.80769381615, -5822.540023629668, -467.68790098284495, -0.09, 0.984, 0.274, 192.0, 126.5, 24.0, 15.0, 96.0, 4.0, 72.0, 0.0, 0.0, 0.0, 1.706882888594527E9, 0.0, 2024-02-02 15:08:08.594
178.0, 61652.92848979575, 64851.84310100593, -29907.595206212427, -829.0038501028837, 16608.731938449375, 7575.140306370296, 27397.784876559363, 4719.928469649371, 37626.6807468749, 46286.05947328323, 36803.220129396934, 45928.11863757594, 23645.664590080334, 25983.634708360998, -5822.271802696205, -463.0834416250517, -0.09, 0.984, 0.274, 192.0, 0.0, 0.0, 0.0, 0.0, 0.0, 0.0, 0.0, 0.0, 0.0, 1.7068828886034377E9, 0.0, 2024-02-02 15:08:08.603
180.0, 61657.19767298671, 64856.33580164144, -29906.902302134313, -830.702582681487, 16613.00112164034, 7575.944969170687, 27418.504943669435, 4724.890556918449, 37624.3338137071, 46285.657141883035, 36803.04131544129, 45925.905814874866, 23642.267124923128, 25980.594871115074, -5826.652744609445, -470.9959591622304, -0.09, 0.984, 0.274, 192.0, 0.0, 0.0, 0.0, 0.0, 0.0, 0.0, 0.0, 0.0, 0.0, 1.7068828886113522E9, 0.0, 2024-02-02 15:08:08.611
182.0, 61662.271518978065, 64859.48739760964, -29909.271587046576, -835.3517455281908, 16610.274208816794, 7571.206399346162, 27411.37473718819, 4719.772007438184, 37625.76432535223, 46283.556077904235, 36803.37659160812, 45923.53652996261, 23643.004732490153, 25979.72315308132, -5827.502110898747, -475.8462877090321, -0.09, 0.984, 0.274, 192.0, 0.0, 0.0, 0.0, 0.0, 0.0, 0.0, 0.0, 0.0, 0.0, 1.706882888619384E9, 0.0, 2024-02-02 15:08:08.619
184.0, 61663.76908585657, 64862.16960694428, -29911.35029928092, -835.9999461173948, 16612.19645883995, 7567.987748144597, 27411.844123821753, 4719.414379526899, 37628.7818108537, 46288.56286866222, 36801.43198984051, 45924.05062008508, 23644.234078435195, 25976.593908857576, -5829.290250455171, -476.2486191092276, -0.09, 0.984, 0.274, 192.0, 0.0, 0.0, 0.0, 0.0, 0.0, 0.0, 0.0, 0.0, 0.0, 1.7068828886267073E9, 0.0, 2024-02-02 15:08:08.626
186.0, 61663.36675445637, 64864.74005755664, -29915.373613282874, -837.2739955513473, 16610.14009835006, 7567.585416744401, 27407.552588886334, 4718.140330092947, 37618.4776566598, 46275.97883653389, 36795.128797904115, 45916.406323481366, 23636.76859578712, 25970.693048321373, -5831.659535367434, -478.5955522770348, -0.088, 0.99, 0.274, 192.0, 126.5, 32.0, 15.0, 120.0, 4.0, 72.0, 0.0, 0.0, 0.0, 1.7068828886353798E9, 0.0, 2024-02-02 15:08:08.635
188.0, 61665.557225412995, 64868.22692969167, -29916.44649701673, -837.3186990402579, 16604.172182580493, 7564.54557949848, 27400.757658571918, 4716.173376580879, 37616.555406636646, 46289.45693844044, 36790.54669029077, 45913.00885832416, 23634.24284866367, 25973.57642335611, -5834.967593546819, -474.4828312972583, -0.088, 0.99, 0.274, 192.0, 0.0, 0.0, 0.0, 0.0, 0.0, 0.0, 0.0, 0.0, 0.0, 1.706882888642372E9, 0.0, 2024-02-02 15:08:08.642
190.0, 61680.01880407558, 64878.21815946319, -29906.276453289564, -830.0767338367384, 16611.078871617185, 7570.133515612307, 27405.94326328555, 4722.5659754950975, 37615.14724673596, 46285.232458738385, 36794.905280459556, 45913.96998333574, 23630.33129338399, 25972.503539622252, -5838.230948237294, -476.2486191092276, -0.088, 0.99, 0.274, 192.0, 0.0, 0.0, 0.0, 0.0, 0.0, 0.0, 0.0, 0.0, 0.0, 1.7068828886505523E9, 0.0, 2024-02-02 15:08:08.650
192.0, 61691.37349025888, 64890.77983984708, -29900.86733113138, -821.5383674548111, 16615.05748213023, 7574.156829614262, 27410.7712400879, 4730.187920354357, 37630.882874832496, 46293.703769886946, 36810.931481234016, 45927.53749222011, 23640.76955804462, 25979.544339125674, -5827.368000432015, -470.07953763956283, -0.088, 0.99, 0.274, 192.0, 0.0, 0.0, 0.0, 0.0, 0.0, 0.0, 0.0, 0.0, 0.0, 1.706882888658396E9, 0.0, 2024-02-02 15:08:08.658
194.0, 61692.93811237075, 64892.09859276994, -29907.595206212427, -825.9863646014172, 16607.23437157087, 7573.128649369318, 27399.058925993315, 4723.348286551033, 37635.219113256826, 46308.70179041646, 36813.434876613006, 45935.56176847956, 23640.300171411058, 25984.081743250103, -5830.2737272112045, -468.47021203878074, -0.088, 0.99, 0.274, 192.0, 0.0, 0.0, 0.0, 0.0, 0.0, 0.0, 0.0, 0.0, 0.0, 1.7068828886674023E9, 0.0, 2024-02-02 15:08:08.667
196.0, 61697.989606617644, 64897.28419748357, -29899.213302041688, -818.2750127643362, 16618.209078098425, 7582.941065185198, 27419.868400081206, 4737.407533813422, 37636.9849010688, 46300.38694147908, 36813.61369056865, 45933.25953880067, 23639.58491558849, 25978.314993180633, -5831.547776645158, -471.97943591826396, -0.092, 0.996, 0.268, 192.0, 126.5, 16.0, 15.5, 16.0, 4.0, 48.0, 0.0, 0.0, 0.0, 1.7068828886744137E9, 0.0, 2024-02-02 15:08:08.674
198.0, 61691.418193747784, 64892.165648003305, -29906.0082323561, -827.2380622909144, 16612.062348373216, 7576.54846627098, 27417.968501802505, 4734.680620989874, 37641.05291855966, 46315.34025851968, 36812.92078649054, 45937.72988769173, 23641.373055144915, 25985.646365361976, -5827.05507600964, -463.97751140326403, -0.092, 0.996, 0.268, 192.0, 0.0, 0.0, 0.0, 0.0, 0.0, 0.0, 0.0, 0.0, 0.0, 1.7068828886827748E9, 0.0, 2024-02-02 15:08:08.682
200.0, 61707.2655805666, 64910.56113369002, -29896.978127596158, -818.0738470642385, 16612.487031517867, 7589.825402477432, 27399.103629482226, 4735.552339023631, 37640.02473831472, 46307.85242412716, 36815.33477489171, 45937.95340513628, 23637.796776032064, 25983.768818827728, -5832.330087701093, -469.0290056501634, -0.092, 0.996, 0.268, 192.0, 0.0, 0.0, 0.0, 0.0, 0.0, 0.0, 0.0, 0.0, 0.0, 1.7068828886914475E9, 0.0, 2024-02-02 15:08:08.691
202.0, 61713.70288296973, 64916.976084348695, -29887.791560625024, -811.2342132609145, 16629.85433695964, 7594.608675790868, 27439.269714268416, 4753.143161909958, 37652.22879078732, 46317.9330608765, 36830.93629252152, 45953.75608846618, 23648.950296515264, 25997.67160387893, -5819.991924761764, -456.6014357330127, -0.092, 0.996, 0.268, 192.0, 0.0, 0.0, 0.0, 0.0, 0.0, 0.0, 0.0, 0.0, 0.0, 1.7068828886985052E9, 0.0, 2024-02-02 15:08:08.698
204.0, 61706.460917766206, 64908.81769762251, -29898.945081108224, -819.4820069649228, 16614.498688518845, 7581.287036095505, 27414.41457443411, 4733.674792489385, 37647.91490410744, 46326.22555806942, 36826.62240584164, 45954.60545475548, 23645.753997058153, 25994.229435232814, -5819.030799750185, -457.9872438892417, -0.092, 0.996, 0.268, 192.0, 0.0, 0.0, 0.0, 0.0, 0.0, 0.0, 0.0, 0.0, 0.0, 1.7068828887064881E9, 0.0, 2024-02-02 15:08:08.706
206.0, 61711.19948759073, 64913.556267447035, -29893.893586861326, -812.3741522281352, 16618.09731937615, 7587.612579776357, 27412.04528952185, 4738.74863848074, 37641.432898215404, 46313.35095326316, 36824.92367326304, 45951.25269308719, 23639.16023244384, 25987.590967129585, -5825.423398664403, -464.42454629237017, -0.092, 0.996, 0.262, 192.0, 126.5, 16.0, 15.5, 16.0, 4.0, 24.0, 0.0, 0.0, 0.0, 1.706882888714497E9, 0.0, 2024-02-02 15:08:08.714
208.0, 61707.17617358878, 64912.88571511337, -29895.16763629528, -816.866852863652, 16619.460775787924, 7582.941065185198, 27417.454411680035, 4737.385182068966, 37644.9868255838, 46329.22069182643, 36824.74485930739, 45956.70651873428, 23642.11066271194, 25994.609414888553, -5818.829634050087, -458.05429912260763, -0.092, 0.996, 0.262, 192.0, 0.0, 0.0, 0.0, 0.0, 0.0, 0.0, 0.0, 0.0, 0.0, 1.7068828887235272E9, 0.0, 2024-02-02 15:08:08.723
210.0, 61700.85062990792, 64908.21420052221, -29891.23372927114, -812.4635592059565, 16627.19447936946, 7590.428899577725, 27424.696376883552, 4743.308394349622, 37642.30461624916, 46319.94471787748, 36824.677804074025, 45951.78913495412, 23644.90463076885, 25994.184731743902, -5813.644029336457, -455.9755868882641, -0.092, 0.996, 0.262, 192.0, 0.0, 0.0, 0.0, 0.0, 0.0, 0.0, 0.0, 0.0, 0.0, 1.7068828887305355E9, 0.0, 2024-02-02 15:08:08.730
212.0, 61695.24034204964, 64901.37456671889, -29894.050049072514, -813.7152568954536, 16624.624028757098, 7585.422108819736, 27418.7731646029, 4737.3181268356, 37643.55631393866, 46312.434531740495, 36823.291995917796, 45949.531608764126, 23647.944468014775, 25994.14002825499, -5809.240735678761, -455.61795897697914, -0.092, 0.996, 0.262, 192.0, 0.0, 0.0, 0.0, 0.0, 0.0, 0.0, 0.0, 0.0, 0.0, 1.7068828887387607E9, 0.0, 2024-02-02 15:08:08.738
214.0, 61678.72240289717, 64883.80609557702, -29906.656432945307, -821.5607191992664, 16616.756214708832, 7582.002291918075, 27412.157048244128, 4729.964402909804, 37636.80608711315, 46316.614307953634, 36815.82651326973, 45945.48594301772, 23641.708331311744, 25994.43060093291, -5816.795625304655, -459.73067995675564, -0.092, 0.996, 0.262, 192.0, 0.0, 0.0, 0.0, 0.0, 0.0, 0.0, 0.0, 0.0, 0.0, 1.7068828887466185E9, 0.0, 2024-02-02 15:08:08.746
216.0, 61654.180187485246, 64856.224042919166, -29916.379441783363, -826.0534198347831, 16610.274208816794, 7580.370614572837, 27402.188170217058, 4724.175301095879, 37623.68561311789, 46296.81066236623, 36806.34937362067, 45932.834855656016, 23632.655874807344, 25992.575406143118, -5825.378695175493, -466.7714794601774, -0.088, 0.99, 0.266, 192.0, 126.5, 32.0, 15.0, 120.0, 4.0, 40.0, 0.0, 0.0, 0.0, 1.7068828887546313E9, 0.0, 2024-02-02 15:08:08.754
218.0, 61624.47471910414, 64825.51274603757, -29921.810915686005, -832.73659142692, 16608.508421004823, 7576.637873248801, 27402.031708005874, 4722.498920261732, 37610.56513912263, 46289.18871750697, 36793.87710021462, 45922.66481192885, 23626.732662526687, 25987.56861538513, -5833.738247601777, -469.6995579838226, -0.088, 0.99, 0.266, 192.0, 0.0, 0.0, 0.0, 0.0, 0.0, 0.0, 0.0, 0.0, 0.0, 1.7068828887626889E9, 0.0, 2024-02-02 15:08:08.762
220.0, 61597.51851529104, 64796.88016139033, -29923.196723842233, -835.6199664616545, 16608.419014027004, 7575.810858703954, 27398.79070505985, 4721.537795250153, 37600.64096458447, 46281.00797903633, 36789.250289112366, 45915.84752986998, 23625.726834026198, 25984.327612439112, -5831.301907456149, -472.1806016183617, -0.088, 0.99, 0.266, 192.0, 0.0, 0.0, 0.0, 0.0, 0.0, 0.0, 0.0, 0.0, 0.0, 1.706882888770976E9, 0.0, 2024-02-02 15:08:08.770
222.0, 61567.030735854, 64763.57606215192, -29922.615578486395, -835.4858559949226, 16610.76594719481, 7573.754498214066, 27410.95005404354, 4724.912908662905, 37585.06179869912, 46257.31512991371, 36782.45535879795, 45906.30333498756, 23623.849287491954, 25977.890310035982, -5830.407837677937, -473.7675754746885, -0.088, 0.99, 0.266, 192.0, 0.0, 0.0, 0.0, 0.0, 0.0, 0.0, 0.0, 0.0, 0.0, 1.706882888779585E9, 0.0, 2024-02-02 15:08:08.779
224.0, 61547.51766294452, 64742.45366364165, -29928.851715189427, -840.2467775639032, 16605.401528525537, 7568.792410944988, 27400.355327171725, 4717.045094614637, 37574.19885089384, 46255.43758337946, 36772.03944588178, 45898.927259317315, 23619.513049067624, 25973.129388467, -5834.721724357811, -477.9026481989203, -0.088, 0.99, 0.266, 192.0, 0.0, 0.0, 0.0, 0.0, 0.0, 0.0, 0.0, 0.0, 0.0, 1.7068828887867713E9, 0.0, 2024-02-02 15:08:08.786
226.0, 61536.18532850568, 64728.26030591253, -29929.92459892328, -842.0796206092383, 16604.485107002867, 7568.725355711622, 27391.392277645147, 4713.759388179707, 37570.980199692276, 46241.28892913925, 36773.42525403801, 45891.39472143588, 23623.15638341384, 25973.688182078386, -5831.3242592006045, -476.74035748724435, -0.082, 0.99, 0.27, 192.0, 126.5, 56.0, 15.0, 120.0, 4.0, 56.0, 0.0, 0.0, 0.0, 1.7068828887947135E9, 0.0, 2024-02-02 15:08:08.794
228.0, 61527.31168595692, 64716.86091624033, -29932.271532091087, -849.2098270904812, 16605.37917678108, 7566.244312077083, 27401.584673116766, 4717.98386788176, 37566.48749905676, 46243.97113847389, 36765.93741964548, 45883.34809343197, 23621.748223513154, 25970.380123898998, -5836.599270892057, -479.1543458884175, -0.082, 0.99, 0.27, 192.0, 0.0, 0.0, 0.0, 0.0, 0.0, 0.0, 0.0, 0.0, 0.0, 1.7068828888026476E9, 0.0, 2024-02-02 15:08:08.802
230.0, 61513.54301137245, 64705.908561457225, -29933.031491402566, -848.4275160345455, 16607.390833782058, 7572.122820868829, 27401.785838816864, 4722.789492939651, 37552.83058319457, 46231.63297553456, 36760.48359399839, 45874.78737530558, 23616.070880421506, 25964.814539529627, -5835.571090647112, -479.2884563551493, -0.082, 0.99, 0.27, 192.0, 0.0, 0.0, 0.0, 0.0, 0.0, 0.0, 0.0, 0.0, 0.0, 1.7068828888106437E9, 0.0, 2024-02-02 15:08:08.810
232.0, 61507.61979909179, 64700.23121836558, -29934.327892580975, -850.6850422245315, 16603.591037224654, 7567.7865824445, 27402.925777784083, 4720.2190423272905, 37548.181420347864, 46235.321013369685, 36764.573963233706, 45877.84956429596, 23618.037833933573, 25970.491882621278, -5830.988983033774, -471.97943591826396, -0.082, 0.99, 0.27, 192.0, 0.0, 0.0, 0.0, 0.0, 0.0, 0.0, 0.0, 0.0, 0.0, 1.7068828888190153E9, 0.0, 2024-02-02 15:08:08.819
234.0, 61510.74904331554, 64703.15929688923, -29940.36286358391, -855.4459637935119, 16597.980749366376, 7564.903207409765, 27394.499170124433, 4713.714684690796, 37545.879190668966, 46233.68933602445, 36756.393224763066, 45871.03228223709, 23615.065051921018, 25965.57449884111, -5843.260090739738, -481.6800930118672, -0.082, 0.99, 0.27, 192.0, 0.0, 0.0, 0.0, 0.0, 0.0, 0.0, 0.0, 0.0, 0.0, 1.7068828888268116E9, 0.0, 2024-02-02 15:08:08.826
236.0, 61520.38264517578, 64712.09999467135, -29937.613599015905, -850.2156555909701, 16602.272284301795, 7566.825457432921, 27398.61189110421, 4714.809920169106, 37544.71689995729, 46225.35213534262, 36759.924800387, 45871.300503170554, 23618.86484847842, 25967.653211075452, -5840.734343616288, -483.64704652393425, -0.084, 0.99, 0.271, 192.0, 126.5, 40.0, 15.0, 120.0, 4.0, 64.0, 0.0, 0.0, 0.0, 1.7068828888357177E9, 0.0, 2024-02-02 15:08:08.835
238.0, 61512.0677962384, 64703.42751782269, -29954.623276546394, -868.0299959218498, 16587.85540912812, 7550.106352580351, 27379.791722272843, 4697.196745538324, 37541.96763538929, 46229.666022022495, 36751.83346889418, 45868.79710779156, 23614.23803737617, 25961.752350539253, -5849.630337909501, -490.77725300517716, -0.084, 0.99, 0.271, 192.0, 0.0, 0.0, 0.0, 0.0, 0.0, 0.0, 0.0, 0.0, 0.0, 1.7068828888426816E9, 0.0, 2024-02-02 15:08:08.842
240.0, 61531.759683103526, 64722.51590758752, -29948.811822988013, -862.1291353856487, 16597.24314179935, 7561.550445741469, 27384.79851303083, 4704.639876441941, 37534.52450448567, 46224.0110306753, 36747.13960255857, 45864.90790425634, 23607.28664485057, 25954.353923124545, -5855.866474612531, -498.1309769309732, -0.084, 0.99, 0.271, 192.0, 0.0, 0.0, 0.0, 0.0, 0.0, 0.0, 0.0, 0.0, 0.0, 1.7068828888506682E9, 0.0, 2024-02-02 15:08:08.850
242.0, 61542.95790707564, 64733.64707632626, -29942.39687232934, -858.5528562727995, 16599.67948194498, 7562.556274241958, 27384.306774652814, 4707.45619624331, 37547.33205405856, 46235.164551158494, 36761.08709109868, 45878.006026507144, 23620.4741740792, 25966.356809897043, -5840.86845408302, -482.7529767457219, -0.084, 0.99, 0.271, 192.0, 0.0, 0.0, 0.0, 0.0, 0.0, 0.0, 0.0, 0.0, 0.0, 1.7068828888589966E9, 0.0, 2024-02-02 15:08:08.858
244.0, 61555.385476992786, 64749.00272476706, -29943.603866529927, -861.8162109632744, 16597.04197609925, 7559.292919551483, 27391.772257300887, 4708.193803810335, 37545.09687961303, 46245.33459488566, 36755.543858473764, 45876.821384051014, 23614.461554820726, 25960.36654238302, -5849.496227442769, -492.7889100061548, -0.084, 0.99, 0.271, 192.0, 0.0, 0.0, 0.0, 0.0, 0.0, 0.0, 0.0, 0.0, 0.0, 1.7068828888667078E9, 0.0, 2024-02-02 15:08:08.866
246.0, 61567.12014283182, 64760.06683827244, -29938.887648449858, -857.1893998610259, 16600.797069167744, 7564.366765542837, 27398.902463782128, 4715.100492847025, 37553.6128942505, 46246.720403041894, 36766.250344067856, 45883.2810381986, 23618.976607200697, 25965.261574418735, -5838.834445337588, -490.06199718260734, -0.084, 0.989, 0.2695, 192.0, 126.5, 48.0, 15.0, 112.0, 4.0, 48.0, 0.0, 0.0, 0.0, 1.7068828888747363E9, 0.0, 2024-02-02 15:08:08.874
248.0, 61575.792619680484, 64769.00753605456, -29944.274418863588, -861.1009551407046, 16598.00310111083, 7561.796314930477, 27394.47681837998, 4714.564050980098, 37551.534182016156, 46256.6669293245, 36763.0763963552, 45881.1799742198, 23617.479040322192, 25961.551184839154, -5842.567186661624, -485.4128343359035, -0.084, 0.989, 0.2695, 192.0, 0.0, 0.0, 0.0, 0.0, 0.0, 0.0, 0.0, 0.0, 0.0, 1.7068828888827212E9, 0.0, 2024-02-02 15:08:08.882
250.0, 61581.69348021669, 64775.22132101314, -29946.911924709315, -865.3701383316683, 16598.964226122407, 7560.477562007614, 27390.677021822576, 4712.619449212486, 37554.86459194, 46256.46576362441, 36764.99864637836, 45881.00116026415, 23620.25065663465, 25960.56770808312, -5841.181378505395, -482.82003197908784, -0.084, 0.989, 0.2695, 192.0, 0.0, 0.0, 0.0, 0.0, 0.0, 0.0, 0.0, 0.0, 0.0, 1.7068828888909953E9, 0.0, 2024-02-02 15:08:08.890
252.0, 61588.600169253375, 64781.05512631597, -29946.196668886743, -865.1019173982046, 16596.550237721236, 7556.633061961301, 27390.341745655747, 4709.579611966564, 37550.416594793394, 46247.23449316436, 36761.08709109868, 45878.05072999606, 23616.51791531061, 25955.13623418048, -5847.976308819808, -488.09504367054035, -0.084, 0.989, 0.2695, 192.0, 0.0, 0.0, 0.0, 0.0, 0.0, 0.0, 0.0, 0.0, 0.0, 1.7068828888987317E9, 0.0, 2024-02-02 15:08:08.898
254.0, 61605.229867128124, 64798.467135246654, -29935.132555381366, -857.3011585833024, 16606.25089481484, 7562.623329475324, 27401.562321372312, 4716.687466703352, 37555.42338555138, 46262.21016194942, 36768.485518513386, 45886.94672428927, 23623.044624691564, 25956.678504547897, -5841.874282583509, -483.93761920185324, -0.084, 0.989, 0.2695, 192.0, 0.0, 0.0, 0.0, 0.0, 0.0, 0.0, 0.0, 0.0, 0.0, 1.706882888906804E9, 0.0, 2024-02-02 15:08:08.906
0.0, 61613.07532943194, 64805.55263823899, -29933.21030535821, -856.3176818272689, 16606.027377370283, 7562.913902153243, 27397.270786436893, 4717.492129503743, 37562.866516455, 46264.82531605069, 36781.494233786376, 45897.65320988336, 23629.839555005976, 25961.059446461135, -5833.559433646135, -479.1990493773281, -0.087, 0.9864999999999999, 0.26975000000000005, 192.0, 126.5, 24.0, 15.0, 96.0, 4.0, 56.0, 0.0, 0.0, 0.0, 1.7068828889147756E9, 0.0, 2024-02-02 15:08:08.914
2.0, 61611.48835557561, 64804.68092020523, -29942.151003140334, -863.9619784309839, 16596.75140342133, 7556.20837881665, 27392.28634742336, 4713.513518990698, 37561.90539144342, 46269.49683064185, 36780.48840528588, 45897.295581972074, 23627.939656727274, 25959.38306562699, -5839.683811626889, -480.9648371892974, -0.087, 0.9864999999999999, 0.26975000000000005, 192.0, 0.0, 0.0, 0.0, 0.0, 0.0, 0.0, 0.0, 0.0, 0.0, 1.7068828889220796E9, 0.0, 2024-02-02 15:08:08.922
4.0, 61625.659361560276, 64819.43307154573, -29933.523229780585, -847.086411367227, 16607.65905471552, 7569.127687111818, 27405.317414440804, 4724.3317633070665, 37559.75962397571, 46267.23930445186, 36782.34360007568, 45897.85437558346, 23625.100985181452, 25957.639629559475, -5843.483608184291, -479.9813604332639, -0.087, 0.9864999999999999, 0.26975000000000005, 192.0, 0.0, 0.0, 0.0, 0.0, 0.0, 0.0, 0.0, 0.0, 0.0, 1.7068828889307883E9, 0.0, 2024-02-02 15:08:08.930
6.0, 61628.58744008392, 64823.81401345897, -29937.099508893432, -845.11945785516, 16600.350034278636, 7563.49504750908, 27395.52735036938, 4717.715646948296, 37567.895658957445, 46276.358816189626, 36794.74881824837, 45916.18280603681, 23632.58881957398, 25969.46370237633, -5836.15223600295, -471.19712486232817, -0.087, 0.9864999999999999, 0.26975000000000005, 192.0, 0.0, 0.0, 0.0, 0.0, 0.0, 0.0, 0.0, 0.0, 0.0, 1.7068828889388113E9, 0.0, 2024-02-02 15:08:08.938
8.0, 61631.49316686311, 64830.76540598457, -29935.177258870277, -845.8123619332746, 16603.14400233555, 7562.198646330673, 27401.65172835013, 4717.2239085702795, 37565.235801367264, 46284.964237804925, 36792.58069903621, 45918.350925248975, 23626.889124737874, 25966.110940708037, -5840.779047105199, -479.06493891059625, -0.087, 0.9864999999999999, 0.26975000000000005, 192.0, 0.0, 0.0, 0.0, 0.0, 0.0, 0.0, 0.0, 0.0, 0.0, 1.706882888947096E9, 0.0, 2024-02-02 15:08:08.947
10.0, 61651.76619908407, 64852.06661845048, -29913.49606674863, -825.2264052899368, 16624.28875259027, 7582.225809362628, 27421.276559981892, 4738.525121036187, 37568.67797001338, 46281.052682525245, 36803.510702074855, 45926.15168406388, 23635.49454635317, 25971.09537972157, -5827.01037252073, -470.75008997322203, -0.0865, 0.98725, 0.26987500000000003, 192.0, 126.5, 40.0, 15.0, 112.0, 4.0, 56.0, 0.0, 0.0, 0.0, 1.7068828889540248E9, 0.0, 2024-02-02 15:08:08.954
