%OpenBCI Raw EXG Data
%Number of channels = 16
%Sample Rate = 125 Hz
%Board = OpenBCI_GUI$BoardCytonSerialDaisy
Sample Index, EXG Channel 0, EXG Channel 1, EXG Channel 2, EXG Channel 3, EXG Channel 4, EXG Channel 5, EXG Channel 6, EXG Channel 7, EXG Channel 8, EXG Channel 9, EXG Channel 10, EXG Channel 11, EXG Channel 12, EXG Channel 13, EXG Channel 14, EXG Channel 15, Accel Channel 0, Accel Channel 1, Accel Channel 2, Other, Other, Other, Other, Other, Other, Other, Analog Channel 0, Analog Channel 1, Analog Channel 2, Timestamp, Other, Timestamp (Formatted)
102.0, 59986.695347630426, 63495.583950946806, -30975.31568709799, -2572.6634350613876, 16988.80100116742, 7979.684529266898, 27975.622174217962, 4927.866748317093, 36717.523541155286, 46985.13263286742, 36494.38607625796, 45060.133345143004, 24328.666845401152, 25448.7574635455, -3558.1965515847864, 144.81695232593447, 0.0, 0.0, 0.0, 192.0, 0.0, 0.0, 0.0, 0.0, 0.0, 0.0, 0.0, 0.0, 0.0, 1.7068828043605917E9, 0.0, 2024-02-02 15:06:44.360
104.0, 59964.70123108641, 63451.059275991836, -30992.973565217682, -2584.599266600522, 16975.03232658295, 7971.10145939606, 27955.550307697096, 4911.952306264914, 36727.60417790463, 46987.747786968685, 36476.10234929351, 45054.567760773636, 24317.692138873594, 25442.007236719997, -3572.568723269549, 135.4739231436161, 0.0, 0.0, 0.0, 192.0, 0.0, 0.0, 0.0, 0.0, 0.0, 0.0, 0.0, 0.0, 0.0, 1.7068828043606348E9, 0.0, 2024-02-02 15:06:44.360
0.0, 30470.993276952897, 32005.798161721013, -11515.171708485093, -692.5017467143234, 8440.421037724142, 4003.733873812422, 14099.659216363338, 2398.632752732367, 18364.72968634721, 23485.715506758155, 18237.168280740774, 22517.862620098906, 12155.146855729445, 12718.880202636743, -1788.7430535248584, 66.38468103226198, -0.063, 0.498, 0.107, 192.0, 126.0, 8.0, 15.5, 16.0, 3.0, 88.0, 0.0, 0.0, 0.0, 1.7068828044647267E9, 0.0, 2024-02-02 15:06:44.464
2.0, 60937.71737071483, 64006.969512339776, -23037.451271706974, -1385.964618440225, 16873.845979433772, 7998.370587631534, 28189.52836865525, 4790.738796083784, 35329.63667269191, 45595.792901014436, 36480.2597737622, 45450.55126554385, 23963.416989256977, 25305.125153675697, -4701.756501407207, 858.7093184839867, -0.063, 0.498, 0.107, 192.0, 0.0, 0.0, 0.0, 0.0, 0.0, 0.0, 0.0, 0.0, 0.0, 1.7068828044717505E9, 0.0, 2024-02-02 15:06:44.471
4.0, 60940.84661493858, 64013.51857346518, -23039.686446152504, -1394.6370952888842, 16879.545674269877, 8001.879811511018, 28189.28249946624, 4792.7728048292165, 35329.16728605834, 45607.57227034239, 36473.24132600323, 45450.75243124395, 23963.93107937945, 25303.605235052735, -4715.681638202863, 851.1991323470036, -0.063, 0.498, 0.107, 192.0, 0.0, 0.0, 0.0, 0.0, 0.0, 0.0, 0.0, 0.0, 0.0, 1.7068828044797027E9, 0.0, 2024-02-02 15:06:44.479
6.0, 60938.94671665988, 64009.986997841246, -23046.302562511275, -1382.4777463051971, 16874.516531767433, 8014.06151223916, 28181.414685417974, 4792.4822321512975, 35328.04969883558, 45616.35650591332, 36476.63879116044, 45451.04300392187, 23961.31592527818, 25322.224238184004, -4703.49993747472, 855.4683155379672, -0.063, 0.498, 0.107, 192.0, 0.0, 0.0, 0.0, 0.0, 0.0, 0.0, 0.0, 0.0, 0.0, 1.7068828044879196E9, 0.0, 2024-02-02 15:06:44.487
8.0, 60925.26744905322, 63997.82764885756, -23072.56586224626, -1397.6545807903506, 16859.831435660297, 8000.426948121423, 28181.14646448451, 4788.525973382709, 35305.98852705819, 45607.57227034239, 36457.528049651155, 45445.58917827478, 23945.334427992635, 25300.028955939884, -4717.961516137304, 856.9658824164728, -0.108, 0.99, 0.226, 192.0, 126.0, 80.0, 15.0, 120.0, 3.5, 8.0, 0.0, 0.0, 0.0, 1.706882804495735E9, 0.0, 2024-02-02 15:06:44.495
10.0, 60933.895222412975, 64012.222172286776, -23053.678638181525, -1410.5962408299733, 16875.388249801188, 8013.189794205403, 28193.305813468196, 4789.889429794483, 35336.43160300632, 45608.48869186505, 36458.37741594046, 45428.51244551092, 23986.640451746043, 25311.897732245652, -4721.761312694706, 838.6151002186657, -0.108, 0.99, 0.226, 192.0, 0.0, 0.0, 0.0, 0.0, 0.0, 0.0, 0.0, 0.0, 0.0, 1.70688280450475E9, 0.0, 2024-02-02 15:06:44.504
12.0, 60929.60368747755, 64003.77321288267, -23069.23545232242, -1404.8741942494148, 16860.569043227322, 7995.9565992303615, 28175.37971441504, 4778.937075011382, 35298.74656185467, 45617.58585185836, 36461.730177608755, 45447.645538764664, 23946.429663470946, 25385.949061626085, -4717.112149848002, 835.8434839062076, -0.108, 0.99, 0.226, 192.0, 0.0, 0.0, 0.0, 0.0, 0.0, 0.0, 0.0, 0.0, 0.0, 1.706882804511781E9, 0.0, 2024-02-02 15:06:44.511
14.0, 60932.64352472348, 64002.74503263772, -23068.52019649985, -1373.5370485230744, 16867.967470642026, 8002.5280121002215, 28181.325278440152, 4787.028406504203, 35318.52785569762, 45624.15726472822, 36464.83707008804, 45449.79130623237, 23972.894128906028, 25260.220499064984, -4719.12380684898, 850.9309114135399, -0.108, 0.99, 0.226, 192.0, 0.0, 0.0, 0.0, 0.0, 0.0, 0.0, 0.0, 0.0, 0.0, 1.7068828045200198E9, 0.0, 2024-02-02 15:06:44.520
16.0, 60934.789292191184, 64012.3115792646, -23061.010010362865, -1387.350426596454, 16873.845979433772, 8006.39486389099, 28180.34180168412, 4789.062415249636, 35302.85928283445, 45619.70926758162, 36451.26956120367, 45444.583349774286, 23944.082730303136, 25286.170874377596, -4729.986754654259, 836.3575740286797, -0.108, 0.99, 0.226, 192.0, 0.0, 0.0, 0.0, 0.0, 0.0, 0.0, 0.0, 0.0, 0.0, 1.706882804527789E9, 0.0, 2024-02-02 15:06:44.527
18.0, 60926.80971942064, 64003.34852973802, -23069.928356400535, -1407.3775896284092, 16871.476694521512, 7995.4872125968, 28186.734400598336, 4783.6756448359065, 35319.399573731374, 45626.86182580732, 36469.41917770138, 45444.315128840826, 23953.89514611902, 25290.507112801926, -4711.255992800712, 838.8162659187634, -0.10200000000000001, 0.984, 0.242, 192.0, 126.0, 104.0, 15.0, 96.0, 3.5, 72.0, 0.0, 0.0, 0.0, 1.7068828045358558E9, 0.0, 2024-02-02 15:06:44.535
20.0, 60924.12751008601, 64002.23094251525, -23083.495865284905, -1404.807139016049, 16860.949022883062, 7989.3181311271355, 28180.408856917486, 4782.893333779971, 35301.96521305623, 45594.742369025036, 36455.22581997226, 45439.28598633838, 23966.61328871409, 25298.240816383463, -4719.772007438184, 830.8143414037635, -0.10200000000000001, 0.984, 0.242, 192.0, 0.0, 0.0, 0.0, 0.0, 0.0, 0.0, 0.0, 0.0, 0.0, 1.7068828045439267E9, 0.0, 2024-02-02 15:06:44.543
22.0, 60928.03906536569, 64004.801393127615, -23081.640670495115, -1425.2813369371102, 16864.748819440465, 7990.569828816632, 28184.454522663895, 4784.346197169566, 35300.244128733175, 45618.994011759045, 36449.43671815834, 45439.42009680511, 23982.483027277354, 25293.345784347748, -4729.070333131592, 828.3556495136797, -0.10200000000000001, 0.984, 0.242, 192.0, 0.0, 0.0, 0.0, 0.0, 0.0, 0.0, 0.0, 0.0, 0.0, 1.7068828045518563E9, 0.0, 2024-02-02 15:06:44.551
24.0, 60935.839824180584, 64009.31644550758, -23083.205292606985, -1389.809118486538, 16868.079229364306, 8008.630038336521, 28188.34372619912, 4793.4210054184205, 35294.656192619346, 45638.3729742018, 36458.98091304075, 45445.902102697146, 23933.13037552004, 25320.123174205208, -4715.212251569302, 836.6257949621433, -0.10200000000000001, 0.984, 0.242, 192.0, 0.0, 0.0, 0.0, 0.0, 0.0, 0.0, 0.0, 0.0, 0.0, 1.706882804560844E9, 0.0, 2024-02-02 15:06:44.560
26.0, 60933.93992590188, 64007.43889897334, -23098.270368369864, -1417.3017641665656, 16863.72063919552, 7988.334654371101, 28185.99679303131, 4791.431700161898, 35291.48224490669, 45606.208813930614, 36454.68937810533, 45441.81173346183, 23962.27705028976, 25278.928909174076, -4725.047019129636, 840.5149984973668, -0.10200000000000001, 0.984, 0.242, 192.0, 0.0, 0.0, 0.0, 0.0, 0.0, 0.0, 0.0, 0.0, 0.0, 1.7068828045668547E9, 0.0, 2024-02-02 15:06:44.566
28.0, 60942.411237050444, 64014.94908511032, -23056.785530660814, -1383.707092250239, 16878.048107391372, 8013.055683738671, 28197.597348403615, 4802.3393514560885, 35312.31407073904, 45635.020212533505, 36455.73991009473, 45435.843817692265, 23921.73098584783, 25331.991950510976, -4726.119902863491, 827.7521524133864, -0.10400000000000001, 0.992, 0.244, 192.0, 126.0, 96.0, 15.5, 0.0, 3.5, 80.0, 0.0, 0.0, 0.0, 1.7068828045761006E9, 0.0, 2024-02-02 15:06:44.576
30.0, 60935.05751312465, 64003.01325357119, -23089.75435373239, -1402.2813918925992, 16857.842130403773, 7986.658273536954, 28180.00652551729, 4791.834031562094, 35299.21594848823, 45601.35848538381, 36471.095558535526, 45439.10717238273, 23954.141015308025, 25290.596519779745, -4712.910021890405, 841.1184955976601, -0.10400000000000001, 0.992, 0.244, 192.0, 0.0, 0.0, 0.0, 0.0, 0.0, 0.0, 0.0, 0.0, 0.0, 1.706882804584314E9, 0.0, 2024-02-02 15:06:44.584
32.0, 60923.81458566363, 63992.843209844024, -23092.593025278216, -1410.7527030411607, 16866.335793296792, 8005.724311557331, 28188.656650621495, 4796.594953131074, 35293.20332922976, 45623.17378797219, 36454.376453682955, 45436.71553572602, 23939.88060234554, 25307.40503161014, -4728.958574409316, 828.7579809138753, -0.10400000000000001, 0.992, 0.244, 192.0, 0.0, 0.0, 0.0, 0.0, 0.0, 0.0, 0.0, 0.0, 0.0, 1.7068828045919003E9, 0.0, 2024-02-02 15:06:44.591
34.0, 60932.218841578826, 64000.398099469916, -23084.255824596385, -1402.3707988704205, 16868.4815607645, 7999.935209743406, 28190.802418089203, 4798.539554898686, 35282.16156746883, 45601.939630739646, 36446.57569486806, 45422.23160531898, 23918.06529975716, 25265.137882845152, -4730.702010476829, 826.2769372793362, -0.10400000000000001, 0.992, 0.244, 192.0, 0.0, 0.0, 0.0, 0.0, 0.0, 0.0, 0.0, 0.0, 0.0, 1.706882804599923E9, 0.0, 2024-02-02 15:06:44.599
36.0, 60922.428777507404, 63992.105602277, -23117.805793023803, -1422.8226450470263, 16858.356220526246, 7986.837087492596, 28177.592537116117, 4788.123641982513, 35273.35498015344, 45610.50034886603, 36441.032462243136, 45430.05471587834, 23900.87680827103, 25301.99590945195, -4728.98092615377, 823.6841349225206, -0.10400000000000001, 0.992, 0.244, 192.0, 0.0, 0.0, 0.0, 0.0, 0.0, 0.0, 0.0, 0.0, 0.0, 1.706882804607977E9, 0.0, 2024-02-02 15:06:44.607
38.0, 60923.903992641455, 63989.71396562028, -23093.442391567518, -1428.1647119718448, 16861.932499639093, 7975.303587353657, 28172.317525424663, 4780.6805110788955, 35303.820407846026, 45612.64611633374, 36442.95471226629, 45416.755427927426, 23932.146898764004, 25289.68009825708, -4741.900234448938, 808.574355670733, -0.094, 0.994, 0.25, 192.0, 126.5, 8.0, 15.5, 8.0, 3.5, 104.0, 0.0, 0.0, 0.0, 1.7068828046149375E9, 0.0, 2024-02-02 15:06:44.614
40.0, 60929.46957701082, 63995.48071568975, -23088.34619383171, -1398.481595335197, 16869.71090670954, 7995.800137019174, 28188.38842968803, 4794.6503513634625, 35292.66688736283, 45586.38281659876, 36456.32105545057, 45422.56688148581, 23913.237322954814, 25285.94735693304, -4746.705859506829, 805.2886492358028, -0.094, 0.994, 0.25, 192.0, 0.0, 0.0, 0.0, 0.0, 0.0, 0.0, 0.0, 0.0, 0.0, 1.7068828046229556E9, 0.0, 2024-02-02 15:06:44.622
42.0, 60928.88843165499, 63995.570122667574, -23095.23053112394, -1408.8751565069147, 16864.57000548482, 7989.519296827233, 28183.783970330238, 4793.175136229413, 35303.9321665683, 45591.07668293437, 36456.14224149493, 45431.52993101239, 23866.90215669896, 25276.067885883796, -4722.40951328391, 829.1826640585261, -0.094, 0.994, 0.25, 192.0, 0.0, 0.0, 0.0, 0.0, 0.0, 0.0, 0.0, 0.0, 0.0, 1.7068828046321929E9, 0.0, 2024-02-02 15:06:44.632
44.0, 60929.04489386617, 63994.11725927798, -23108.507467330393, -1413.6584298203504, 16863.51947349542, 7993.922590484928, 28193.462275679383, 4799.478328165809, 35306.8825968364, 45583.633552030755, 36447.49211639072, 45422.633936719176, 23869.606717778053, 25279.174778363085, -4735.351173323533, 819.2584895203697, -0.094, 0.994, 0.25, 192.0, 0.0, 0.0, 0.0, 0.0, 0.0, 0.0, 0.0, 0.0, 0.0, 1.706882804639928E9, 0.0, 2024-02-02 15:06:44.639
46.0, 60930.16248108894, 64000.129878536456, -23109.71446153098, -1416.251232177166, 16865.888758407684, 7983.618436291032, 28188.611947132584, 4794.918572296926, 35320.9865475877, 45578.71616825058, 36449.92845653635, 45428.87007342221, 23864.62227876452, 25286.036763910863, -4729.383257553966, 824.6676116785541, -0.094, 0.994, 0.25, 192.0, 0.0, 0.0, 0.0, 0.0, 0.0, 0.0, 0.0, 0.0, 0.0, 1.7068828046469665E9, 0.0, 2024-02-02 15:06:44.646
48.0, 60932.64352472348, 64003.92967509385, -23112.262560398885, -1416.2959356660767, 16863.742990939976, 7999.018788220738, 28184.074543008155, 4795.276200208211, 35330.35192851447, 45571.675368747165, 36448.14031697992, 45428.13246585518, 23858.4308455504, 25280.113551630206, -4733.205405855823, 819.3255447537357, -0.092, 0.99, 0.256, 192.0, 126.5, 16.0, 15.0, 120.0, 4.0, 0.0, 0.0, 0.0, 0.0, 1.7068828046550124E9, 0.0, 2024-02-02 15:06:44.655
50.0, 60934.789292191184, 64011.81984088658, -23109.513295830882, -1402.3037436370546, 16867.654546219652, 8000.58341033261, 28191.092990767123, 4801.087653766591, 35347.585123489516, 45578.13502289475, 36451.716596092774, 45431.306413567836, 23853.066426881127, 25292.33995584726, -4732.445446544343, 824.1982250449927, -0.092, 0.99, 0.256, 192.0, 0.0, 0.0, 0.0, 0.0, 0.0, 0.0, 0.0, 0.0, 0.0, 1.706882804664107E9, 0.0, 2024-02-02 15:06:44.664
52.0, 60923.680475196896, 63999.74989888071, -23119.10219420221, -1410.9091652523477, 16862.603051972754, 7996.873020753029, 28185.48270290884, 4797.533726398197, 35347.98745488971, 45567.71910997857, 36447.961503024286, 45434.03332639138, 23844.393950032467, 25293.61400528121, -4731.283155832667, 828.3780012581351, -0.092, 0.99, 0.256, 192.0, 0.0, 0.0, 0.0, 0.0, 0.0, 0.0, 0.0, 0.0, 0.0, 1.7068828046710136E9, 0.0, 2024-02-02 15:06:44.671
54.0, 60932.911745656944, 64008.24356177373, -23115.86119125619, -1405.2765256496104, 16866.447552019068, 8003.4667853673445, 28194.53515941324, 4802.562868900642, 35354.26829508165, 45557.124383106755, 36444.16170646688, 45426.746657698954, 23840.415339519423, 25288.875435456688, -4735.194711112346, 822.2759750218362, -0.092, 0.99, 0.256, 192.0, 0.0, 0.0, 0.0, 0.0, 0.0, 0.0, 0.0, 0.0, 0.0, 1.706882804679018E9, 0.0, 2024-02-02 15:06:44.679
56.0, 60938.72319921532, 64010.97047459728, -23109.42388885306, -1398.9062784798477, 16867.85571191975, 8007.266581924747, 28193.037592534733, 4802.652275878462, 35376.62003953696, 45571.250685602514, 36456.92455255086, 45443.82339046281, 23850.585383246587, 25310.020185711408, -4724.085894118059, 837.1398850846155, -0.092, 0.99, 0.256, 192.0, 0.0, 0.0, 0.0, 0.0, 0.0, 0.0, 0.0, 0.0, 0.0, 1.706882804688413E9, 0.0, 2024-02-02 15:06:44.688
58.0, 60931.101254356065, 64003.84026811604, -23118.744566290923, -1410.640944318884, 16855.00345885795, 7992.5367823287, 28172.205766702387, 4782.80392680215, 35376.75415000369, 45572.927066436656, 36450.62136061447, 45439.129524127195, 23840.214173819328, 25304.499304830948, -4735.574690768086, 825.1146465676602, -0.096, 0.988, 0.252, 192.0, 126.5, 0.0, 15.0, 112.0, 3.5, 112.0, 0.0, 0.0, 0.0, 1.7068828046960733E9, 0.0, 2024-02-02 15:06:44.696
60.0, 60940.48898702729, 64013.20564904281, -23110.809697009292, -1405.1200634384231, 16865.82170317432, 8004.070282467638, 28182.28640345173, 4791.252886206256, 35385.94071697482, 45567.58499951184, 36455.51639265018, 45440.4259253056, 23842.449348264858, 25312.948264235052, -4732.020763399692, 823.9300041115289, -0.096, 0.988, 0.252, 192.0, 0.0, 0.0, 0.0, 0.0, 0.0, 0.0, 0.0, 0.0, 0.0, 1.706882804703126E9, 0.0, 2024-02-02 15:06:44.703
62.0, 60931.503585756254, 64008.26591351818, -23124.53366810485, -1413.2337466756996, 16858.42327575961, 7994.906067240962, 28180.34180168412, 4782.356891913044, 35396.84836826901, 45581.48778456304, 36454.33175019405, 45442.30347183985, 23845.019798877216, 25319.564380593823, -4730.858472688016, 827.1933588020038, -0.096, 0.988, 0.252, 192.0, 0.0, 0.0, 0.0, 0.0, 0.0, 0.0, 0.0, 0.0, 0.0, 1.7068828047110658E9, 0.0, 2024-02-02 15:06:44.711
64.0, 60930.76597818923, 64003.884971604944, -23132.759110064402, -1415.6700868213281, 16859.518511237922, 7992.4920788397885, 28174.396237659006, 4775.718423809818, 35390.634583310435, 45566.154487866705, 36440.808944798584, 45427.998355388445, 23831.34053127057, 25314.95992123603, -4743.822484472094, 816.4645214634564, -0.096, 0.988, 0.252, 192.0, 0.0, 0.0, 0.0, 0.0, 0.0, 0.0, 0.0, 0.0, 0.0, 1.706882804720324E9, 0.0, 2024-02-02 15:06:44.720
66.0, 60931.05655086715, 64004.175544282865, -23137.922363033576, -1415.9383077547918, 16857.551557725856, 7992.2015061618695, 28177.458426649384, 4774.42202263141, 35405.63260383995, 45572.77060422547, 36444.094651233514, 45435.12856186969, 23841.845851164562, 25329.91323827663, -4738.569824525097, 818.7443993978977, -0.096, 0.988, 0.252, 192.0, 0.0, 0.0, 0.0, 0.0, 0.0, 0.0, 0.0, 0.0, 0.0, 1.7068828047271073E9, 0.0, 2024-02-02 15:06:44.727
68.0, 60925.24509730877, 63998.87818084696, -23144.82905207027, -1415.0218862321242, 16855.13756932468, 7996.96242773085, 28176.474949893352, 4772.499772608254, 35414.34978417752, 45573.910543192695, 36436.91974126336, 45433.02749789089, 23833.44159524937, 25338.272790702915, -4742.6378420159635, 819.5937656871994, -0.094, 0.986, 0.256, 192.0, 126.5, 8.0, 15.0, 104.0, 4.0, 0.0, 0.0, 0.0, 0.0, 1.7068828047351375E9, 0.0, 2024-02-02 15:06:44.735
70.0, 60928.35198978806, 63998.18527676884, -23146.974819537976, -1429.572871872529, 16850.510758222434, 7986.278293881213, 28166.975458499845, 4767.560037083631, 35435.60629315452, 45561.37121455326, 36433.276406917146, 45421.82927391878, 23837.91194414043, 25328.39331965367, -4747.801094985139, 814.6093266736659, -0.094, 0.986, 0.256, 192.0, 0.0, 0.0, 0.0, 0.0, 0.0, 0.0, 0.0, 0.0, 0.0, 1.706882804744176E9, 0.0, 2024-02-02 15:06:44.744
72.0, 60933.3811322905, 64009.8081838856, -23147.175985238075, -1408.0704937065236, 16850.82368264481, 7981.427965334412, 28169.300039923197, 4768.722327795306, 35436.72388037728, 45551.4023365262, 36438.97610175325, 45419.99643087345, 23861.00129616276, 25359.953982824565, -4757.077068934092, 799.3430852106911, -0.094, 0.986, 0.256, 192.0, 0.0, 0.0, 0.0, 0.0, 0.0, 0.0, 0.0, 0.0, 0.0, 1.706882804752396E9, 0.0, 2024-02-02 15:06:44.752
74.0, 60936.64448698098, 64008.89176236293, -23132.53559261985, -1393.452452832753, 16862.066610105827, 8015.447320395389, 28181.05705750669, 4784.189734958379, 35463.79184291266, 45595.90465973671, 36447.89444779092, 45452.45116382255, 23856.39683680497, 25324.951151007554, -4738.011030913714, 830.9708036149507, -0.094, 0.986, 0.256, 192.0, 0.0, 0.0, 0.0, 0.0, 0.0, 0.0, 0.0, 0.0, 0.0, 1.7068828047591248E9, 0.0, 2024-02-02 15:06:44.759
76.0, 60936.06334162514, 64008.60118968502, -23132.1109094752, -1400.1132726804344, 16862.424238017113, 8000.292837654691, 28179.67124935046, 4782.289836679678, 35516.74312552728, 45584.30410436441, 36451.582485626044, 45440.6270910057, 23858.09556938357, 25372.202738786073, -4740.581481526075, 819.7725796428418, -0.094, 0.986, 0.256, 192.0, 0.0, 0.0, 0.0, 0.0, 0.0, 0.0, 0.0, 0.0, 0.0, 1.7068828047671545E9, 0.0, 2024-02-02 15:06:44.767
78.0, 60927.25675430975, 63998.38644246894, -23159.715313877503, -1428.6340986054063, 16849.035543088383, 7992.939113728895, 28178.151330727498, 4776.120755210013, 35503.488541065286, 45581.68895026314, 36447.15684022389, 45431.70874496803, 23858.34143857258, 25326.73929056398, -4735.7758564681835, 819.8619866206631, -0.095, 0.985, 0.257, 192.0, 126.5, 0.0, 15.0, 96.0, 4.0, 8.0, 0.0, 0.0, 0.0, 1.7068828047763767E9, 0.0, 2024-02-02 15:06:44.776
80.0, 60948.222690608825, 64018.39125375644, -23140.224592712475, -1401.2308599031999, 16867.833360175297, 7997.320055642135, 28187.583766887637, 4784.748528569762, 35494.99487817226, 45570.893057691224, 36434.57280809555, 45426.34432629876, 23854.67575248191, 25370.280488762917, -4744.940071694859, 814.0505330622832, -0.095, 0.985, 0.257, 192.0, 0.0, 0.0, 0.0, 0.0, 0.0, 0.0, 0.0, 0.0, 0.0, 1.7068828047832167E9, 0.0, 2024-02-02 15:06:44.783
82.0, 60933.91757415743, 64005.11431754999, -23148.15946199411, -1429.1705404723336, 16855.94223212507, 8016.140224473504, 28182.152292985, 4778.825316289105, 35556.08219576862, 45597.02224695948, 36460.74670085272, 45449.76895448792, 23889.879749999018, 25376.49427372149, -4723.750617951228, 841.2973095533025, -0.095, 0.985, 0.257, 192.0, 0.0, 0.0, 0.0, 0.0, 0.0, 0.0, 0.0, 0.0, 0.0, 1.7068828047911856E9, 0.0, 2024-02-02 15:06:44.791
84.0, 60944.86992894053, 64016.62546594447, -23122.343197148228, -1353.1746093242896, 16881.57968301531, 8012.228669193825, 28192.299984967707, 4790.336464683588, 35535.18331470291, 45617.02705824698, 36450.24138095872, 45447.04204166437, 23871.953650945863, 25339.971523281518, -4735.328821579078, 833.3847920161238, -0.095, 0.985, 0.257, 192.0, 0.0, 0.0, 0.0, 0.0, 0.0, 0.0, 0.0, 0.0, 0.0, 1.7068828047992003E9, 0.0, 2024-02-02 15:06:44.799
86.0, 60936.06334162514, 64008.914114107385, -23147.265392215897, -1392.7819004990936, 16859.071476348814, 8002.192735933392, 28186.91321455398, 4785.106156481047, 35552.75178584478, 45600.73263653906, 36454.46586066078, 45454.351062101254, 23866.29865959867, 25312.702395046046, -4720.59902198303, 843.4654287654673, -0.095, 0.985, 0.257, 192.0, 0.0, 0.0, 0.0, 0.0, 0.0, 0.0, 0.0, 0.0, 0.0, 1.706882804808231E9, 0.0, 2024-02-02 15:06:44.808
88.0, 60937.672667225925, 64005.76251813919, -23149.187642239052, -1429.5058166391632, 16866.29108980788, 7999.421119620934, 28188.634298877038, 4786.6037233595525, 35553.42233817844, 45583.410034586195, 36432.15881969438, 45428.26657632191, 23849.49014776828, 25347.39230244068, -4742.74960073824, 814.9222510960402, -0.0975, 0.9864999999999999, 0.2565, 192.0, 126.0, 112.0, 15.0, 112.0, 4.0, 0.0, 0.0, 0.0, 0.0, 1.7068828048154929E9, 0.0, 2024-02-02 15:06:44.815
90.0, 60930.72127470032, 64003.79556462712, -23183.96695661151, -1440.1452469998894, 16850.24253728897, 7973.940130941884, 28181.995830773812, 4780.881676778994, 35515.75964877124, 45596.552860325915, 36449.280255947146, 45435.70970722553, 23891.980813977818, 25326.381662652693, -4728.89151917595, 821.2924982658027, -0.0975, 0.9864999999999999, 0.2565, 192.0, 0.0, 0.0, 0.0, 0.0, 0.0, 0.0, 0.0, 0.0, 0.0, 1.7068828048232486E9, 0.0, 2024-02-02 15:06:44.823
92.0, 60944.26643184024, 64006.09779430602, -23148.830014327767, -1411.512662352641, 16867.38632528619, 8012.675704082931, 28190.467141922374, 4789.3306361831, 35533.37282340203, 45592.73071202406, 36428.15785743688, 45423.86328266421, 23849.19957509036, 25347.01232278494, -4745.878844961982, 808.5967074151883, -0.0975, 0.9864999999999999, 0.2565, 192.0, 0.0, 0.0, 0.0, 0.0, 0.0, 0.0, 0.0, 0.0, 0.0, 1.7068828048322828E9, 0.0, 2024-02-02 15:06:44.832
94.0, 60940.891318427486, 64005.87427686147, -23147.600668382725, -1410.4621303632416, 16872.05783987735, 8005.165517945948, 28186.756752342793, 4790.582333872597, 35545.80039331918, 45595.859956247805, 36457.68451186234, 45437.96723341552, 23851.792377447175, 25295.692717515554, -4716.374542280977, 839.7103356969757, -0.0975, 0.9864999999999999, 0.2565, 192.0, 0.0, 0.0, 0.0, 0.0, 0.0, 0.0, 0.0, 0.0, 0.0, 1.7068828048395476E9, 0.0, 2024-02-02 15:06:44.839
96.0, 60930.20718457785, 63997.35826222399, -23179.809532142823, -1414.70896180975, 16857.037467603383, 7994.8390120075965, 28176.407894659984, 4783.765051813728, 35516.87723599401, 45597.02224695948, 36428.76135453717, 45431.75344845694, 23853.96049665934, 25331.6790260886, -4734.054772145125, 818.5655854422553, -0.0975, 0.9864999999999999, 0.2565, 192.0, 0.0, 0.0, 0.0, 0.0, 0.0, 0.0, 0.0, 0.0, 0.0, 1.7068828048472755E9, 0.0, 2024-02-02 15:06:44.847
98.0, 60932.5317660012, 64002.09683204852, -23159.87177608869, -1407.288182650588, 16858.512682737433, 7995.464860852345, 28182.040534262724, 4777.014824988226, 35452.95124685184, 45554.889208661225, 36433.2987586616, 45425.71847745401, 23871.976002690317, 25281.409952808615, -4741.676717004385, 820.8678151211519, -0.09675, 0.97925, 0.25825, 192.0, 126.5, 0.0, 15.0, 48.0, 4.0, 16.0, 0.0, 0.0, 0.0, 1.7068828048553023E9, 0.0, 2024-02-02 15:06:44.855
100.0, 60942.61240275054, 64015.01614034369, -23149.679380617068, -1392.6924935212724, 16874.158903856147, 8005.187869690403, 28192.903482068003, 4785.352025670055, 35482.276735577194, 45606.1641104417, 36459.69616886332, 45455.51335281293, 23831.273476037204, 25303.784049008376, -4708.730245677262, 840.4032397750902, -0.09675, 0.97925, 0.25825, 192.0, 0.0, 0.0, 0.0, 0.0, 0.0, 0.0, 0.0, 0.0, 0.0, 1.7068828048632843E9, 0.0, 2024-02-02 15:06:44.863
102.0, 60943.4841207843, 64009.85288737451, -23150.796967839833, -1410.1045024519567, 16878.830418447305, 8001.544535344188, 28193.86460707958, 4790.5376303836865, 35387.1030076865, 45590.31672362289, 36460.74670085272, 45447.95846318704, 23867.72917124381, 25290.596519779745, -4710.004295111215, 836.9163676400624, -0.09675, 0.97925, 0.25825, 192.0, 0.0, 0.0, 0.0, 0.0, 0.0, 0.0, 0.0, 0.0, 0.0, 1.706882804871661E9, 0.0, 2024-02-02 15:06:44.871
104.0, 60928.75432118825, 63999.52638143616, -23176.72499140799, -1442.5368836566072, 16860.211415316036, 7980.802116489664, 28188.9025198105, 4788.593028616075, 35280.28402093459, 45573.64232225923, 36447.939151279825, 45429.38416354468, 23850.026589635207, 25290.641223268656, -4721.4483882723325, 823.9076523670736, -0.09675, 0.97925, 0.25825, 192.0, 0.0, 0.0, 0.0, 0.0, 0.0, 0.0, 0.0, 0.0, 0.0, 1.7068828048793087E9, 0.0, 2024-02-02 15:06:44.879
106.0, 60923.52401298571, 63993.1561342664, -23214.633550004193, -1413.4572641202528, 16858.3785722707, 7994.481384096312, 28175.737342326327, 4788.078938493602, 35122.52540856903, 45584.393511342234, 36408.510674060664, 45412.66505869211, 23842.71756919832, 25314.132906691186, -4737.116961135503, 804.7075038799649, -0.09675, 0.97925, 0.25825, 192.0, 0.0, 0.0, 0.0, 0.0, 0.0, 0.0, 0.0, 0.0, 0.0, 1.706882804887354E9, 0.0, 2024-02-02 15:06:44.887
108.0, 60970.954414719876, 64037.07731212107, -23128.735796062447, -1402.1249296814121, 16873.935386411595, 8010.06054998166, 28197.664403636983, 4804.3957119459765, 35146.039443736016, 45590.763758511996, 36433.410517383876, 45436.31320432582, 23857.335610072092, 25295.178627393085, -4742.883711204971, 811.0106958163615, -0.095375, 0.978625, 0.257125, 192.0, 126.5, 8.0, 15.0, 72.0, 4.0, 0.0, 0.0, 0.0, 0.0, 1.7068828048943996E9, 0.0, 2024-02-02 15:06:44.894
110.0, 60971.35674612007, 64039.58070750007, -23126.38886289464, -1352.4817052461751, 16903.26087513696, 8021.705808842875, 28219.63616843655, 4822.81354937715, 34979.89892719971, 45620.31276468191, 36508.53473049816, 45479.83205078031, 23865.516348542733, 25302.465296085513, -4696.88382111595, 849.0980683682047, -0.095375, 0.978625, 0.257125, 192.0, 0.0, 0.0, 0.0, 0.0, 0.0, 0.0, 0.0, 0.0, 0.0, 1.7068828049034255E9, 0.0, 2024-02-02 15:06:44.903
112.0, 60961.857254726565, 64029.969457384286, -23143.040912513843, -1381.0025311711468, 16885.20066561707, 8009.546459859188, 28204.638147907037, 4810.140110270991, 34832.26565507241, 45607.79578778694, 36478.985724328246, 45471.31603614283, 23844.86333666603, 25305.169857164605, -4700.013065339693, 843.5324839988332, -0.095375, 0.978625, 0.257125, 192.0, 0.0, 0.0, 0.0, 0.0, 0.0, 0.0, 0.0, 0.0, 0.0, 1.706882804911364E9, 0.0, 2024-02-02 15:06:44.911
114.0, 60958.32567910263, 64027.309599794105, -23147.265392215897, -1389.451490575253, 16878.226921347014, 8008.361817403057, 28203.565264173183, 4810.698903882373, 34667.57800192571, 45599.03390396046, 36472.36960796948, 45455.93803595758, 23838.224868562804, 25302.66646178561, -4711.166585822891, 831.2613762928696, -0.095375, 0.978625, 0.257125, 192.0, 0.0, 0.0, 0.0, 0.0, 0.0, 0.0, 0.0, 0.0, 0.0, 1.7068828049193876E9, 0.0, 2024-02-02 15:06:44.919
116.0, 60951.12841738802, 64019.95587586831, -23165.370305224696, -1398.3027813795545, 16865.642889218678, 7994.660198051954, 28185.460351164384, 4796.751415342262, 34506.6454418475, 45593.51302308, 36462.11015726449, 45449.32191959881, 23844.10337735455, 25304.812229253323, -4722.811844684105, 822.8347686332189, -0.095375, 0.978625, 0.257125, 192.0, 0.0, 0.0, 0.0, 0.0, 0.0, 0.0, 0.0, 0.0, 0.0, 1.7068828049277232E9, 0.0, 2024-02-02 15:06:44.927
118.0, 60957.05162966867, 64024.9626666263, -23165.705581391525, -1397.3416563679764, 16879.702136481064, 7988.0887851820935, 28189.77423784426, 4798.070168265124, 34397.83714983906, 45596.57521207038, 36460.29966596361, 45455.02161443492, 23842.136423842483, 25294.57513029279, -4724.085894118059, 814.5646231847553, -0.09468750000000001, 0.9833125, 0.2545625, 192.0, 126.5, 8.0, 15.0, 112.0, 3.5, 112.0, 0.0, 0.0, 0.0, 1.7068828049355724E9, 0.0, 2024-02-02 15:06:44.935
120.0, 60957.945699446886, 64028.829518417064, -23177.35084025274, -1389.9879324421804, 16878.405735302655, 8014.173270961437, 28202.022993805767, 4807.90493582546, 34275.81897685754, 45585.91342996519, 36449.07909024705, 45451.1771143886, 23840.594153475067, 25294.262205870415, -4721.113112105502, 812.8211871172414, -0.09468750000000001, 0.9833125, 0.2545625, 192.0, 0.0, 0.0, 0.0, 0.0, 0.0, 0.0, 0.0, 0.0, 0.0, 1.706882804943416E9, 0.0, 2024-02-02 15:06:44.943
122.0, 60958.705658758365, 64025.45440500432, -23158.48596793246, -1394.5923917999735, 16883.39017431619, 8003.511488856255, 28197.060906536688, 4805.848575335572, 34279.26114550366, 45602.83370051786, 36471.2073172578, 45465.10225118426, 23857.134444371994, 25303.8734559862, -4717.335667292556, 821.0466290767944, -0.09468750000000001, 0.9833125, 0.2545625, 192.0, 0.0, 0.0, 0.0, 0.0, 0.0, 0.0, 0.0, 0.0, 0.0, 1.706882804950441E9, 0.0, 2024-02-02 15:06:44.950
124.0, 60950.457865054355, 64018.078329334065, -23178.222558286496, -1415.4018658878645, 16874.00244164496, 8001.164555688448, 28194.311641968685, 4803.501642167765, 34184.690914713254, 45584.30410436441, 36459.80792758559, 45447.019689919915, 23846.025627377705, 25284.539197032358, -4720.375504538477, 806.8532713476743, -0.09468750000000001, 0.9833125, 0.2545625, 192.0, 0.0, 0.0, 0.0, 0.0, 0.0, 0.0, 0.0, 0.0, 0.0, 1.7068828049594293E9, 0.0, 2024-02-02 15:06:44.959
126.0, 60955.77758023472, 64025.09677709303, -23159.424741199582, -1389.518545808619, 16889.313386596845, 8009.211183692359, 28207.990909575336, 4815.929212084915, 34149.86689685189, 45587.813328243894, 36458.89150606293, 45451.199466133054, 23856.374485060514, 25307.650900799144, -4712.462987001299, 816.4421697190011, -0.09468750000000001, 0.9833125, 0.2545625, 192.0, 0.0, 0.0, 0.0, 0.0, 0.0, 0.0, 0.0, 0.0, 0.0, 1.7068828049679E9, 0.0, 2024-02-02 15:06:44.967
128.0, 60948.9379464314, 64018.59241945654, -23177.797875141845, -1409.6351158183952, 16878.226921347014, 7996.470689352834, 28196.613871647583, 4805.893278824482, 34117.07688773595, 45572.27886584745, 36455.62815137245, 45445.45506780804, 23819.538810198166, 25311.11542118972, -4714.318181791089, 813.6258499176324, -0.09434375, 0.98965625, 0.25328125, 192.0, 126.5, 8.0, 15.5, 16.0, 3.5, 112.0, 0.0, 0.0, 0.0, 1.7068828049754612E9, 0.0, 2024-02-02 15:06:44.975
130.0, 60949.697905742876, 64019.754710168214, -23176.792046641356, -1395.6652755338282, 16876.639947490687, 7998.4152911204455, 28197.865569337082, 4804.66393287944, 34095.35099212539, 45577.44211881663, 36456.2540002172, 45449.21016087654, 23846.13738609998, 25286.39439182215, -4719.548489993631, 814.4752162069341, -0.09434375, 0.98965625, 0.25328125, 192.0, 0.0, 0.0, 0.0, 0.0, 0.0, 0.0, 0.0, 0.0, 0.0, 1.7068828049836056E9, 0.0, 2024-02-02 15:06:44.983
132.0, 60953.7882749782, 64024.67209394838, -23179.183683298073, -1392.5360313100853, 16881.982014415506, 8008.115948214048, 28204.034650806745, 4810.944773071382, 34084.68921002021, 45580.81723222938, 36455.82931707255, 45451.87001846672, 23835.944990628363, 25301.86179898522, -4722.700085961829, 816.6880389080095, -0.09434375, 0.98965625, 0.25328125, 192.0, 0.0, 0.0, 0.0, 0.0, 0.0, 0.0, 0.0, 0.0, 0.0, 1.706882804991495E9, 0.0, 2024-02-02 15:06:44.991
134.0, 60951.55310053267, 64022.23575380275, -23180.16716005411, -1392.1113481654345, 16880.99853765947, 8008.58533484761, 28199.161970515488, 4808.597839903574, 34081.31409660746, 45574.58109552635, 36457.32688395106, 45448.785477731886, 23839.20834531884, 25304.745174019954, -4725.739923207751, 816.7103906524648, -0.09434375, 0.98965625, 0.25328125, 192.0, 0.0, 0.0, 0.0, 0.0, 0.0, 0.0, 0.0, 0.0, 0.0, 1.7068828049997575E9, 0.0, 2024-02-02 15:06:44.999
136.0, 60944.46759754034, 64016.603114200014, -23186.53740722387, -1402.8178337595266, 16874.963566656537, 7988.334654371101, 28193.14935125701, 4799.120700254524, 34083.52691930853, 45578.045615916926, 36458.93620955184, 45448.360794587235, 23842.941086642873, 25312.702395046046, -4723.437693528855, 816.4868732079117, -0.09434375, 0.98965625, 0.25328125, 192.0, 0.0, 0.0, 0.0, 0.0, 0.0, 0.0, 0.0, 0.0, 0.0, 1.7068828050065603E9, 0.0, 2024-02-02 15:06:45.006
138.0, 60948.49091154229, 64022.74984392522, -23183.05053508884, -1394.0559499330461, 16875.120028867725, 8010.574640104132, 28187.33789769863, 4799.6347903769965, 34081.02352392954, 45577.39741532772, 36455.583447883546, 45445.38801257468, 23840.281229052693, 25305.661595542624, -4729.69618197634, 811.5471376832888, -0.094171875, 0.990828125, 0.254640625, 192.0, 126.5, 8.0, 15.5, 0.0, 4.0, 0.0, 0.0, 0.0, 0.0, 1.706882805015664E9, 0.0, 2024-02-02 15:06:45.015
140.0, 60952.693039499885, 64025.00737011521, -23177.90963386412, -1391.1725748983115, 16881.087944637293, 8006.439567379901, 28189.751886099803, 4800.953543299859, 34094.00988745807, 45568.322607078866, 36466.1558230109, 45452.58527428929, 23848.01493263423, 25309.61785431121, -4723.616507484497, 814.1622917845598, -0.094171875, 0.990828125, 0.254640625, 192.0, 0.0, 0.0, 0.0, 0.0, 0.0, 0.0, 0.0, 0.0, 0.0, 1.7068828050235908E9, 0.0, 2024-02-02 15:06:45.023
142.0, 60952.64833601098, 64025.74497768223, -23180.882415876677, -1388.8479934749596, 16879.18804635859, 8003.042102222694, 28186.779104087247, 4796.684360108896, 34104.0011172296, 45583.49944156402, 36467.83220384505, 45457.52500981391, 23850.518328013222, 25313.797630524354, -4720.643725471941, 816.4868732079117, -0.094171875, 0.990828125, 0.254640625, 192.0, 0.0, 0.0, 0.0, 0.0, 0.0, 0.0, 0.0, 0.0, 0.0, 1.70688280503062E9, 0.0, 2024-02-02 15:06:45.030
144.0, 60953.20712962236, 64022.258105547204, -23184.011660100423, -1381.0025311711468, 16877.62342424672, 8003.846765023085, 28191.495322167317, 4792.348121684566, 34115.75813481309, 45576.2574763605, 36468.81568060108, 45461.74948951596, 23850.85360418005, 25317.01628172592, -4723.907080162416, 814.184643529015, -0.094171875, 0.990828125, 0.254640625, 192.0, 0.0, 0.0, 0.0, 0.0, 0.0, 0.0, 0.0, 0.0, 0.0, 1.7068828050396085E9, 0.0, 2024-02-02 15:06:45.039
146.0, 60955.10702790106, 64028.427187016874, -23185.755096167934, -1372.8441444449597, 16879.99270915898, 8009.30059067018, 28196.0550780362, 4793.845688563071, 34147.162335772795, 45571.42949955815, 36474.22480275927, 45462.42004184962, 23854.13931061498, 25307.449735099046, -4717.469777759287, 826.6345651906211, -0.094171875, 0.990828125, 0.254640625, 192.0, 0.0, 0.0, 0.0, 0.0, 0.0, 0.0, 0.0, 0.0, 0.0, 1.7068828050477333E9, 0.0, 2024-02-02 15:06:45.047
148.0, 60945.987516163295, 64018.41360550089, -23200.082564363787, -1381.8518974604485, 16873.264834077934, 8001.052796966172, 28187.449656420908, 4783.13920296898, 34179.326496043985, 45601.15731968371, 36466.87107883347, 45466.06337619584, 23851.166528602425, 25324.794688796366, -4722.4542167728205, 826.6345651906211, -0.0900859375, 0.9874140625, 0.2513203125, 192.0, 126.5, 40.0, 15.0, 96.0, 3.5, 96.0, 0.0, 0.0, 0.0, 1.7068828050555806E9, 0.0, 2024-02-02 15:06:45.055
150.0, 60944.311135329146, 64014.323236265576, -23205.938721411076, -1401.4096738588423, 16869.375630542712, 7997.163593430948, 28186.175606986955, 4782.870982035516, 34218.82202849651, 45588.61799104429, 36454.44350891632, 45455.31218711283, 23854.80986294864, 25325.73346206349, -4732.378391310977, 811.3236202387358, -0.0900859375, 0.9874140625, 0.2513203125, 192.0, 0.0, 0.0, 0.0, 0.0, 0.0, 0.0, 0.0, 0.0, 0.0, 1.7068828050626245E9, 0.0, 2024-02-02 15:06:45.062
152.0, 60934.63282998, 64009.204686785306, -23212.06309939183, -1403.1978134152669, 16866.514607252433, 7994.0790526961155, 28183.71691509687, 4781.75339481275, 34284.044418817095, 45601.22437491708, 36451.33661643703, 45439.59891076075, 23867.080970654606, 25341.960828538042, -4732.668963988896, 805.3333527247134, -0.0900859375, 0.9874140625, 0.2513203125, 192.0, 0.0, 0.0, 0.0, 0.0, 0.0, 0.0, 0.0, 0.0, 0.0, 1.706882805071597E9, 0.0, 2024-02-02 15:06:45.071
154.0, 60945.361667318546, 64014.166774054385, -23194.986366627978, -1363.0093768846248, 16880.082116136804, 8019.068302997149, 28193.797551846215, 4797.354912442554, 34353.08895743954, 45614.90364252373, 36449.347311180514, 45465.52693432891, 23844.90804015494, 25301.370060607205, -4732.333687822066, 812.6647249060542, -0.0900859375, 0.9874140625, 0.2513203125, 192.0, 0.0, 0.0, 0.0, 0.0, 0.0, 0.0, 0.0, 0.0, 0.0, 1.7068828050798416E9, 0.0, 2024-02-02 15:06:45.079
156.0, 60945.294612085185, 64015.641989188436, -23197.512113751425, -1378.2085631142336, 16876.394078301677, 8010.485233126311, 28182.91225229648, 4791.856383306549, 34457.91863893493, 45625.27485195099, 36466.066416033085, 45463.89525698367, 23882.30250862867, 25313.507057846437, -4721.381333038966, 826.3216407682468, -0.0900859375, 0.9874140625, 0.2513203125, 192.0, 0.0, 0.0, 0.0, 0.0, 0.0, 0.0, 0.0, 0.0, 0.0, 1.706882805086651E9, 0.0, 2024-02-02 15:06:45.086
158.0, 60937.873832926016, 64005.650759416916, -23215.572323271314, -1402.191984914778, 16873.354241055757, 8004.472613867833, 28182.040534262724, 4787.318979182122, 34524.97387230085, 45628.33704094137, 36452.85653506, 45453.97108244552, 23875.507578314257, 25317.351557892747, -4732.89248143345, 814.1622917845598, -0.08904296875, 0.9847070312499999, 0.25166015625, 192.0, 126.5, 32.0, 15.0, 88.0, 3.5, 112.0, 0.0, 0.0, 0.0, 1.7068828050946183E9, 0.0, 2024-02-02 15:06:45.094
160.0, 60942.768864961734, 64011.39515774193, -23211.83958194728, -1392.938362710281, 16872.482523022, 7995.375453874523, 28183.359287185587, 4781.954560512849, 34597.728800502875, 45604.0630464629, 36445.16753496737, 45436.93905317057, 23873.518273057733, 25320.704319561046, -4738.4133623139105, 803.0758265347274, -0.08904296875, 0.9847070312499999, 0.25166015625, 192.0, 0.0, 0.0, 0.0, 0.0, 0.0, 0.0, 0.0, 0.0, 0.0, 1.7068828051038845E9, 0.0, 2024-02-02 15:06:45.103
162.0, 60938.857309682055, 64010.4116809859, -23221.383776829694, -1392.4689760767194, 16864.99468862947, 8007.378340647023, 28171.401103901997, 4777.104231966046, 34670.39432172708, 45653.37099473131, 36454.13058449395, 45457.301492369355, 23885.945842974885, 25308.85789499973, -4738.368658824999, 815.1457685405933, -0.08904296875, 0.9847070312499999, 0.25166015625, 192.0, 0.0, 0.0, 0.0, 0.0, 0.0, 0.0, 0.0, 0.0, 0.0, 1.7068828051106758E9, 0.0, 2024-02-02 15:06:45.110
164.0, 60935.77276894722, 64006.43307047285, -23227.910486210643, -1400.3367901249874, 16870.224996832014, 8001.700997555376, 28172.161063213476, 4778.221819188812, 34735.370842858654, 45633.07561076589, 36445.54751462311, 45445.09743989676, 23873.317107357634, 25305.035746697875, -4742.5260832936865, 809.5131289378559, -0.08904296875, 0.9847070312499999, 0.25166015625, 192.0, 0.0, 0.0, 0.0, 0.0, 0.0, 0.0, 0.0, 0.0, 0.0, 1.7068828051189E9, 0.0, 2024-02-02 15:06:45.118
166.0, 60922.853460652055, 63998.922884335865, -23258.912355770157, -1427.1141799824454, 16849.750798910954, 7987.284122381702, 28173.0998364806, 4775.003167987248, 34779.73905560244, 45636.78600034547, 36442.97706401075, 45443.62222476271, 23884.515331329745, 25303.91815947511, -4739.553301281131, 807.9485068259844, -0.08904296875, 0.9847070312499999, 0.25166015625, 192.0, 0.0, 0.0, 0.0, 0.0, 0.0, 0.0, 0.0, 0.0, 0.0, 1.7068828051276894E9, 0.0, 2024-02-02 15:06:45.127
168.0, 60934.90105091346, 64006.053090817106, -23231.509117067948, -1419.313421167543, 16872.370764299725, 7999.689340554398, 28183.426342418952, 4785.821412303617, 34825.13544859117, 45614.523662867985, 36411.75167700669, 45417.35892502772, 23890.796171521684, 25333.377758667204, -4774.891409264971, 778.6453698450769, -0.091521484375, 0.987353515625, 0.254830078125, 192.0, 126.5, 8.0, 15.0, 120.0, 4.0, 8.0, 0.0, 0.0, 0.0, 1.7068828051359904E9, 0.0, 2024-02-02 15:06:45.135
170.0, 60946.00986790775, 64012.24452403123, -23211.750174969457, -1385.9199149513145, 16885.62534876172, 7991.82152650613, 28187.650822121006, 4795.544421141675, 34923.371365472245, 45635.40019218924, 36465.73113986625, 45463.582332561295, 23887.041078453196, 25325.644055085668, -4719.995524882737, 815.4810447074228, -0.091521484375, 0.987353515625, 0.254830078125, 192.0, 0.0, 0.0, 0.0, 0.0, 0.0, 0.0, 0.0, 0.0, 0.0, 1.706882805142732E9, 0.0, 2024-02-02 15:06:45.142
172.0, 60941.025428894216, 64014.99378859923, -23249.546974843382, -1408.741046040183, 16861.373706027713, 8004.91964875694, 28180.38650517303, 4790.2470577057675, 34954.462642009574, 45629.834607819874, 36438.46201163078, 45434.90504442514, 23885.074124941126, 25288.070772656298, -4747.532874051675, 792.2128787294482, -0.091521484375, 0.987353515625, 0.254830078125, 192.0, 0.0, 0.0, 0.0, 0.0, 0.0, 0.0, 0.0, 0.0, 0.0, 1.7068828051509924E9, 0.0, 2024-02-02 15:06:45.150
174.0, 60946.188681863394, 64016.401948499915, -23230.145660656173, -1393.4301010882975, 16875.790581201385, 8006.037235979705, 28184.76744708627, 4792.3034181956555, 34958.1506798447, 45647.06780279491, 36452.38714842643, 45450.7747829884, 23908.945788019395, 25309.528447333392, -4750.41624908641, 800.7735968558309, -0.091521484375, 0.987353515625, 0.254830078125, 192.0, 0.0, 0.0, 0.0, 0.0, 0.0, 0.0, 0.0, 0.0, 0.0, 1.706882805159757E9, 0.0, 2024-02-02 15:06:45.159
176.0, 60937.739722459286, 64009.47290771877, -23244.674294552126, -1408.9198599958254, 16859.04912460436, 7996.91772424194, 28171.401103901997, 4781.75339481275, 34982.20115687861, 45620.98331701557, 36451.11309899248, 45449.99247193247, 23882.570729562132, 25285.835598210764, -4745.409458328421, 805.4227597025347, -0.091521484375, 0.987353515625, 0.254830078125, 192.0, 0.0, 0.0, 0.0, 0.0, 0.0, 0.0, 0.0, 0.0, 0.0, 1.7068828051669528E9, 0.0, 2024-02-02 15:06:45.166
178.0, 60937.9855916483, 64010.389329241436, -23237.767605515433, -1431.0480870065794, 16874.024793389417, 7990.9051049834625, 28178.084275494133, 4777.5065633662425, 35009.60439558082, 45620.51393038201, 36440.09368897601, 45429.406515289134, 23867.81857822163, 25336.35054067976, -4755.735964266773, 782.5569251247556, -0.091521484375, 0.987353515625, 0.254830078125, 192.0, 0.0, 0.0, 0.0, 0.0, 0.0, 0.0, 0.0, 0.0, 0.0, 1.7068828051747477E9, 0.0, 2024-02-02 15:06:45.174
180.0, 60943.037085895194, 64011.015178086185, -23245.210736419052, -1382.9247811943033, 16876.841113190785, 7996.828317264119, 28181.52644414025, 4786.447261148365, 35036.65000637174, 45621.36329667131, 36447.26859894617, 45444.33748058528, 23917.104174745582, 25261.293382798838, -4746.527045551186, 799.2313264884147, -0.094, 0.986, 0.256, 192.0, 126.5, 8.0, 15.0, 104.0, 4.0, 0.0, 0.0, 0.0, 0.0, 1.7068828051830096E9, 0.0, 2024-02-02 15:06:45.183
182.0, 60934.8339956801, 64002.58857042654, -23263.44975989458, -1419.514586867641, 16864.547653740367, 7985.473631080822, 28167.75776955578, 4775.427851131899, 35058.577067682396, 45634.77434334449, 36447.87209604646, 45442.28112009539, 23884.87295924103, 25289.031897667875, -4743.531911794175, 808.7531696263754, -0.094, 0.986, 0.256, 192.0, 0.0, 0.0, 0.0, 0.0, 0.0, 0.0, 0.0, 0.0, 0.0, 1.7068828051920576E9, 0.0, 2024-02-02 15:06:45.192
184.0, 60935.66101022495, 64005.74016639473, -23263.874443039233, -1441.7098691117608, 16863.72063919552, 7974.454221064356, 28174.664458592473, 4772.320958652611, 35053.86084960232, 45610.72386631058, 36429.54366559311, 45418.61062271722, 23890.930281988418, 25288.316641845304, -4759.759278268728, 777.7513000668646, -0.094, 0.986, 0.256, 192.0, 0.0, 0.0, 0.0, 0.0, 0.0, 0.0, 0.0, 0.0, 0.0, 1.7068828051987984E9, 0.0, 2024-02-02 15:06:45.198
186.0, 60946.456902796854, 64015.083195577055, -23242.59558231778, -1406.8411477614818, 16877.735182968998, 8009.30059067018, 28178.53131038324, 4784.659121591941, 35046.820050098904, 45632.51681715451, 36443.893485533416, 45431.1723031011, 23906.129468218027, 25311.71891829001, -4752.383202598477, 781.2158204574372, -0.094, 0.986, 0.256, 192.0, 0.0, 0.0, 0.0, 0.0, 0.0, 0.0, 0.0, 0.0, 0.0, 1.706882805206803E9, 0.0, 2024-02-02 15:06:45.206
188.0, 60936.0856933696, 64002.342701237525, -23249.21169867655, -1398.9733337132138, 16866.156979341147, 7989.943979971884, 28173.815092303168, 4784.457955891843, 35061.34868399485, 45626.21362521811, 36460.70199736381, 45446.77382073091, 23864.510520042244, 25284.405086565625, -4735.284118090167, 808.060265548261, -0.094, 0.986, 0.256, 192.0, 0.0, 0.0, 0.0, 0.0, 0.0, 0.0, 0.0, 0.0, 0.0, 1.706882805216081E9, 0.0, 2024-02-02 15:06:45.216
190.0, 60950.86019645455, 64014.12207056548, -23254.285544667906, -1391.2619818761327, 16883.97131967203, 8000.896334754984, 28187.896691310012, 4798.47249966532, 35051.20099201214, 45634.70728811113, 36452.901238548904, 45444.98568117448, 23891.936110488907, 25275.933775417063, -4741.162626881913, 803.0534747902722, -0.09, 0.986, 0.258, 192.0, 126.5, 24.0, 15.0, 104.0, 4.0, 8.0, 0.0, 0.0, 0.0, 1.7068828052228436E9, 0.0, 2024-02-02 15:06:45.222
192.0, 60940.82426319412, 64009.24939027422, -23254.330248156817, -1432.6127091184508, 16868.23569157549, 7982.813773490641, 28186.600290131606, 4794.717406596828, 35020.60145385283, 45612.0649709779, 36444.69814833381, 45433.63099499119, 23925.26256147177, 25308.299101388347, -4746.325879851089, 794.5374601528001, -0.09, 0.986, 0.258, 192.0, 0.0, 0.0, 0.0, 0.0, 0.0, 0.0, 0.0, 0.0, 0.0, 1.706882805230875E9, 0.0, 2024-02-02 15:06:45.230
194.0, 60932.68822821239, 63999.39227096943, -23273.396286177194, -1416.7206188107275, 16873.935386411595, 7994.593142818588, 28189.81894133317, 4791.297589695167, 34999.25553789801, 45666.89380012677, 36433.7010900618, 45424.10915185323, 23834.648589449953, 25277.856025440222, -4752.763182254217, 771.96219825294, -0.09, 0.986, 0.258, 192.0, 0.0, 0.0, 0.0, 0.0, 0.0, 0.0, 0.0, 0.0, 0.0, 1.7068828052388892E9, 0.0, 2024-02-02 15:06:45.238
196.0, 60939.21493759334, 64002.074480304065, -23250.30693415486, -1397.8557464904484, 16878.606901002753, 8001.4104248774565, 28185.214481975378, 4794.717406596828, 34987.49852031452, 45580.750176996014, 36442.5523808661, 45429.965308900515, 23875.641688780986, 25300.654804784634, -4734.434751800865, 801.4217974450347, -0.09, 0.986, 0.258, 192.0, 0.0, 0.0, 0.0, 0.0, 0.0, 0.0, 0.0, 0.0, 0.0, 1.706882805247836E9, 0.0, 2024-02-02 15:06:45.247
198.0, 60933.80581543515, 64003.86261986049, -23250.150471943674, -1409.0539704625571, 16871.253177076956, 7987.708805526353, 28177.05609524919, 4789.241229205279, 34968.36542706077, 45624.0678577504, 36455.51639265018, 45433.45218103554, 23869.76317998924, 25268.53534800236, -4745.431810072877, 790.2012217284706, -0.09, 0.986, 0.258, 192.0, 0.0, 0.0, 0.0, 0.0, 0.0, 0.0, 0.0, 0.0, 0.0, 1.706882805254878E9, 0.0, 2024-02-02 15:06:45.254
200.0, 60924.21691706383, 63998.52055293567, -23301.29126325742, -1441.7098691117608, 16854.623479202208, 7990.078090438616, 28169.367095156565, 4790.180002472402, 34921.33735672681, 45591.456662590106, 36444.04994774461, 45435.486189780975, 23879.352078360567, 25281.745228975444, -4743.50956004972, 789.2400967168924, -0.084, 0.988, 0.256, 192.0, 126.5, 48.0, 15.0, 112.0, 4.0, 0.0, 0.0, 0.0, 0.0, 1.7068828052628815E9, 0.0, 2024-02-02 15:06:45.262
202.0, 60923.14403332997, 63997.35826222399, -23303.9511208476, -1427.5612148715516, 16867.498084008468, 7973.135468141493, 28174.19507195891, 4788.570676871619, 34932.177952787635, 45613.13785471176, 36379.63222022441, 45408.507634223424, 23925.083747516128, 25302.24177864096, -4779.406461644943, 758.1264684351049, -0.084, 0.988, 0.256, 192.0, 0.0, 0.0, 0.0, 0.0, 0.0, 0.0, 0.0, 0.0, 0.0, 1.7068828052710743E9, 0.0, 2024-02-02 15:06:45.271
204.0, 60924.41808276392, 63999.88400934744, -23257.906527269668, -1407.42229311732, 16871.00730788795, 8001.745701044286, 28178.82188306116, 4799.94771479937, 34820.106306088725, 45614.255441934525, 36444.83225880054, 45423.86328266421, 23838.358979029534, 25259.52759498687, -4743.2860426051675, 789.7541868393645, -0.084, 0.988, 0.256, 192.0, 0.0, 0.0, 0.0, 0.0, 0.0, 0.0, 0.0, 0.0, 0.0, 1.706882805278906E9, 0.0, 2024-02-02 15:06:45.278
206.0, 60933.51524275723, 64008.69059666283, -23284.41569619366, -1437.6642033653502, 16864.324136295814, 7986.0324246922055, 28176.989040015822, 4795.52206939722, 34738.72360452695, 45599.39153187174, 36425.699165546794, 45406.58538420026, 23846.897345411464, 25293.256377369926, -4756.965310211815, 775.4490703879679, -0.084, 0.988, 0.256, 192.0, 0.0, 0.0, 0.0, 0.0, 0.0, 0.0, 0.0, 0.0, 0.0, 1.706882805286903E9, 0.0, 2024-02-02 15:06:45.286
208.0, 60946.52395803022, 64022.213402058296, -23255.090207468296, -1388.0433306745686, 16878.15986611365, 7993.609666062554, 28189.05898202169, 4806.720293369329, 34652.110594762635, 45603.616011573795, 36446.73215707924, 45446.48324805299, 23870.120807900526, 25258.27589729737, -4749.365717097011, 783.2721809473254, -0.084, 0.988, 0.256, 192.0, 0.0, 0.0, 0.0, 0.0, 0.0, 0.0, 0.0, 0.0, 0.0, 1.7068828052952547E9, 0.0, 2024-02-02 15:06:45.295
210.0, 60939.86313818254, 64019.57589621257, -23277.352544945785, -1417.9052612668588, 16862.424238017113, 7992.603837562066, 28175.066789992667, 4802.540517156186, 34437.33268229159, 45593.22245040208, 36455.33757869453, 45435.66500373662, 23866.72334274332, 25280.24766209694, -4740.067391403602, 787.6531228605655, -0.088, 0.992, 0.256, 192.0, 126.5, 32.0, 15.5, 0.0, 4.0, 0.0, 0.0, 0.0, 0.0, 1.706882805303917E9, 0.0, 2024-02-02 15:06:45.303
212.0, 60935.370437547026, 64014.47969847676, -23288.260196239975, -1425.415447403842, 16877.19874110207, 7988.871096238029, 28178.86658655007, 4804.440415434887, 34266.02891278612, 45605.60531683032, 36444.96636926727, 45437.095515381756, 23858.117921128025, 25298.643147783656, -4743.2860426051675, 781.126413479616, -0.088, 0.992, 0.256, 192.0, 0.0, 0.0, 0.0, 0.0, 0.0, 0.0, 0.0, 0.0, 0.0, 1.7068828053109412E9, 0.0, 2024-02-02 15:06:45.310
214.0, 60931.235364822795, 64009.986997841246, -23297.603225422292, -1416.7653222996382, 16875.4329532901, 8005.478442368322, 28189.86364482208, 4811.078883538114, 34137.9087135683, 45589.46735733359, 36429.409555126374, 45424.55618674233, 23896.026479724227, 25267.685981713057, -4747.89050196296, 780.2099919569483, -0.088, 0.992, 0.256, 192.0, 0.0, 0.0, 0.0, 0.0, 0.0, 0.0, 0.0, 0.0, 0.0, 1.7068828053190534E9, 0.0, 2024-02-02 15:06:45.319
216.0, 60937.89618467048, 64014.34558801003, -23303.45938246958, -1459.6359681649171, 16869.10740960925, 7992.447375350878, 28187.404952931996, 4805.915630568938, 34027.64755817027, 45574.98342692655, 36396.66424949935, 45420.868148907204, 23862.275345596714, 25277.00665915092, -4753.970176454804, 779.8076605567528, -0.088, 0.992, 0.256, 192.0, 0.0, 0.0, 0.0, 0.0, 0.0, 0.0, 0.0, 0.0, 0.0, 1.7068828053269668E9, 0.0, 2024-02-02 15:06:45.326
218.0, 60955.59876627908, 64028.360131783505, -23248.474091109525, -1376.6215892579066, 16889.089869152293, 8007.758320302763, 28200.68188913845, 4819.371380731032, 33979.63601108027, 45622.1679594717, 36483.56783194159, 45448.494905053965, 23864.041133408682, 25302.8229239968, -4719.034399871159, 790.8270705732192, -0.088, 0.992, 0.256, 192.0, 0.0, 0.0, 0.0, 0.0, 0.0, 0.0, 0.0, 0.0, 0.0, 1.7068828053352392E9, 0.0, 2024-02-02 15:06:45.335
220.0, 60939.52786201571, 64014.21147754329, -23281.979356048032, -1396.4252348453088, 16866.469903763522, 7994.3696253740345, 28186.086200009133, 4807.346142214077, 33894.34175423882, 45567.69675823412, 36464.21122124329, 45456.69799526906, 23857.91675542793, 25263.43915026655, -4732.132522121969, 794.7162741084426, -0.092, 0.986, 0.254, 192.0, 126.5, 16.0, 15.0, 104.0, 3.5, 120.0, 0.0, 0.0, 0.0, 1.7068828053430128E9, 0.0, 2024-02-02 15:06:45.343
222.0, 60959.890301214495, 64031.42232077388, -23257.906527269668, -1387.41748182982, 16896.44359307809, 8007.199526691381, 28208.68381365345, 4822.09829355458, 33870.6936086051, 45599.03390396046, 36450.12962223645, 45455.46864932402, 23875.552281803168, 25269.38471429166, -4733.183054111369, 787.0719775047276, -0.092, 0.986, 0.254, 192.0, 0.0, 0.0, 0.0, 0.0, 0.0, 0.0, 0.0, 0.0, 0.0, 1.7068828053509965E9, 0.0, 2024-02-02 15:06:45.350
224.0, 60958.370382591536, 64033.00929463021, -23266.75781807397, -1388.2891998635769, 16894.119011654737, 8011.468709882344, 28201.91123508349, 4822.925308099426, 33808.3322415748, 45606.18646218615, 36479.43275921736, 45468.32090238582, 23870.567842789635, 25279.554758018825, -4707.858527643505, 802.3382189677023, -0.092, 0.986, 0.254, 192.0, 0.0, 0.0, 0.0, 0.0, 0.0, 0.0, 0.0, 0.0, 0.0, 1.7068828053591127E9, 0.0, 2024-02-02 15:06:45.359
226.0, 60946.121626630025, 64020.78289041315, -23283.074591526343, -1404.3601041269428, 16883.837209205296, 7996.470689352834, 28195.831560591647, 4812.509395183253, 33771.00482833443, 45592.97658121307, 36460.70199736381, 45452.58527428929, 23869.20438637786, 25272.737475959955, -4722.297754561634, 790.6035531286661, -0.092, 0.986, 0.254, 192.0, 0.0, 0.0, 0.0, 0.0, 0.0, 0.0, 0.0, 0.0, 0.0, 1.7068828053660345E9, 0.0, 2024-02-02 15:06:45.366
228.0, 60947.41802780844, 64020.64877994642, -23287.790809606413, -1407.1540721838562, 16881.847903948772, 7997.543573086688, 28194.982194302345, 4811.749435871772, 33744.696825110535, 45589.73557826705, 36453.3035699491, 45446.57265503081, 23867.013915421237, 25268.423589280083, -4728.802112198128, 784.3227129367249, -0.092, 0.986, 0.254, 192.0, 0.0, 0.0, 0.0, 0.0, 0.0, 0.0, 0.0, 0.0, 0.0, 1.706882805375109E9, 0.0, 2024-02-02 15:06:45.375
230.0, 60960.76201924826, 64033.70219870832, -23277.307841456874, -1396.9169732233254, 16894.20841863256, 8008.697093569886, 28202.1571042725, 4819.796063875683, 33732.53747612685, 45584.79584274243, 36459.04796827411, 45450.90889345514, 23873.942956202383, 25274.816188194298, -4722.655382472919, 788.4801374054119, -0.09, 0.988, 0.252, 192.0, 126.5, 24.0, 15.0, 112.0, 3.5, 112.0, 0.0, 0.0, 0.0, 1.7068828053830686E9, 0.0, 2024-02-02 15:06:45.383
232.0, 60959.130341903016, 64034.797434186636, -23281.420562436648, -1398.414540101831, 16887.949930185074, 8010.328770915124, 28189.081333766146, 4816.040970807191, 33732.313958682294, 45599.83856676085, 36465.775843355164, 45460.81071624884, 23880.62612779452, 25287.020240666898, -4719.995524882737, 791.8776025626186, -0.09, 0.988, 0.252, 192.0, 0.0, 0.0, 0.0, 0.0, 0.0, 0.0, 0.0, 0.0, 0.0, 1.7068828053900619E9, 0.0, 2024-02-02 15:06:45.390
234.0, 60956.22461512383, 64029.76829168419, -23286.18148400563, -1402.4602058482417, 16885.5359417839, 8006.439567379901, 28198.223197248364, 4816.3091917406555, 33716.08659220774, 45586.80749974341, 36457.48334616224, 45452.09353591127, 23872.378334090514, 25280.22531035248, -4727.84098718655, 785.06032050375, -0.09, 0.988, 0.252, 192.0, 0.0, 0.0, 0.0, 0.0, 0.0, 0.0, 0.0, 0.0, 0.0, 1.7068828053990784E9, 0.0, 2024-02-02 15:06:45.399
236.0, 60956.135208146006, 64031.31056205161, -23285.46622818306, -1398.5710023130182, 16888.86635170774, 8006.193698190892, 28199.519598426774, 4819.5948981755855, 33718.6570428201, 45589.914392222694, 36463.07128227607, 45457.65912028064, 23879.24031963829, 25285.790894721857, -4718.922641148883, 789.1059862501605, -0.09, 0.988, 0.252, 192.0, 0.0, 0.0, 0.0, 0.0, 0.0, 0.0, 0.0, 0.0, 0.0, 1.7068828054071212E9, 0.0, 2024-02-02 15:06:45.407
238.0, 60945.719295229836, 64017.921867122874, -23296.12801028824, -1403.287220393088, 16877.310499824347, 7991.307436383658, 28188.00845003229, 4807.793177103184, 33709.42577236006, 45587.09807242132, 36452.901238548904, 45449.679547510095, 23873.04888642417, 25275.48674052796, -4729.629126742974, 776.0749192327165, -0.09, 0.988, 0.252, 192.0, 0.0, 0.0, 0.0, 0.0, 0.0, 0.0, 0.0, 0.0, 0.0, 1.7068828054151387E9, 0.0, 2024-02-02 15:06:45.415
240.0, 60947.86506269754, 64023.398044514426, -23291.747068375, -1395.7323307671943, 16884.57481677232, 8004.807890034663, 28193.931662312945, 4813.738741128295, 33705.42481010256, 45570.53542977994, 36452.92359029336, 45445.18684687458, 23871.730133501307, 25276.246699839437, -4729.293850576145, 777.4383756444903, -0.084, 0.99, 0.252, 192.0, 126.5, 48.0, 15.0, 120.0, 3.5, 112.0, 0.0, 0.0, 0.0, 1.7068828054221435E9, 0.0, 2024-02-02 15:06:45.422
242.0, 60946.456902796854, 64023.465099747795, -23292.529379430936, -1398.928630224303, 16885.3347760838, 8003.913820256451, 28199.720764126872, 4810.765959115739, 33705.87184499167, 45579.90081070671, 36454.510564149685, 45453.41228883413, 23877.67569752642, 25284.673307499088, -4724.689391218351, 783.5404018807891, -0.084, 0.99, 0.252, 192.0, 0.0, 0.0, 0.0, 0.0, 0.0, 0.0, 0.0, 0.0, 0.0, 1.706882805431156E9, 0.0, 2024-02-02 15:06:45.431
244.0, 60952.87185345553, 64028.7624631837, -23287.23201599503, -1388.0880341634793, 16890.162752886146, 8009.837032537107, 28199.139618771034, 4810.922421326926, 33711.92916773906, 45578.29148510593, 36460.4561281748, 45457.927341214105, 23885.02942145222, 25302.264130385418, -4716.843928914539, 786.5802391267108, -0.084, 0.99, 0.252, 192.0, 0.0, 0.0, 0.0, 0.0, 0.0, 0.0, 0.0, 0.0, 0.0, 1.7068828054391563E9, 0.0, 2024-02-02 15:06:45.439
246.0, 60943.99821090677, 64021.38638751345, -23295.815085865866, -1400.0685691915237, 16884.083078394306, 8001.164555688448, 28191.875301823056, 4801.422929933421, 33723.663833578095, 45576.19042112713, 36465.23940148824, 45458.26261738093, 23897.904026258475, 25313.261188657427, -4712.55239397912, 791.0505880177723, -0.084, 0.99, 0.252, 192.0, 0.0, 0.0, 0.0, 0.0, 0.0, 0.0, 0.0, 0.0, 0.0, 1.7068828054461768E9, 0.0, 2024-02-02 15:06:45.446
248.0, 60937.382094548004, 64014.54675371013, -23302.073574313352, -1391.127871409401, 16879.903302181163, 7996.20246841937, 28182.979307529844, 4795.4103106749435, 33727.284816179854, 45573.79878447042, 36451.35896818149, 45450.305396354845, 23895.847665768586, 25305.795706009354, -4728.802112198128, 777.1030994776606, -0.084, 0.99, 0.252, 192.0, 0.0, 0.0, 0.0, 0.0, 0.0, 0.0, 0.0, 0.0, 0.0, 1.7068828054554539E9, 0.0, 2024-02-02 15:06:45.455
250.0, 60940.48898702729, 64009.67407341887, -23318.9044378882, -1422.9120520248475, 16872.683688722096, 7987.261770637247, 28190.489493666828, 4801.534688655697, 33741.8134500758, 45568.16614486768, 36450.50960189219, 45446.460896308534, 23921.440413169912, 25309.528447333392, -4728.5562430091195, 776.9689890109288, -0.092, 0.998, 0.252, 192.0, 126.5, 16.0, 15.5, 24.0, 3.5, 112.0, 0.0, 0.0, 0.0, 1.7068828054631598E9, 0.0, 2024-02-02 15:06:45.463
252.0, 60944.087617884594, 64021.67696019137, -23300.7995248794, -1393.2959906215658, 16882.04906964887, 8001.969218488839, 28184.38746743053, 4801.221764233323, 33767.18268003257, 45593.51302308, 36432.292930161115, 45422.38806753017, 23900.87680827103, 25392.162846584662, -4749.164551396912, 747.7552590078425, -0.092, 0.998, 0.252, 192.0, 0.0, 0.0, 0.0, 0.0, 0.0, 0.0, 0.0, 0.0, 0.0, 1.706882805470224E9, 0.0, 2024-02-02 15:06:45.470
254.0, 60952.067190655136, 64025.67792244887, -23288.260196239975, -1351.1629523233119, 16891.794430231384, 8018.934192530417, 28195.54098791373, 4815.906860340459, 33845.79376528189, 45617.250575691534, 36463.92064856537, 45475.47346061152, 23920.83691606962, 25294.642185526158, -4726.41047554141, 787.8766403051186, -0.092, 0.998, 0.252, 192.0, 0.0, 0.0, 0.0, 0.0, 0.0, 0.0, 0.0, 0.0, 0.0, 1.706882805478386E9, 0.0, 2024-02-02 15:06:45.478
0.0, 60941.383056805505, 64016.401948499915, -23313.540019218926, -1394.9500197112584, 16873.398944544668, 7998.325884142624, 28174.642106848016, 4798.919534554427, 33860.16593696665, 45620.35746817082, 36463.183040998345, 45463.939960472584, 23933.756224364784, 25315.406956125138, -4733.451275044832, 778.9582942674512, -0.092, 0.998, 0.252, 192.0, 0.0, 0.0, 0.0, 0.0, 0.0, 0.0, 0.0, 0.0, 0.0, 1.7068828054872353E9, 0.0, 2024-02-02 15:06:45.487
2.0, 60932.66587646793, 64007.21538152878, -23354.10843540531, -1406.8411477614818, 16849.5272814664, 7982.38909034599, 28163.890917765013, 4780.032310489692, 33903.61772818777, 45621.27388969349, 36434.393994139915, 45445.544474785864, 23937.69013138892, 25328.77329930941, -4754.976004955292, 758.998186468862, -0.092, 0.998, 0.252, 192.0, 0.0, 0.0, 0.0, 0.0, 0.0, 0.0, 0.0, 0.0, 0.0, 1.706882805495253E9, 0.0, 2024-02-02 15:06:45.495
4.0, 60958.25862386926, 64021.43109100236, -23293.334042231327, -1395.9781999562026, 16885.088906894794, 8011.692227326897, 28186.890862809523, 4792.884563551494, 33957.39602534724, 45637.30009046794, 36445.23459020074, 45441.990547417474, 23966.054495102704, 25323.319473662315, -4754.79719099965, 761.1663056810268, -0.09, 0.988, 0.25, 192.0, 126.5, 24.0, 15.0, 112.0, 3.5, 104.0, 0.0, 0.0, 0.0, 1.706882805502436E9, 0.0, 2024-02-02 15:06:45.502
6.0, 60945.74164697429, 64016.04432058863, -23317.22805705405, -1406.9082029948477, 16884.843037705785, 8002.662122566953, 28186.44382792042, 4794.158612985446, 34021.38906972278, 45676.23682930909, 36485.73595115375, 45473.35004488827, 23940.5511546792, 25339.077453503305, -4716.083969603058, 780.478212890412, -0.09, 0.988, 0.25, 192.0, 0.0, 0.0, 0.0, 0.0, 0.0, 0.0, 0.0, 0.0, 0.0, 1.706882805510239E9, 0.0, 2024-02-02 15:06:45.510
8.0, 60926.00505662025, 63993.17848601085, -23408.11025000933, -1447.5213226701408, 16852.924746623605, 7992.939113728895, 28164.516766609762, 4783.653293091452, 34036.990587352586, 45655.919093599216, 36401.78279897962, 45428.60185248874, 23989.188550613948, 25326.225200441506, -4762.016804458714, 755.6007213116552, -0.09, 0.988, 0.25, 192.0, 0.0, 0.0, 0.0, 0.0, 0.0, 0.0, 0.0, 0.0, 0.0, 1.7068828055192676E9, 0.0, 2024-02-02 15:06:45.519
10.0, 60939.81843469363, 64009.11527980748, -23307.058013326885, -1390.0102841866355, 16868.34745029777, 7979.393956588979, 28179.693601094914, 4795.320903697122, 34056.99539864009, 45671.81118390694, 36444.85461054499, 45421.24812856295, 23953.78338739674, 25330.650845843655, -4758.775801512695, 756.0701079452167, -0.09, 0.988, 0.25, 192.0, 0.0, 0.0, 0.0, 0.0, 0.0, 0.0, 0.0, 0.0, 0.0, 1.706882805526308E9, 0.0, 2024-02-02 15:06:45.526
12.0, 60953.5871092781, 64018.994750856735, -23309.337891261326, -1369.6701967323063, 16898.522305312432, 8020.1411867310035, 28201.330089727653, 4817.493834196786, 34126.50932389609, 45660.23298027909, 36448.14031697992, 45457.726175514006, 23921.038081769715, 25289.836560468266, -4733.630089000474, 773.2585994313479, -0.09, 0.988, 0.25, 192.0, 0.0, 0.0, 0.0, 0.0, 0.0, 0.0, 0.0, 0.0, 0.0, 1.706882805534566E9, 0.0, 2024-02-02 15:06:45.534
14.0, 60948.17798711992, 64013.58562869855, -23324.022987368466, -1412.831415275504, 16893.15788664316, 8006.39486389099, 28203.520560684272, 4820.690133653896, 34142.35671071491, 45659.74124190107, 36459.71852060778, 45461.90595172715, 23954.096311819114, 25288.562511034314, -4725.203481340824, 784.9262100370181, -0.092, 0.992, 0.258, 192.0, 126.5, 16.0, 15.5, 0.0, 4.0, 8.0, 0.0, 0.0, 0.0, 1.7068828055432885E9, 0.0, 2024-02-02 15:06:45.543
16.0, 60947.172158619425, 64013.49622172073, -23330.19206883813, -1397.7663395126272, 16877.131685868702, 7989.25107589377, 28185.326240697654, 4807.14497651398, 34098.860216004876, 45655.784983132486, 36457.036311273136, 45434.18978860257, 23961.45003574491, 25309.908426989132, -4744.4036298279325, 761.993320225873, -0.092, 0.992, 0.258, 192.0, 0.0, 0.0, 0.0, 0.0, 0.0, 0.0, 0.0, 0.0, 0.0, 1.7068828055513487E9, 0.0, 2024-02-02 15:06:45.551
18.0, 60946.65806849695, 64011.9092478644, -23342.37376956627, -1411.445607119275, 16874.87415967872, 7998.34823588708, 28184.18630173043, 4806.2732584802225, 34108.31500390947, 45663.2281140361, 36448.587351869035, 45435.061506636324, 23947.815471627175, 25263.416798522092, -4755.065411933114, 768.8776575181076, -0.092, 0.992, 0.258, 192.0, 0.0, 0.0, 0.0, 0.0, 0.0, 0.0, 0.0, 0.0, 0.0, 1.7068828055585997E9, 0.0, 2024-02-02 15:06:45.558
20.0, 60932.9340974014, 64004.175544282865, -23354.801339483423, -1400.381493613898, 16864.279432806903, 7986.837087492596, 28180.833540062136, 4792.348121684566, 34112.87475977835, 45622.88321529427, 36441.83712504353, 45439.330689827286, 23922.78151783723, 25281.208787108517, -4745.610624028519, 772.5880470976887, -0.092, 0.992, 0.258, 192.0, 0.0, 0.0, 0.0, 0.0, 0.0, 0.0, 0.0, 0.0, 0.0, 1.7068828055663795E9, 0.0, 2024-02-02 15:06:45.566
22.0, 60919.05366409465, 63993.826686600056, -23366.692467533645, -1434.8702353084368, 16861.597223472265, 7985.786555503197, 28174.686810336927, 4783.7874035581835, 34005.385220692784, 45605.06887496339, 36435.98096799624, 45426.07610536529, 23903.000223994284, 25261.248679309927, -4755.110115422024, 769.5705615962222, -0.092, 0.992, 0.258, 192.0, 0.0, 0.0, 0.0, 0.0, 0.0, 0.0, 0.0, 0.0, 0.0, 1.7068828055753365E9, 0.0, 2024-02-02 15:06:45.575
24.0, 60938.991420148785, 64011.68573041985, -23356.745941251032, -1412.8090635310489, 16874.114200367236, 7999.912857998951, 28181.995830773812, 4808.061398036647, 34027.96048259264, 45561.59473199782, 36437.34442440801, 45417.96242212802, 23911.87386654304, 25269.116493358197, -4748.158722896424, 766.7542417948534, -0.094, 0.995, 0.258, 192.0, 126.5, 0.0, 15.5, 24.0, 4.0, 8.0, 0.0, 0.0, 0.0, 1.706882805582637E9, 0.0, 2024-02-02 15:06:45.582
26.0, 60930.09542585557, 64006.47777396176, -23361.998601198033, -1419.514586867641, 16869.040354375884, 7991.352139872568, 28182.465217407374, 4817.627944663518, 33980.418322136204, 45581.21956362958, 36423.486342845725, 45424.019744875404, 23916.21010496737, 25278.6159847517, -4758.172304412402, 758.8864277465854, -0.094, 0.995, 0.258, 192.0, 0.0, 0.0, 0.0, 0.0, 0.0, 0.0, 0.0, 0.0, 0.0, 1.706882805590364E9, 0.0, 2024-02-02 15:06:45.590
28.0, 60929.22370782182, 64008.087099562545, -23395.63797660327, -1428.477636394219, 16860.30082229386, 7987.887619481996, 28184.476874408352, 4820.176043531424, 33994.65638335424, 45558.82311568536, 36424.82744751304, 45427.41721003261, 23882.034287695205, 25260.265202553896, -4763.670833548407, 753.7902300107754, -0.094, 0.995, 0.258, 192.0, 0.0, 0.0, 0.0, 0.0, 0.0, 0.0, 0.0, 0.0, 0.0, 1.7068828055984704E9, 0.0, 2024-02-02 15:06:45.598
30.0, 60947.61919350853, 64023.68861719235, -23344.877164945265, -1414.1054647094566, 16872.14724685517, 7990.122793927526, 28190.33303145564, 4823.461749966354, 33977.15496744573, 45558.532543007444, 36427.040270214115, 45416.97894537198, 23927.58714289512, 25273.788007949355, -4775.696072065362, 742.4578955719347, -0.094, 0.995, 0.258, 192.0, 0.0, 0.0, 0.0, 0.0, 0.0, 0.0, 0.0, 0.0, 0.0, 1.7068828056064262E9, 0.0, 2024-02-02 15:06:45.606
32.0, 60942.075960883616, 64024.5603352261, -23354.24254587204, -1409.679819307306, 16874.963566656537, 8006.573677846633, 28188.746057599314, 4818.276145252722, 33965.62146730679, 45579.78905198444, 36457.08101476205, 45452.13823940018, 23889.008031965262, 25289.948319190542, -4749.164551396912, 769.1682301960267, -0.094, 0.995, 0.258, 192.0, 0.0, 0.0, 0.0, 0.0, 0.0, 0.0, 0.0, 0.0, 0.0, 1.7068828056147568E9, 0.0, 2024-02-02 15:06:45.614
34.0, 60939.416103293435, 64021.00640785771, -23370.179339668673, -1410.506833852152, 16867.632194475198, 7996.448337608378, 28178.777179572247, 4810.900069582471, 33945.50489729702, 45551.51409524847, 36441.658311087886, 45436.536721770375, 23869.62906952251, 25282.86281619821, -4751.6232432869965, 760.7416225363759, -0.098, 0.9964999999999999, 0.257, 192.0, 126.0, 104.0, 15.5, 24.0, 4.0, 0.0, 0.0, 0.0, 0.0, 1.7068828056224043E9, 0.0, 2024-02-02 15:06:45.622
36.0, 60937.11387361454, 64015.10554732151, -23371.475740847083, -1427.4271044048196, 16863.09479035077, 7988.245247393281, 28179.827711561647, 4804.842746835083, 33939.536981527446, 45538.460676486575, 36436.83033428554, 45433.47453278, 23888.516293587243, 25282.415781309104, -4760.094554435558, 758.1711719240155, -0.098, 0.9964999999999999, 0.257, 192.0, 0.0, 0.0, 0.0, 0.0, 0.0, 0.0, 0.0, 0.0, 0.0, 1.7068828056315012E9, 0.0, 2024-02-02 15:06:45.631
38.0, 60938.700847470864, 64021.67696019137, -23369.57584256838, -1423.3143834250432, 16869.442685776077, 7997.789442275696, 28192.478798923352, 4813.38111321701, 33938.50880128251, 45544.00390911149, 36418.63601429892, 45425.94199489856, 23862.20829036335, 25281.566415019803, -4767.001243472248, 743.7766484947978, -0.098, 0.9964999999999999, 0.257, 192.0, 0.0, 0.0, 0.0, 0.0, 0.0, 0.0, 0.0, 0.0, 0.0, 1.7068828056387353E9, 0.0, 2024-02-02 15:06:45.638
40.0, 60948.24504235328, 64029.85769866201, -23363.183243654163, -1402.7731302706159, 16878.606901002753, 8002.617419078043, 28197.753810614802, 4819.505491197764, 33936.09481288133, 45545.63558645673, 36455.02465427216, 45441.789381717375, 23886.459933097358, 25300.163066406618, -4743.867187961005, 769.6152650851328, -0.098, 0.9964999999999999, 0.257, 192.0, 0.0, 0.0, 0.0, 0.0, 0.0, 0.0, 0.0, 0.0, 0.0, 1.7068828056464891E9, 0.0, 2024-02-02 15:06:45.646
42.0, 60938.96906840433, 64024.5603352261, -23379.34355489535, -1408.6516390623617, 16869.822665431817, 8002.282142911214, 28184.476874408352, 4811.6153254050405, 33926.08123136535, 45549.994176625514, 36437.72440406375, 45440.29181483887, 23875.35111610307, 25295.938586704564, -4759.222836401801, 765.7931167832753, -0.098, 0.9964999999999999, 0.257, 192.0, 0.0, 0.0, 0.0, 0.0, 0.0, 0.0, 0.0, 0.0, 0.0, 1.7068828056545067E9, 0.0, 2024-02-02 15:06:45.654
44.0, 60946.613365008045, 64031.17645158488, -23374.38146762627, -1402.7284267817054, 16877.466962035534, 8010.82050929314, 28195.585691402637, 4818.6561249084625, 33932.29501632393, 45534.72793516254, 36439.82546804255, 45437.98958515997, 23893.277215156224, 25299.693679773056, -4755.825371244594, 765.994282483373, -0.096, 0.99525, 0.2585, 192.0, 126.5, 8.0, 15.5, 8.0, 4.0, 16.0, 0.0, 0.0, 0.0, 1.7068828056625192E9, 0.0, 2024-02-02 15:06:45.662
46.0, 60945.093446385086, 64028.74011143925, -23372.14629318074, -1404.1142349379343, 16872.594281744277, 8006.573677846633, 28185.25918546429, 4811.995305060781, 33934.0608041359, 45547.759002179984, 36440.2501511872, 45443.868093951714, 23870.59019453409, 25316.278674158893, -4750.773876997695, 765.6366545720881, -0.096, 0.99525, 0.2585, 192.0, 0.0, 0.0, 0.0, 0.0, 0.0, 0.0, 0.0, 0.0, 0.0, 1.7068828056706915E9, 0.0, 2024-02-02 15:06:45.670
48.0, 60945.67459174092, 64025.364998026496, -23374.42617111518, -1403.6001448154623, 16877.19874110207, 8005.389035390501, 28191.96470880088, 4812.017656805237, 33934.932522169656, 45540.6511474432, 36444.228761700244, 45442.79521021786, 23879.642651038488, 25302.53235131888, -4747.577577540586, 768.3635673956356, -0.096, 0.99525, 0.2585, 192.0, 0.0, 0.0, 0.0, 0.0, 0.0, 0.0, 0.0, 0.0, 0.0, 1.7068828056786137E9, 0.0, 2024-02-02 15:06:45.678
50.0, 60940.91367017194, 64019.33002702356, -23384.193883442153, -1411.5797175860068, 16870.806142187852, 7996.604799819565, 28179.581842372638, 4798.517203154231, 33933.07732737986, 45539.242987542515, 36438.39495639741, 45433.385125802175, 23876.96044170385, 25301.39241235166, -4750.885635719971, 759.5346283357893, -0.096, 0.99525, 0.2585, 192.0, 0.0, 0.0, 0.0, 0.0, 0.0, 0.0, 0.0, 0.0, 0.0, 1.706882805687574E9, 0.0, 2024-02-02 15:06:45.687
52.0, 60938.90201317096, 64019.553544468115, -23388.44071488866, -1414.3736856429202, 16868.682726464598, 7989.899276482974, 28177.659592349482, 4791.52110713972, 33934.68665298064, 45546.32849053484, 36436.38329939643, 45435.977928158994, 23873.361810846545, 25304.454601342037, -4757.278234634189, 748.8728462306078, -0.096, 0.99525, 0.2585, 192.0, 0.0, 0.0, 0.0, 0.0, 0.0, 0.0, 0.0, 0.0, 0.0, 1.70688280569361E9, 0.0, 2024-02-02 15:06:45.693
54.0, 60948.17798711992, 64027.82368991658, -23385.11030496482, -1412.1161594529342, 16870.023831131915, 7983.998415946772, 28186.153255242498, 4793.979799029804, 33940.98984491704, 45546.03791785693, 36445.502811134196, 45445.16449513013, 23881.72136327283, 25297.39145009416, -4752.696127020851, 748.9846049528844, -0.092, 0.992625, 0.25825, 192.0, 126.5, 32.0, 15.0, 120.0, 4.0, 8.0, 0.0, 0.0, 0.0, 1.706882805702635E9, 0.0, 2024-02-02 15:06:45.702
56.0, 60935.19162359138, 64013.83149788756, -23398.54370338246, -1420.2074909457554, 16862.29012755038, 7991.396843361479, 28162.683923564426, 4775.85253427655, 33967.208441163115, 45561.97471165356, 36438.17143895286, 45438.503675282445, 23870.81371197864, 25307.047403698853, -4764.810772515628, 739.0827821591834, -0.092, 0.992625, 0.25825, 192.0, 0.0, 0.0, 0.0, 0.0, 0.0, 0.0, 0.0, 0.0, 0.0, 1.7068828057106514E9, 0.0, 2024-02-02 15:06:45.710
58.0, 60933.44818752387, 64012.132765308954, -23405.8750755638, -1460.2394652652104, 16865.642889218678, 7985.898314225473, 28184.81215057518, 4781.529877368197, 33988.55435711794, 45535.42083924065, 36432.31528190557, 45424.06444836431, 23866.790397976685, 25287.735496489466, -4767.1800574278905, 742.0332124272838, -0.092, 0.992625, 0.25825, 192.0, 0.0, 0.0, 0.0, 0.0, 0.0, 0.0, 0.0, 0.0, 0.0, 1.7068828057185771E9, 0.0, 2024-02-02 15:06:45.718
60.0, 60949.31792608713, 64033.76925394169, -23376.840159516356, -1384.288237606077, 16879.165694614137, 8004.718483056842, 28194.28929022423, 4795.4103106749435, 34038.175229808716, 45629.74520084205, 36436.78563079663, 45430.255881578436, 23863.527043286213, 25377.477750477523, -4760.2733683912, 742.1673228940157, -0.092, 0.992625, 0.25825, 192.0, 0.0, 0.0, 0.0, 0.0, 0.0, 0.0, 0.0, 0.0, 0.0, 1.7068828057268035E9, 0.0, 2024-02-02 15:06:45.726
62.0, 60938.96906840433, 64021.31933228009, -23385.825560787387, -1383.1482986388564, 16872.102543366258, 7982.38909034599, 28179.090103994622, 4786.7825373151945, 34103.330564895936, 45594.89883123623, 36454.26469496068, 45469.97493147552, 23880.179092905415, 25285.835598210764, -4749.075144419092, 770.4199278855239, -0.092, 0.992625, 0.25825, 192.0, 0.0, 0.0, 0.0, 0.0, 0.0, 0.0, 0.0, 0.0, 0.0, 1.7068828057347252E9, 0.0, 2024-02-02 15:06:45.734
64.0, 60947.507434786254, 64025.074425348575, -23378.650650817235, -1391.6866650207837, 16874.941214912084, 8011.3345994156125, 28186.220310475866, 4799.2324589768, 34178.74535068814, 45593.58007831336, 36448.565000124574, 45439.84477994976, 23888.20336916487, 25310.19899966705, -4760.094554435558, 741.8096949827308, -0.092, 0.9933125, 0.260125, 192.0, 126.5, 16.0, 15.5, 8.0, 4.0, 24.0, 0.0, 0.0, 0.0, 1.7068828057436247E9, 0.0, 2024-02-02 15:06:45.743
66.0, 60940.310173071644, 64020.738186924245, -23407.283235464485, -1430.1093137394564, 16859.38440077119, 7995.733081785808, 28172.362228913575, 4787.922476282415, 34211.73652550418, 45583.52179330847, 36444.34052042252, 45436.737887470474, 23893.411325622958, 25313.685871802078, -4767.247112661256, 747.5540933077447, -0.092, 0.9933125, 0.260125, 192.0, 0.0, 0.0, 0.0, 0.0, 0.0, 0.0, 0.0, 0.0, 0.0, 1.7068828057498558E9, 0.0, 2024-02-02 15:06:45.749
68.0, 60941.226594594315, 64017.98892235624, -23396.129714981285, -1404.3601041269428, 16868.95094739806, 7997.275352153225, 28167.869528278057, 4785.150859969957, 34294.86266313346, 45627.6217851188, 36436.74092730772, 45433.541588013366, 23855.949801915864, 25313.462354357525, -4768.074127206102, 745.4530293289458, -0.092, 0.9933125, 0.260125, 192.0, 0.0, 0.0, 0.0, 0.0, 0.0, 0.0, 0.0, 0.0, 0.0, 1.706882805758826E9, 0.0, 2024-02-02 15:06:45.758
70.0, 60944.311135329146, 64021.654608446916, -23396.666156848212, -1402.5943163149734, 16873.354241055757, 8000.985741732806, 28182.040534262724, 4790.314112939133, 34359.92859124286, 45601.537299339456, 36446.50863963469, 45447.33261434229, 23877.5862905486, 25306.890941487665, -4758.8428567460605, 760.4286981140016, -0.092, 0.9933125, 0.260125, 192.0, 0.0, 0.0, 0.0, 0.0, 0.0, 0.0, 0.0, 0.0, 0.0, 1.706882805766914E9, 0.0, 2024-02-02 15:06:45.766
72.0, 60940.936021916394, 64016.133727566455, -23398.54370338246, -1417.5252816111185, 16870.5826247433, 7995.9565992303615, 28181.325278440152, 4786.648426848463, 34418.57956869359, 45607.8628430203, 36437.83616278603, 45434.927396169594, 23877.608642293053, 25306.130982176186, -4763.939054481871, 752.4714770879123, -0.092, 0.9933125, 0.260125, 192.0, 0.0, 0.0, 0.0, 0.0, 0.0, 0.0, 0.0, 0.0, 0.0, 1.706882805774701E9, 0.0, 2024-02-02 15:06:45.774
74.0, 60933.53759450169, 64010.56814319708, -23419.353177470348, -1434.0655725080458, 16865.62053747422, 7997.3647591310455, 28173.993906258813, 4783.6756448359065, 34478.191671155895, 45599.50329059402, 36433.83520052853, 45428.13246585518, 23872.020706179228, 25315.116383447217, -4762.41913585891, 754.0808026886943, -0.094, 0.98965625, 0.2590625, 192.0, 126.5, 0.0, 15.0, 104.0, 4.0, 8.0, 0.0, 0.0, 0.0, 1.7068828057828894E9, 0.0, 2024-02-02 15:06:45.782
76.0, 60933.51524275723, 64006.16484953939, -23404.48926740757, -1431.1821974733111, 16861.48546474999, 7986.39005260349, 28170.57408935715, 4775.204333687346, 34563.86590765308, 45604.84535751884, 36429.856590015486, 45425.02557337589, 23877.67569752642, 25337.512831391436, -4773.080917964091, 741.5861775381777, -0.094, 0.98965625, 0.2590625, 192.0, 0.0, 0.0, 0.0, 0.0, 0.0, 0.0, 0.0, 0.0, 0.0, 1.7068828057906709E9, 0.0, 2024-02-02 15:06:45.790
78.0, 60931.21301307834, 64005.628407672455, -23433.568886943925, -1422.286203180099, 16861.77603742791, 7989.653407293965, 28169.14357771201, 4775.763127298728, 34630.787030552274, 45594.42944460266, 36430.50479060469, 45415.213157560014, 23897.456991369367, 25305.86276124272, -4774.891409264971, 733.5842530231778, -0.094, 0.98965625, 0.2590625, 192.0, 0.0, 0.0, 0.0, 0.0, 0.0, 0.0, 0.0, 0.0, 0.0, 1.7068828057987103E9, 0.0, 2024-02-02 15:06:45.798
80.0, 60943.55117601767, 64013.317407765084, -23405.20452323014, -1432.1209707404341, 16865.844054918773, 7994.637846307498, 28170.395275401508, 4779.629979089496, 34686.55463296826, 45594.78707251395, 36427.12967719194, 45427.03723037687, 23935.231439498835, 25317.083336959284, -4784.681473336395, 739.7086310039319, -0.094, 0.98965625, 0.2590625, 192.0, 0.0, 0.0, 0.0, 0.0, 0.0, 0.0, 0.0, 0.0, 0.0, 1.706882805805718E9, 0.0, 2024-02-02 15:06:45.805
82.0, 60932.39765553447, 64000.71102389229, -23425.41050021774, -1408.673990806817, 16861.86544440573, 7986.166535158937, 28162.48275786433, 4772.924455752905, 34692.27667954882, 45617.83172104737, 36445.994549512216, 45448.11492539822, 23832.48047023779, 25291.6694035136, -4762.195618414356, 755.7124800339318, -0.094, 0.98965625, 0.2590625, 192.0, 0.0, 0.0, 0.0, 0.0, 0.0, 0.0, 0.0, 0.0, 0.0, 1.7068828058149445E9, 0.0, 2024-02-02 15:06:45.814
84.0, 60962.59486229359, 64024.04624510363, -23376.750752538534, -1393.5642115550295, 16883.457229549556, 8003.064453967149, 28177.81605456067, 4787.117813482024, 34715.790714715804, 45596.37404637028, 36441.63595934343, 45427.305451310334, 23887.376354620024, 25298.017298938907, -4770.912798751927, 744.3801455950911, -0.096, 0.985828125, 0.25553125, 192.0, 126.0, 120.0, 15.0, 88.0, 3.5, 112.0, 0.0, 0.0, 0.0, 1.7068828058227344E9, 0.0, 2024-02-02 15:06:45.822
86.0, 60951.73191448831, 64017.161907811394, -23399.90715979423, -1394.2124121442334, 16873.555406755855, 7992.62618930652, 28174.396237659006, 4782.513354124231, 34770.954820031504, 45627.040639762956, 36465.08293927705, 45452.49586731147, 23888.96332847635, 25321.978368994998, -4754.573673555097, 755.4889625893787, -0.096, 0.985828125, 0.25553125, 192.0, 0.0, 0.0, 0.0, 0.0, 0.0, 0.0, 0.0, 0.0, 0.0, 1.7068828058297548E9, 0.0, 2024-02-02 15:06:45.829
88.0, 60939.86313818254, 64006.254256517204, -23410.300720965948, -1409.702171051761, 16865.86640666323, 7988.759337515752, 28165.634353832527, 4777.663025577429, 34750.03358722134, 45603.28073540697, 36450.08491874754, 45439.21893110501, 23882.16839816194, 25295.782124493377, -4766.4200981164095, 748.1352386635826, -0.096, 0.985828125, 0.25553125, 192.0, 0.0, 0.0, 0.0, 0.0, 0.0, 0.0, 0.0, 0.0, 0.0, 1.7068828058377724E9, 0.0, 2024-02-02 15:06:45.837
90.0, 60932.19648983437, 64001.13570703694, -23426.572790929415, -1420.2745461791214, 16854.24349954647, 7972.308453596646, 28158.459443862375, 4768.387051628477, 34744.02096796286, 45587.902735221716, 36444.69814833381, 45421.24812856295, 23898.686337314408, 25299.358403606228, -4768.722327795306, 744.3130903617251, -0.096, 0.985828125, 0.25553125, 192.0, 0.0, 0.0, 0.0, 0.0, 0.0, 0.0, 0.0, 0.0, 0.0, 1.7068828058469353E9, 0.0, 2024-02-02 15:06:45.846
92.0, 60928.17317583242, 63993.93844532233, -23446.465843494636, -1435.1161044974453, 16862.826569417306, 7983.529029313211, 28161.18635668592, 4774.6902435648735, 34725.044336920306, 45601.112616194805, 36428.40372662589, 45424.08680010877, 23911.516238631757, 25304.588711808767, -4781.306359923645, 736.512331546823, -0.096, 0.985828125, 0.25553125, 192.0, 0.0, 0.0, 0.0, 0.0, 0.0, 0.0, 0.0, 0.0, 0.0, 1.7068828058538053E9, 0.0, 2024-02-02 15:06:45.853
94.0, 60950.10023714307, 64015.26200953269, -23389.535950366968, -1388.51271730813, 16885.602997017264, 8000.628113821521, 28189.48366516634, 4800.148880499468, 34741.69638653951, 45612.780226800474, 36441.25597968769, 45430.41234378962, 23841.935258142385, 25294.06104017032, -4766.733022538784, 745.6318432845883, -0.099, 0.9889140625, 0.253765625, 192.0, 126.0, 104.0, 15.5, 0.0, 3.5, 112.0, 0.0, 0.0, 0.0, 1.7068828058618135E9, 0.0, 2024-02-02 15:06:45.861
96.0, 60938.991420148785, 64007.75182339571, -23414.63695939028, -1410.5291855966075, 16870.33675555429, 7988.044081693182, 28176.296135937708, 4791.319941439622, 34749.005406976394, 45617.56350011391, 36459.38324444094, 45441.25293985045, 23887.86809299804, 25295.44684832655, -4755.110115422024, 755.511314333834, -0.099, 0.9889140625, 0.253765625, 192.0, 0.0, 0.0, 0.0, 0.0, 0.0, 0.0, 0.0, 0.0, 0.0, 1.7068828058707883E9, 0.0, 2024-02-02 15:06:45.870
98.0, 60935.10221661356, 64003.23677101574, -23432.58541018789, -1423.7614183141493, 16866.827531674808, 7983.551381057666, 28169.970592256857, 4783.407423902443, 34740.3999853611, 45599.97267722758, 36434.237531928724, 45419.88467215117, 23875.10524691406, 25287.355516833726, -4776.590141843574, 728.6221657540997, -0.099, 0.9889140625, 0.253765625, 192.0, 0.0, 0.0, 0.0, 0.0, 0.0, 0.0, 0.0, 0.0, 0.0, 1.7068828058788393E9, 0.0, 2024-02-02 15:06:45.878
100.0, 60938.87966142651, 64006.0083873282, -23423.443546705672, -1413.7254850537165, 16868.615671231233, 7981.763241501241, 28168.160100955978, 4782.043967490669, 34725.73724099842, 45598.67627604918, 36427.28613940312, 45421.717515196506, 23868.77970323321, 25301.43711584057, -4775.94194125437, 726.9234331754963, -0.099, 0.9889140625, 0.253765625, 192.0, 0.0, 0.0, 0.0, 0.0, 0.0, 0.0, 0.0, 0.0, 0.0, 1.7068828058861282E9, 0.0, 2024-02-02 15:06:45.886
102.0, 60938.87966142651, 64007.0589193176, -23427.891543852278, -1415.580679843507, 16862.737162439487, 7978.969273444328, 28160.448749118896, 4775.696072065362, 34775.17929973356, 45605.94059299715, 36450.71076759229, 45433.00514614644, 23890.14797093248, 25288.9201389456, -4772.745641797262, 730.7679332218091, -0.099, 0.9889140625, 0.253765625, 192.0, 0.0, 0.0, 0.0, 0.0, 0.0, 0.0, 0.0, 0.0, 0.0, 1.7068828058938267E9, 0.0, 2024-02-02 15:06:45.893
104.0, 60939.25964108225, 64002.47681170426, -23431.423119476214, -1412.8761187644147, 16864.659412462643, 7986.568866559132, 28163.533289853727, 4780.568752356619, 34754.481584367946, 45596.23993590355, 36439.981930253736, 45426.5231402544, 23875.4852265698, 25288.85308371223, -4778.244170933267, 729.158607621027, -0.0995, 0.98945703125, 0.2508828125, 192.0, 126.0, 112.0, 15.0, 120.0, 3.5, 96.0, 0.0, 0.0, 0.0, 1.706882805902842E9, 0.0, 2024-02-02 15:06:45.902
106.0, 60946.278088841216, 64007.84123037353, -23431.311360753938, -1407.1764239283114, 16867.229863075, 7990.793346261185, 28173.189243458422, 4786.46961289282, 34763.60109610571, 45607.97460174258, 36445.16753496737, 45432.826332190794, 23880.894348727983, 25299.24664488395, -4773.773822042206, 737.3616978361247, -0.0995, 0.98945703125, 0.2508828125, 192.0, 0.0, 0.0, 0.0, 0.0, 0.0, 0.0, 0.0, 0.0, 0.0, 1.7068828059098628E9, 0.0, 2024-02-02 15:06:45.909
108.0, 60949.407333064955, 64011.10458506401, -23429.411462475236, -1402.3260953815097, 16871.81197068834, 7998.281180653714, 28172.608098102584, 4790.314112939133, 34761.83530829374, 45609.85214827683, 36447.91679953537, 45436.827294448296, 23881.833121995107, 25305.035746697875, -4769.6387493179745, 738.7251542478984, -0.0995, 0.98945703125, 0.2508828125, 192.0, 0.0, 0.0, 0.0, 0.0, 0.0, 0.0, 0.0, 0.0, 0.0, 1.7068828059181387E9, 0.0, 2024-02-02 15:06:45.918
110.0, 60947.55213827517, 64010.031701330154, -23434.82058463342, -1405.3882843718868, 16864.346488040268, 7994.660198051954, 28164.203842187388, 4788.3695111715215, 34757.14144195813, 45604.48772960755, 36446.30747393459, 45438.727192727, 23885.744677274786, 25299.268996628405, -4773.259731919734, 735.0147646683174, -0.0995, 0.98945703125, 0.2508828125, 192.0, 0.0, 0.0, 0.0, 0.0, 0.0, 0.0, 0.0, 0.0, 0.0, 1.7068828059268851E9, 0.0, 2024-02-02 15:06:45.926
112.0, 60950.882548199006, 64016.67016943338, -23424.561133928437, -1397.475766834708, 16879.612729503242, 7997.387110875501, 28182.509920896286, 4793.175136229413, 34765.74686357342, 45617.675258836185, 36449.79434606962, 45442.817561962314, 23886.951671475374, 25316.524543347903, -4771.337481896578, 738.6804507589878, -0.0995, 0.98945703125, 0.2508828125, 192.0, 0.0, 0.0, 0.0, 0.0, 0.0, 0.0, 0.0, 0.0, 0.0, 1.7068828059349337E9, 0.0, 2024-02-02 15:06:45.934
114.0, 60952.64833601098, 64017.25131478922, -23421.945979827164, -1393.2959906215658, 16880.931482426106, 7997.655331808965, 28183.314583696676, 4791.588162373086, 34773.36880843268, 45613.38372390076, 36457.99743628471, 45448.785477731886, 23886.839912753097, 25310.266054900418, -4757.479400334287, 744.2236833839039, -0.09575, 0.991728515625, 0.24844140625, 192.0, 126.5, 16.0, 15.5, 8.0, 3.5, 88.0, 0.0, 0.0, 0.0, 1.7068828059418967E9, 0.0, 2024-02-02 15:06:45.941
116.0, 60950.56962377663, 64017.452480489315, -23427.19863977416, -1393.094824921468, 16873.264834077934, 7994.056700951661, 28169.300039923197, 4783.653293091452, 34784.656439382605, 45619.93278502617, 36460.053796774606, 45453.34523360077, 23893.478380856322, 25319.96671199402, -4762.061507947625, 747.1964653964598, -0.09575, 0.991728515625, 0.24844140625, 192.0, 0.0, 0.0, 0.0, 0.0, 0.0, 0.0, 0.0, 0.0, 0.0, 1.7068828059501598E9, 0.0, 2024-02-02 15:06:45.950
118.0, 60948.49091154229, 64015.44082348834, -23432.764224143535, -1396.1123104229343, 16872.63898523319, 7994.056700951661, 28171.8481387911, 4781.731043068296, 34780.946049803024, 45613.24961343403, 36452.87888680445, 45448.51725679842, 23889.522122087732, 25315.652825314144, -4766.956539983337, 743.5531310502447, -0.09575, 0.991728515625, 0.24844140625, 192.0, 0.0, 0.0, 0.0, 0.0, 0.0, 0.0, 0.0, 0.0, 0.0, 1.7068828059589689E9, 0.0, 2024-02-02 15:06:45.958
120.0, 60953.385943578, 64018.838288645544, -23431.132546798297, -1393.2065836437446, 16873.95773815605, 7996.604799819565, 28176.58670861563, 4782.446298890865, 34797.28517499986, 45616.66943033569, 36455.4046339279, 45449.836009721286, 23896.96525299135, 25319.787898038376, -4767.940016739371, 744.4024973395465, -0.09575, 0.991728515625, 0.24844140625, 192.0, 0.0, 0.0, 0.0, 0.0, 0.0, 0.0, 0.0, 0.0, 0.0, 1.7068828059659688E9, 0.0, 2024-02-02 15:06:45.965
122.0, 60954.48117905631, 64020.15704156841, -23433.39007298828, -1392.6254382879065, 16874.583587000798, 8001.790404533197, 28172.138711469022, 4781.887505279482, 34816.50767523142, 45630.61691887581, 36458.019788029174, 45451.42298357761, 23901.547360604687, 25330.494383632467, -4769.6387493179745, 744.514256061823, -0.09575, 0.991728515625, 0.24844140625, 192.0, 0.0, 0.0, 0.0, 0.0, 0.0, 0.0, 0.0, 0.0, 0.0, 1.7068828059742215E9, 0.0, 2024-02-02 15:06:45.974
124.0, 60949.474388298324, 64020.08998633504, -23444.92357312722, -1398.995685457669, 16872.303709066357, 7999.622285321032, 28177.547833627206, 4784.122679725013, 34831.25982657192, 45633.76851484401, 36453.84001181603, 45440.6270910057, 23898.284005914215, 25331.611970855236, -4767.023595216703, 740.8709217156079, -0.09575, 0.991728515625, 0.24844140625, 192.0, 0.0, 0.0, 0.0, 0.0, 0.0, 0.0, 0.0, 0.0, 0.0, 1.7068828059820056E9, 0.0, 2024-02-02 15:06:45.982
126.0, 60939.281992826705, 64012.60215194251, -23456.971163388633, -1411.8926420083812, 16861.66427870563, 7983.730195013309, 28161.99101948631, 4771.091612707569, 34854.61739952772, 45624.671354850696, 36439.892523275914, 45439.73302122748, 23907.06824148515, 25334.58475286779, -4777.797136044162, 737.898139703052, -0.09, 0.984, 0.25, 192.0, 126.5, 24.0, 15.0, 96.0, 3.5, 104.0, 0.0, 0.0, 0.0, 1.706882805990973E9, 0.0, 2024-02-02 15:06:45.990
128.0, 60952.424818566426, 64021.52049798018, -23434.798232888967, -1390.189098142278, 16881.5349795264, 8004.874945268029, 28181.14646448451, 4786.46961289282, 34895.00700175846, 45637.657718379225, 36453.79530832712, 45441.18588461708, 23890.907930243964, 25347.526412907413, -4766.397746371955, 734.1430466345605, -0.09, 0.984, 0.25, 192.0, 0.0, 0.0, 0.0, 0.0, 0.0, 0.0, 0.0, 0.0, 0.0, 1.706882805998049E9, 0.0, 2024-02-02 15:06:45.998
130.0, 60955.75522849026, 64024.91796313739, -23438.68743642419, -1392.446624332264, 16878.092810880284, 8003.4891371118, 28178.66542084997, 4786.827240804105, 34950.416976263165, 45643.29035798197, 36464.390035198936, 45452.78643998938, 23913.326729932636, 25343.614857627734, -4756.384164855977, 752.739698021376, -0.09, 0.984, 0.25, 192.0, 0.0, 0.0, 0.0, 0.0, 0.0, 0.0, 0.0, 0.0, 0.0, 1.7068828060061908E9, 0.0, 2024-02-02 15:06:46.006
132.0, 60951.15076913247, 64022.50397473622, -23448.745721429077, -1409.545708840574, 16871.677860221607, 7995.710730041353, 28169.05417073419, 4776.165458698923, 34980.16714813318, 45658.86952386732, 36456.768090339676, 45445.902102697146, 23911.404479909477, 25351.572078653822, -4764.22962715979, 741.0273839267951, -0.09, 0.984, 0.25, 192.0, 0.0, 0.0, 0.0, 0.0, 0.0, 0.0, 0.0, 0.0, 0.0, 1.7068828060150256E9, 0.0, 2024-02-02 15:06:46.015
134.0, 60945.74164697429, 64010.255218774706, -23454.98185813211, -1407.288182650588, 16862.737162439487, 7977.8740379660185, 28165.634353832527, 4770.197542929357, 35009.1126572028, 45612.75787505601, 36451.850706559504, 45429.048887377845, 23907.224703696338, 25335.612933112734, -4766.487153349776, 738.2781193587923, -0.09, 0.984, 0.25, 192.0, 0.0, 0.0, 0.0, 0.0, 0.0, 0.0, 0.0, 0.0, 0.0, 1.7068828060220802E9, 0.0, 2024-02-02 15:06:46.022
136.0, 60955.6881732569, 64024.85090790402, -23428.29387525247, -1365.356310052432, 16884.39600281668, 8015.424968650934, 28177.905461538492, 4783.608589602541, 35060.32050374991, 45676.66151245374, 36470.737930624244, 45460.229570893, 23928.30239871769, 25359.484596191003, -4758.485228834776, 751.2197793984151, -0.09, 0.978, 0.25, 192.0, 126.5, 24.0, 15.0, 72.0, 3.5, 104.0, 0.0, 0.0, 0.0, 1.706882806030041E9, 0.0, 2024-02-02 15:06:46.030
138.0, 60951.55310053267, 64019.128861323465, -23444.275372538017, -1387.8198132300156, 16872.795447444376, 7998.504698098266, 28169.300039923197, 4774.354967398044, 35074.69267543467, 45665.95502685965, 36466.42404394437, 45451.981777188994, 23921.753337592287, 25327.566305108823, -4753.009051443226, 757.0088812123396, -0.09, 0.978, 0.25, 192.0, 0.0, 0.0, 0.0, 0.0, 0.0, 0.0, 0.0, 0.0, 0.0, 1.706882806038476E9, 0.0, 2024-02-02 15:06:46.038
140.0, 60957.00692617976, 64022.05693984711, -23451.651448208268, -1396.000551700658, 16879.791543458887, 8004.606724334565, 28175.469121392864, 4782.356891913044, 35113.9870421871, 45660.18827679018, 36467.251058489215, 45444.56099802983, 23949.380093739044, 25345.000665783962, -4759.066374190614, 744.4695525729123, -0.09, 0.978, 0.25, 192.0, 0.0, 0.0, 0.0, 0.0, 0.0, 0.0, 0.0, 0.0, 0.0, 1.7068828060470707E9, 0.0, 2024-02-02 15:06:46.047
142.0, 60956.67165001293, 64023.84507940353, -23446.667009194734, -1388.1550893968451, 16881.19970335957, 8000.985741732806, 28176.989040015822, 4780.814621545627, 35136.56230408696, 45679.053149110456, 36449.72729083625, 45447.28791085338, 23910.01867175325, 25353.5837356548, -4756.898254978449, 748.0011281968508, -0.09, 0.978, 0.25, 192.0, 0.0, 0.0, 0.0, 0.0, 0.0, 0.0, 0.0, 0.0, 0.0, 1.7068828060540695E9, 0.0, 2024-02-02 15:06:46.054
144.0, 60960.22557738132, 64025.275591048674, -23441.59316320338, -1381.3154555935212, 16882.160828371147, 8004.96435224585, 28175.089141737124, 4783.407423902443, 35120.62551029033, 45667.4302419937, 36471.8108143581, 45448.51725679842, 23930.40346269649, 25334.405938912147, -4749.477475819287, 755.8465905006636, -0.09, 0.978, 0.25, 192.0, 0.0, 0.0, 0.0, 0.0, 0.0, 0.0, 0.0, 0.0, 0.0, 1.7068828060622706E9, 0.0, 2024-02-02 15:06:46.062
146.0, 60959.756190747765, 64024.090948592544, -23444.96827661613, -1388.6691795193171, 16882.741973726985, 7999.0634917096495, 28186.756752342793, 4783.7874035581835, 35164.92666780075, 45681.37773053381, 36475.632962659955, 45461.12364067121, 23930.604628396588, 25338.608066869747, -4751.980871198281, 756.6065498121441, -0.094, 0.988, 0.254, 192.0, 126.5, 8.0, 15.0, 112.0, 3.5, 120.0, 0.0, 0.0, 0.0, 1.7068828060710783E9, 0.0, 2024-02-02 15:06:46.071
148.0, 60958.79506573619, 64024.85090790402, -23457.418198277737, -1399.7109412802388, 16876.818761446328, 7989.742814271786, 28178.44190340542, 4779.026481989203, 35166.73715910163, 45677.1308990873, 36471.45318644681, 45453.524047556406, 23931.20812549688, 25344.508927405946, -4757.635862545474, 746.2800438737922, -0.094, 0.988, 0.254, 192.0, 0.0, 0.0, 0.0, 0.0, 0.0, 0.0, 0.0, 0.0, 0.0, 1.7068828060770955E9, 0.0, 2024-02-02 15:06:46.077
150.0, 60945.76399871874, 64011.88689611995, -23481.021640422543, -1431.539825384596, 16870.76143869894, 7992.156802672959, 28167.109568966578, 4771.248074918756, 35190.22884252416, 45666.111489070834, 36456.94690429531, 45432.51340776842, 23940.439395956924, 25366.190119527593, -4774.332615653589, 721.8719389285969, -0.094, 0.988, 0.254, 192.0, 0.0, 0.0, 0.0, 0.0, 0.0, 0.0, 0.0, 0.0, 0.0, 1.706882806086285E9, 0.0, 2024-02-02 15:06:46.086
152.0, 60951.53074878821, 64021.14051832444, -23466.627116993324, -1376.8451067024598, 16875.209435845547, 7993.050872451172, 28168.875356778546, 4776.433679632388, 35170.358141703386, 45668.10079432736, 36450.464898403276, 45432.31224206832, 23952.934021107438, 25333.24364820047, -4769.884618506982, 726.9234331754963, -0.094, 0.988, 0.254, 192.0, 0.0, 0.0, 0.0, 0.0, 0.0, 0.0, 0.0, 0.0, 0.0, 1.7068828060941E9, 0.0, 2024-02-02 15:06:46.094
154.0, 60955.576414534626, 64020.64877994642, -23463.676686725223, -1407.1987756727667, 16880.506799281455, 8000.739872543797, 28172.92102252496, 4785.083804736591, 35186.58550817794, 45675.11924208632, 36460.053796774606, 45450.99830043296, 23914.377261922036, 25301.705336774034, -4758.03819394567, 752.9185119770184, -0.094, 0.988, 0.254, 192.0, 0.0, 0.0, 0.0, 0.0, 0.0, 0.0, 0.0, 0.0, 0.0, 1.706882806102163E9, 0.0, 2024-02-02 15:06:46.102
156.0, 60956.80576047966, 64019.620599701484, -23455.428893021213, -1396.0452551895685, 16881.311462081845, 7998.080014953615, 28173.703333580892, 4784.6144181030295, 35203.34931651942, 45691.99480915008, 36466.759320111196, 45448.561960287334, 23942.205183768892, 25342.20669772705, -4758.865208490516, 744.8942357175632, -0.094, 0.99, 0.258, 192.0, 126.5, 8.0, 15.0, 120.0, 4.0, 8.0, 0.0, 0.0, 0.0, 1.706882806110165E9, 0.0, 2024-02-02 15:06:46.110
158.0, 60953.050667411175, 64015.507878721706, -23483.525035801536, -1434.8478835639817, 16869.66620322063, 7981.226799634314, 28162.52746135324, 4777.171287199412, 35182.27162149807, 45656.03085232149, 36453.77295658266, 45423.61741347521, 23905.011880995262, 25333.623627856214, -4768.923493495405, 729.4938837878566, -0.094, 0.99, 0.258, 192.0, 0.0, 0.0, 0.0, 0.0, 0.0, 0.0, 0.0, 0.0, 0.0, 1.7068828061182697E9, 0.0, 2024-02-02 15:06:46.118
160.0, 60945.80870220765, 64008.73530015175, -23491.92929171673, -1416.7206188107275, 16866.604014230255, 7995.353102130068, 28162.125129953045, 4777.70772906634, 35191.815816380484, 45674.158117074745, 36441.25597968769, 45429.76414320042, 23932.102195275093, 25304.745174019954, -4777.439508132877, 729.9185669325075, -0.094, 0.99, 0.258, 192.0, 0.0, 0.0, 0.0, 0.0, 0.0, 0.0, 0.0, 0.0, 0.0, 1.7068828061271985E9, 0.0, 2024-02-02 15:06:46.127
162.0, 60952.82714996662, 64016.692521177836, -23511.643530326313, -1406.7964442725713, 16863.854749662252, 7988.602875304566, 28156.09015895011, 4779.115888967024, 35196.93436586075, 45673.46521299663, 36453.01299727118, 45429.60768098923, 23954.4539397304, 25324.213543440528, -4777.975949999804, 727.2363575978706, -0.094, 0.99, 0.258, 192.0, 0.0, 0.0, 0.0, 0.0, 0.0, 0.0, 0.0, 0.0, 0.0, 1.7068828061335435E9, 0.0, 2024-02-02 15:06:46.133
164.0, 60946.8368824526, 64014.25618103221, -23498.858332497875, -1445.6661278803501, 16872.214302088538, 7977.851686221563, 28164.47206312085, 4778.46768837782, 35176.57192666196, 45630.23693922006, 36423.061659701074, 45412.86622439221, 23943.45688145839, 25296.184455893574, -4788.6600838494405, 723.2130435959153, -0.094, 0.99, 0.258, 192.0, 0.0, 0.0, 0.0, 0.0, 0.0, 0.0, 0.0, 0.0, 0.0, 1.70688280614244E9, 0.0, 2024-02-02 15:06:46.142
166.0, 60962.81837973814, 64023.174527069874, -23464.6378117368, -1388.6468277748618, 16882.831380704807, 8000.20343067687, 28175.78204581524, 4786.08963323708, 35169.82169983646, 45686.58568699189, 36456.38811068393, 45435.39678280315, 23885.655270296964, 25309.975482222497, -4764.207275415334, 735.3053373462365, -0.088, 0.98, 0.258, 192.0, 126.5, 32.0, 15.0, 80.0, 4.0, 8.0, 0.0, 0.0, 0.0, 1.7068828061503756E9, 0.0, 2024-02-02 15:06:46.150
168.0, 60964.517112316746, 64021.229925302265, -23487.660108525768, -1423.7614183141493, 16873.778924200407, 7990.458070094356, 28171.155234712987, 4788.2801041937, 35194.743894904124, 45658.422488978205, 36466.468747433275, 45441.05177415035, 23918.53468639072, 25303.00173795244, -4756.22770264479, 739.9992036818509, -0.088, 0.98, 0.258, 192.0, 0.0, 0.0, 0.0, 0.0, 0.0, 0.0, 0.0, 0.0, 0.0, 1.706882806158202E9, 0.0, 2024-02-02 15:06:46.158
170.0, 60955.4870075568, 64020.58172471306, -23526.7533095781, -1449.28711048211, 16865.95581364105, 7987.284122381702, 28160.739321796817, 4782.0886709795805, 35156.05302525199, 45632.82974157688, 36425.565055080064, 45405.13252081067, 23922.69211085941, 25323.83356378479, -4792.7728048292165, 706.5162904878009, -0.088, 0.98, 0.258, 192.0, 0.0, 0.0, 0.0, 0.0, 0.0, 0.0, 0.0, 0.0, 0.0, 1.7068828061664991E9, 0.0, 2024-02-02 15:06:46.166
172.0, 60962.483103571314, 64016.469003733284, -23488.800047492987, -1411.6020693304622, 16864.212377573538, 7987.306474126158, 28163.153310197988, 4783.228609946801, 35131.80138251798, 45663.675148925206, 36448.63205535794, 45420.06348610682, 23928.63767488452, 25322.045424228363, -4773.483249364287, 727.0351918977728, -0.088, 0.98, 0.258, 192.0, 0.0, 0.0, 0.0, 0.0, 0.0, 0.0, 0.0, 0.0, 0.0, 1.7068828061742287E9, 0.0, 2024-02-02 15:06:46.174
174.0, 60963.64539428299, 64021.229925302265, -23491.37049810535, -1432.344488184987, 16870.694383465576, 7981.472668823322, 28172.00460100229, 4786.42490940391, 35063.114471806824, 45645.436125449676, 36463.45126193181, 45440.15770437213, 23910.376299664535, 25301.593578051758, -4776.7466040547615, 723.2353953403706, -0.088, 0.98, 0.258, 192.0, 0.0, 0.0, 0.0, 0.0, 0.0, 0.0, 0.0, 0.0, 0.0, 1.7068828061822844E9, 0.0, 2024-02-02 15:06:46.182
176.0, 60954.861158712054, 64012.40098624241, -23498.478352842136, -1387.6186475299178, 16876.841113190785, 7990.636884049998, 28166.997810244302, 4783.6756448359065, 34996.64038379674, 45637.9706428016, 36453.191811226825, 45428.24422457746, 23906.710613573865, 25320.570209094312, -4769.214066173323, 720.7990551947422, -0.08600000000000001, 0.982, 0.26, 192.0, 126.5, 40.0, 15.0, 88.0, 4.0, 16.0, 0.0, 0.0, 0.0, 1.7068828061892748E9, 0.0, 2024-02-02 15:06:46.189
178.0, 60962.08077217112, 64018.14538456743, -23495.12559117384, -1407.1540721838562, 16875.500008523468, 7992.715596284342, 28166.550775355194, 4788.928304782904, 34920.39858345969, 45630.661622364714, 36445.12283147846, 45429.85355017824, 23892.83018026712, 25265.786083434356, -4772.119792952513, 729.3374215766695, -0.08600000000000001, 0.982, 0.26, 192.0, 0.0, 0.0, 0.0, 0.0, 0.0, 0.0, 0.0, 0.0, 0.0, 1.7068828061983185E9, 0.0, 2024-02-02 15:06:46.198
180.0, 60954.235309867305, 64013.8091461431, -23506.927312246244, -1422.6214793469287, 16875.075325378817, 7974.834200720096, 28171.87049053556, 4788.481269893798, 34823.392012523655, 45605.56061334141, 36448.788517569126, 45411.03338134687, 23899.267482670246, 25293.502246558935, -4775.025519731703, 717.5133487598121, -0.08600000000000001, 0.982, 0.26, 192.0, 0.0, 0.0, 0.0, 0.0, 0.0, 0.0, 0.0, 0.0, 0.0, 1.7068828062063272E9, 0.0, 2024-02-02 15:06:46.206
182.0, 60955.710525001356, 64013.83149788756, -23512.045861726507, -1433.6632411078504, 16878.428087047112, 7997.67768355342, 28178.06192374968, 4796.751415342262, 34719.5458077843, 45648.0736312954, 36457.32688395106, 45429.98766064497, 23908.096421730093, 25317.798592781855, -4764.050813204148, 722.609546495622, -0.08600000000000001, 0.982, 0.26, 192.0, 0.0, 0.0, 0.0, 0.0, 0.0, 0.0, 0.0, 0.0, 0.0, 1.7068828062133317E9, 0.0, 2024-02-02 15:06:46.213
184.0, 60944.087617884594, 64000.80043087011, -23534.71053060419, -1422.0179822466353, 16862.737162439487, 7984.981892702805, 28161.499281108296, 4785.910819281437, 34628.26128342882, 45600.73263653906, 36420.55826432208, 45400.684523664066, 23934.91851507646, 25283.309851087317, -4788.883601293994, 707.8350434106641, -0.08600000000000001, 0.982, 0.26, 192.0, 0.0, 0.0, 0.0, 0.0, 0.0, 0.0, 0.0, 0.0, 0.0, 1.70688280622166E9, 0.0, 2024-02-02 15:06:46.221
186.0, 60951.709562743854, 64013.92090486538, -23507.37434713535, -1414.9995344876688, 16877.265796335436, 7992.290913139691, 28172.205766702387, 4797.556078142653, 34513.17215122845, 45626.88417755177, 36456.03048277265, 45432.133428112684, 23881.363735361545, 25302.19707515205, -4765.660138804929, 728.4657035429125, -0.08600000000000001, 0.986, 0.252, 192.0, 126.5, 40.0, 15.0, 104.0, 3.5, 112.0, 0.0, 0.0, 0.0, 1.7068828062303247E9, 0.0, 2024-02-02 15:06:46.230
188.0, 60946.34514407458, 64011.19399204183, -23531.335417191436, -1435.8313603200152, 16862.62540371721, 7984.825430491618, 28157.990057228813, 4790.001188516759, 34432.99644386726, 45614.76953205699, 36440.8536482875, 45412.12861682518, 23893.05369771167, 25287.176702878085, -4784.837935547583, 715.0099533808176, -0.08600000000000001, 0.986, 0.252, 192.0, 0.0, 0.0, 0.0, 0.0, 0.0, 0.0, 0.0, 0.0, 0.0, 1.7068828062383463E9, 0.0, 2024-02-02 15:06:46.238
190.0, 60949.72025748733, 64014.18912579884, -23532.251838714106, -1449.5329796711183, 16867.967470642026, 7978.276369366214, 28163.533289853727, 4790.694092594873, 34335.766355486674, 45618.25640419202, 36423.620453312455, 45427.797189688354, 23881.74371501729, 25312.612988068224, -4787.18486871539, 707.0750840991836, -0.08600000000000001, 0.986, 0.252, 192.0, 0.0, 0.0, 0.0, 0.0, 0.0, 0.0, 0.0, 0.0, 0.0, 1.7068828062454937E9, 0.0, 2024-02-02 15:06:46.245
192.0, 60945.384019063, 64004.3543582385, -23551.697856390223, -1410.5515373410628, 16848.18617679908, 7988.826392749119, 28152.15625192598, 4784.100327980558, 34313.615776731465, 45599.637401060754, 36441.32303492106, 45425.31614605381, 23901.614415838056, 25305.14750542015, -4779.384109900488, 718.0050871378288, -0.08600000000000001, 0.986, 0.252, 192.0, 0.0, 0.0, 0.0, 0.0, 0.0, 0.0, 0.0, 0.0, 0.0, 1.7068828062543626E9, 0.0, 2024-02-02 15:06:46.254
194.0, 60976.318833389145, 64034.84213767554, -23472.349163573883, -1368.4408507872643, 16902.746785014486, 8005.277276668225, 28197.798514103713, 4817.650296407974, 34214.17286564981, 45632.69563111015, 36460.187907241336, 45438.57073051581, 23908.096421730093, 25290.23889186846, -4776.411327887932, 725.515273274812, -0.08600000000000001, 0.986, 0.252, 192.0, 0.0, 0.0, 0.0, 0.0, 0.0, 0.0, 0.0, 0.0, 0.0, 1.706882806262444E9, 0.0, 2024-02-02 15:06:46.262
196.0, 60956.895167457486, 64017.69834967832, -23519.019605996564, -1408.383418128898, 16878.182217858102, 8005.724311557331, 28181.079409251146, 4807.837880592094, 34114.61819584587, 45634.394363688756, 36481.75734064071, 45456.407422591146, 23878.636822538, 25302.979386207986, -4742.235510615767, 751.3985933540575, -0.088, 0.986, 0.246, 192.0, 126.5, 32.0, 15.0, 104.0, 3.5, 88.0, 0.0, 0.0, 0.0, 1.7068828062693882E9, 0.0, 2024-02-02 15:06:46.269
198.0, 60964.3382983611, 64019.86646889049, -23510.101259958898, -1413.479615864708, 16882.227883604515, 7999.398767876479, 28183.38163893004, 4806.116796269035, 34049.909895647754, 45605.44885461913, 36434.84102902902, 45422.075143107795, 23880.514369072243, 25305.30396763134, -4779.85349653405, 711.836005668164, -0.088, 0.986, 0.246, 192.0, 0.0, 0.0, 0.0, 0.0, 0.0, 0.0, 0.0, 0.0, 0.0, 1.70688280627768E9, 0.0, 2024-02-02 15:06:46.277
200.0, 60971.46850484235, 64032.91988765239, -23480.88752995581, -1370.6536734883398, 16907.284189138914, 8001.835108022107, 28201.419496705475, 4822.05359006567, 34048.97112238063, 45629.74520084205, 36490.27335527818, 45458.66494878113, 23902.530837360722, 25314.065851457817, -4728.690353475851, 746.3694508516135, -0.088, 0.986, 0.246, 192.0, 0.0, 0.0, 0.0, 0.0, 0.0, 0.0, 0.0, 0.0, 0.0, 1.7068828062864425E9, 0.0, 2024-02-02 15:06:46.286
202.0, 60955.554062790165, 64018.95004736782, -23512.55995184898, -1407.4669966062304, 16883.4348778051, 8005.5231458572325, 28183.113417996577, 4809.156633514957, 33955.764348002, 45628.091171752356, 36465.440567188336, 45447.10909689774, 23883.4871510848, 25295.20097913754, -4747.3987635849435, 734.1206948901051, -0.088, 0.986, 0.246, 192.0, 0.0, 0.0, 0.0, 0.0, 0.0, 0.0, 0.0, 0.0, 0.0, 1.7068828062934463E9, 0.0, 2024-02-02 15:06:46.293
204.0, 60961.432571581914, 64026.70610269381, -23510.816515781466, -1386.1881358847781, 16892.53203779841, 8007.735968558308, 28182.934604040936, 4814.543403928686, 33925.835362176345, 45608.01930523149, 36472.347256225024, 45451.221817877515, 23891.667889555443, 25301.034784440373, -4749.790400241662, 730.3879535660689, -0.088, 0.986, 0.246, 192.0, 0.0, 0.0, 0.0, 0.0, 0.0, 0.0, 0.0, 0.0, 0.0, 1.7068828063014793E9, 0.0, 2024-02-02 15:06:46.301
206.0, 60951.41899006593, 64017.586590956045, -23548.836833099944, -1441.28518596711, 16859.876139149208, 7982.679663023909, 28159.644086318505, 4797.891354309482, 33876.28154471893, 45592.574249812875, 36447.961503024286, 45431.75344845694, 23904.140162961503, 25316.25632241444, -4766.7106707943285, 722.6989534734432, -0.08600000000000001, 0.988, 0.248, 192.0, 126.5, 40.0, 15.0, 112.0, 3.5, 96.0, 0.0, 0.0, 0.0, 1.7068828063097553E9, 0.0, 2024-02-02 15:06:46.309
208.0, 60947.6862487419, 64012.9597798538, -23527.55797237849, -1393.4301010882975, 16877.042278890884, 7995.978950974817, 28167.91423176697, 4797.399615931466, 33888.68676289162, 45631.39922993174, 36445.23459020074, 45439.3753933162, 23870.076104411615, 25302.24177864096, -4782.222781446312, 700.5707264626892, -0.08600000000000001, 0.988, 0.248, 192.0, 0.0, 0.0, 0.0, 0.0, 0.0, 0.0, 0.0, 0.0, 0.0, 1.7068828063185313E9, 0.0, 2024-02-02 15:06:46.318
210.0, 60950.882548199006, 64019.9111723794, -23532.587114880935, -1430.6234038619286, 16887.34643308478, 7996.560096330655, 28178.106627238587, 4807.6814183809065, 33855.5391258644, 45599.12331093828, 36440.674834331854, 45432.2228350905, 23872.378334090514, 25329.622665598712, -4758.261711390222, 719.480302271879, -0.08600000000000001, 0.988, 0.248, 192.0, 0.0, 0.0, 0.0, 0.0, 0.0, 0.0, 0.0, 0.0, 0.0, 1.7068828063255193E9, 0.0, 2024-02-02 15:06:46.325
212.0, 60961.32081285964, 64024.53798348165, -23488.6435852818, -1355.454487258731, 16898.72347101253, 8012.362779660557, 28191.62943263405, 4820.377209231521, 33855.98616075351, 45615.23891869056, 36483.23255577476, 45467.00214946296, 23892.293738400193, 25279.107723129717, -4741.3190890931, 744.737773506376, -0.08600000000000001, 0.988, 0.248, 192.0, 0.0, 0.0, 0.0, 0.0, 0.0, 0.0, 0.0, 0.0, 0.0, 1.7068828063336236E9, 0.0, 2024-02-02 15:06:46.333
214.0, 60957.16338839095, 64023.532154981156, -23516.247989684107, -1388.0209789301132, 16886.072383650826, 8003.86911676754, 28177.86075804958, 4812.799967861172, 33851.515811862446, 45597.93866848215, 36474.73889288174, 45452.80879173384, 23885.67762204142, 25290.395354079646, -4745.878844961982, 733.6289565120884, -0.08600000000000001, 0.988, 0.248, 192.0, 0.0, 0.0, 0.0, 0.0, 0.0, 0.0, 0.0, 0.0, 0.0, 1.7068828063427773E9, 0.0, 2024-02-02 15:06:46.342
216.0, 60950.25669935426, 64018.011274100696, -23546.04286504303, -1411.5797175860068, 16866.738124696985, 7991.15097417247, 28171.132882968534, 4802.004075289259, 33821.58682603679, 45598.251592904526, 36454.734081594244, 45437.6766607376, 23887.957499975862, 25297.614967538713, -4765.011938215725, 717.3345348041696, -0.092, 0.986, 0.25, 192.0, 126.5, 16.0, 15.0, 104.0, 3.5, 104.0, 0.0, 0.0, 0.0, 1.7068828063495736E9, 0.0, 2024-02-02 15:06:46.349
218.0, 60957.386905835505, 64024.26976254818, -23504.781544778532, -1377.8732869474038, 16896.644758778188, 8003.064453967149, 28193.66344137948, 4816.845633607582, 33829.81226799635, 45613.85311053433, 36473.68836089234, 45456.09449816877, 23889.835046510107, 25291.222368624494, -4754.864246233016, 722.8554156846304, -0.092, 0.986, 0.25, 192.0, 0.0, 0.0, 0.0, 0.0, 0.0, 0.0, 0.0, 0.0, 0.0, 1.7068828063576095E9, 0.0, 2024-02-02 15:06:46.357
220.0, 60952.17894937741, 64017.743053167236, -23525.94864677771, -1390.7478917536607, 16885.133610383702, 8000.225782421325, 28181.3029266957, 4811.749435871772, 33825.78895399439, 45593.87065099128, 36469.97797131276, 45446.30443409734, 23880.581424305612, 25296.698546016043, -4748.248129874245, 725.3588110636248, -0.092, 0.986, 0.25, 192.0, 0.0, 0.0, 0.0, 0.0, 0.0, 0.0, 0.0, 0.0, 0.0, 1.7068828063656151E9, 0.0, 2024-02-02 15:06:46.365
222.0, 60955.554062790165, 64020.91700087989, -23528.74261483462, -1388.1997928857556, 16887.905226696163, 8002.3491981445795, 28184.275708708254, 4815.303363240167, 33814.34486083328, 45625.69953509564, 36465.775843355164, 45457.0779749248, 23884.3365173741, 25299.023127439395, -4754.126638665991, 726.901081431041, -0.092, 0.986, 0.25, 192.0, 0.0, 0.0, 0.0, 0.0, 0.0, 0.0, 0.0, 0.0, 0.0, 1.7068828063748653E9, 0.0, 2024-02-02 15:06:46.374
224.0, 60957.18574013541, 64022.79454741413, -23538.66678937278, -1395.2405923891774, 16883.367822571734, 7993.207334662358, 28187.360249443085, 4811.101235282568, 33804.957128162045, 45609.58392734337, 36467.385168955945, 45452.540570800375, 23886.459933097358, 25302.28648212987, -4751.6232432869965, 723.6377267405661, -0.092, 0.986, 0.25, 192.0, 0.0, 0.0, 0.0, 0.0, 0.0, 0.0, 0.0, 0.0, 0.0, 1.7068828063815727E9, 0.0, 2024-02-02 15:06:46.381
226.0, 60950.92725168792, 64015.686692677344, -23559.722132649676, -1419.4028281453643, 16871.297880565868, 7976.689395509887, 28170.127054468045, 4795.90204905296, 33804.91242467313, 45612.53435761146, 36462.95952355379, 45445.343309085765, 23912.678529343433, 25295.782124493377, -4765.235455660279, 704.4599299979127, -0.093, 0.988, 0.248, 192.0, 126.5, 8.0, 15.0, 120.0, 3.5, 88.0, 0.0, 0.0, 0.0, 1.706882806389562E9, 0.0, 2024-02-02 15:06:46.389
228.0, 60956.67165001293, 64019.888820634944, -23518.572571107456, -1385.4728800622083, 16896.130668655715, 8017.369570418546, 28191.0035837893, 4816.979744074314, 33823.0843929153, 45599.72680803857, 36463.048930531615, 45447.82435272031, 23865.91867994293, 25310.6236828117, -4752.472609576298, 715.6134504811109, -0.093, 0.988, 0.248, 192.0, 0.0, 0.0, 0.0, 0.0, 0.0, 0.0, 0.0, 0.0, 0.0, 1.70688280639779E9, 0.0, 2024-02-02 15:06:46.397
230.0, 60941.20424284986, 64009.62936992996, -23550.20028951172, -1406.997609972669, 16877.95870041355, 7994.324921885124, 28177.257260949285, 4802.227592733811, 33791.97076463351, 45607.99695348704, 36473.48719519225, 45448.40549807614, 23874.76997074723, 25308.969653722008, -4748.069315918603, 723.995354651851, -0.093, 0.988, 0.248, 192.0, 0.0, 0.0, 0.0, 0.0, 0.0, 0.0, 0.0, 0.0, 0.0, 1.7068828064056275E9, 0.0, 2024-02-02 15:06:46.405
232.0, 60941.5842225056, 64002.990901826735, -23569.601603698924, -1414.8430722764817, 16867.162807841636, 7987.395881103979, 28168.785949800727, 4793.175136229413, 33781.465444739515, 45594.42944460266, 36443.44645064431, 45426.79136118786, 23860.91188918494, 25296.586787293767, -4775.114926709524, 702.4706247413903, -0.093, 0.988, 0.248, 192.0, 0.0, 0.0, 0.0, 0.0, 0.0, 0.0, 0.0, 0.0, 0.0, 1.7068828064136252E9, 0.0, 2024-02-02 15:06:46.413
234.0, 60944.668763240436, 64010.61284668599, -23559.520966949578, -1407.1987756727667, 16885.044203405883, 7977.605817032554, 28172.2504701913, 4794.560944385641, 33812.89199744368, 45629.007593275026, 36444.54168612262, 45441.20823636153, 23917.573561379144, 25291.423534324593, -4771.784516785684, 707.544470732745, -0.093, 0.988, 0.248, 192.0, 0.0, 0.0, 0.0, 0.0, 0.0, 0.0, 0.0, 0.0, 0.0, 1.706882806421628E9, 0.0, 2024-02-02 15:06:46.421
236.0, 60946.6357167525, 64011.35045425301, -23554.000086069118, -1381.2036968712446, 16877.981052158004, 8005.076110968127, 28167.109568966578, 4797.354912442554, 33801.31379381583, 45621.586814115864, 36466.468747433275, 45454.90985571264, 23890.282081399215, 25299.112534417218, -4758.976967212792, 729.672697743499, -0.0935, 0.99, 0.247, 192.0, 126.5, 8.0, 15.5, 0.0, 3.5, 88.0, 0.0, 0.0, 0.0, 1.7068828064309192E9, 0.0, 2024-02-02 15:06:46.430
238.0, 60947.99917316427, 64015.44082348834, -23545.23820224264, -1394.4359295887864, 16885.513590039445, 7998.4376428649, 28180.2523947063, 4802.562868900642, 33771.29540101235, 45616.64707859124, 36458.153898495904, 45438.727192727, 23906.330633918125, 25293.971633192497, -4770.711633051829, 722.2742703287925, -0.0935, 0.99, 0.247, 192.0, 0.0, 0.0, 0.0, 0.0, 0.0, 0.0, 0.0, 0.0, 0.0, 1.7068828064376655E9, 0.0, 2024-02-02 15:06:46.437
240.0, 60956.35872559056, 64016.24548628873, -23535.537545149036, -1385.0034934286468, 16891.72737499802, 7997.454166108867, 28190.489493666828, 4806.787348602695, 33825.11840166073, 45630.058125264426, 36481.019733073685, 45454.70869001254, 23869.114979400038, 25316.301025903347, -4748.60575778553, 730.0526773992393, -0.0935, 0.99, 0.247, 192.0, 0.0, 0.0, 0.0, 0.0, 0.0, 0.0, 0.0, 0.0, 0.0, 1.7068828064456844E9, 0.0, 2024-02-02 15:06:46.445
242.0, 60943.30530682866, 64008.69059666283, -23567.05350483102, -1415.1336449544008, 16864.882929907195, 7982.9255322129175, 28165.030856732235, 4790.403519916955, 33794.94354664606, 45644.22913124909, 36459.472651418764, 45442.92932068459, 23877.608642293053, 25323.43123238459, -4772.164496441424, 716.418113281502, -0.0935, 0.99, 0.247, 192.0, 0.0, 0.0, 0.0, 0.0, 0.0, 0.0, 0.0, 0.0, 0.0, 1.7068828064537008E9, 0.0, 2024-02-02 15:06:46.453
244.0, 60947.64154525299, 64008.86941061848, -23559.386856482848, -1377.582714269485, 16886.921749940127, 7990.4357183499005, 28177.257260949285, 4800.685322366396, 33789.53442448788, 45611.237956433055, 36462.73600610924, 45443.264596851426, 23901.92734026043, 25289.836560468266, -4768.096478950558, 724.5317965187785, -0.0935, 0.99, 0.247, 192.0, 0.0, 0.0, 0.0, 0.0, 0.0, 0.0, 0.0, 0.0, 0.0, 1.7068828064616733E9, 0.0, 2024-02-02 15:06:46.461
246.0, 60945.76399871874, 64008.73530015175, -23562.069065817486, -1413.8372437759929, 16878.33868006929, 7992.9614654733505, 28168.830653289635, 4795.164441485935, 33826.16893365013, 45627.599433374344, 36454.510564149685, 45443.532817784886, 23883.889482484996, 25286.506150544425, -4766.375394627499, 721.804883695231, -0.09375, 0.992, 0.2505, 192.0, 126.5, 8.0, 15.5, 8.0, 3.5, 120.0, 0.0, 0.0, 0.0, 1.7068828064700997E9, 0.0, 2024-02-02 15:06:46.470
248.0, 60949.22851910932, 64012.66920717588, -23568.774589154076, -1404.7624355271382, 16875.634118990198, 7992.469727095334, 28168.540080611718, 4795.678531608407, 33795.30117455735, 45598.96684872709, 36454.62232287196, 45424.511483253424, 23879.01680219374, 25319.25145617145, -4778.244170933267, 710.5396044897562, -0.09375, 0.992, 0.2505, 192.0, 0.0, 0.0, 0.0, 0.0, 0.0, 0.0, 0.0, 0.0, 0.0, 1.7068828064777248E9, 0.0, 2024-02-02 15:06:46.477
250.0, 60953.385943578, 64021.05111134662, -23559.029228571562, -1388.6915312637725, 16883.658395249655, 7991.039215450194, 28184.14159824152, 4803.14401425648, 33815.41774456713, 45636.31661371191, 36476.191756271335, 45459.961349959536, 23874.457046324856, 25308.05323219934, -4761.614473058519, 725.6270319970885, -0.09375, 0.992, 0.2505, 192.0, 0.0, 0.0, 0.0, 0.0, 0.0, 0.0, 0.0, 0.0, 0.0, 1.70688280648702E9, 0.0, 2024-02-02 15:06:46.487
252.0, 60940.91367017194, 64009.24939027422, -23588.75704869712, -1410.0150954741355, 16867.229863075, 7985.786555503197, 28172.116359724565, 4791.029368761703, 33802.49843627196, 45604.599488329826, 36441.390090154426, 45426.00905013193, 23892.070220955637, 25303.49347633046, -4785.6649500924295, 700.8836508850636, -0.09375, 0.992, 0.2505, 192.0, 0.0, 0.0, 0.0, 0.0, 0.0, 0.0, 0.0, 0.0, 0.0, 1.7068828064936972E9, 0.0, 2024-02-02 15:06:46.493
254.0, 60953.385943578, 64017.43012874486, -23571.38974325535, -1400.4932523361747, 16871.18612184359, 7986.255942136758, 28174.597403359105, 4798.763072343239, 33822.81617198183, 45601.02320921698, 36459.42794792986, 45443.19754161806, 23851.211232091337, 25312.76945027941, -4776.590141843574, 714.7193807028987, -0.09375, 0.992, 0.2505, 192.0, 0.0, 0.0, 0.0, 0.0, 0.0, 0.0, 0.0, 0.0, 0.0, 1.7068828065018528E9, 0.0, 2024-02-02 15:06:46.501
0.0, 60949.67555399842, 64021.654608446916, -23574.317821778994, -1412.1161594529342, 16871.275528821414, 7993.475555595823, 28164.80733928768, 4793.443357162876, 33840.09407044579, 45596.150528925726, 36464.18886949884, 45443.175189873604, 23861.76125547424, 25279.91238593011, -4769.214066173323, 719.8155784387086, -0.092875, 0.991, 0.25325, 192.0, 126.5, 16.0, 15.0, 120.0, 4.0, 0.0, 0.0, 0.0, 0.0, 1.7068828065097413E9, 0.0, 2024-02-02 15:06:46.509
2.0, 60953.810626722654, 64021.364035768995, -23591.57336849849, -1400.157976169345, 16874.00244164496, 8001.455128366367, 28178.91129003898, 4804.708636368351, 33851.381701395716, 45587.96979045508, 36451.67189260387, 45436.8719979372, 23856.91092692744, 25299.33605186177, -4780.792269801173, 715.8816714145746, -0.092875, 0.991, 0.25325, 192.0, 0.0, 0.0, 0.0, 0.0, 0.0, 0.0, 0.0, 0.0, 0.0, 1.7068828065180244E9, 0.0, 2024-02-02 15:06:46.518
4.0, 60947.86506269754, 64016.87133513348, -23570.406266499314, -1406.8634995059372, 16871.744915454976, 7987.686453781897, 28173.9492027699, 4800.819432833127, 33860.92589627813, 45575.83279321585, 36460.99257004173, 45448.2266841205, 23847.99258088977, 25302.331185618783, -4772.231551674789, 727.4598750424236, -0.092875, 0.991, 0.25325, 192.0, 0.0, 0.0, 0.0, 0.0, 0.0, 0.0, 0.0, 0.0, 0.0, 1.706882806525787E9, 0.0, 2024-02-02 15:06:46.525
6.0, 60943.10414112856, 64013.36211125399, -23603.844476204453, -1426.5330346266073, 16862.267775805925, 7981.271503123225, 28163.689752064915, 4793.510412396242, 33834.57318956532, 45554.3527667943, 36442.68649133283, 45429.89825366715, 23834.67094119441, 25283.10868538722, -4785.575543114608, 714.8758429140858, -0.092875, 0.991, 0.25325, 192.0, 0.0, 0.0, 0.0, 0.0, 0.0, 0.0, 0.0, 0.0, 0.0, 1.706882806533826E9, 0.0, 2024-02-02 15:06:46.533
8.0, 60951.32958308811, 64026.2143643158, -23593.741487710657, -1407.2658309061326, 16867.833360175297, 8003.422081878434, 28170.082350979133, 4800.595915388574, 33867.720826592544, 45581.42072932968, 36452.767128082174, 45445.65623350814, 23860.10722638455, 25303.53817981937, -4777.953598255348, 723.3024505737366, -0.092875, 0.991, 0.25325, 192.0, 0.0, 0.0, 0.0, 0.0, 0.0, 0.0, 0.0, 0.0, 0.0, 1.7068828065409732E9, 0.0, 2024-02-02 15:06:46.540
10.0, 60960.22557738132, 64029.07538760608, -23574.00489735662, -1394.9947232001691, 16869.040354375884, 7991.039215450194, 28173.211595202876, 4799.724197354817, 33861.6411521007, 45583.432386330656, 36455.76226183918, 45440.448277050054, 23875.194653891882, 25321.82190678381, -4787.7213105823175, 721.8942906730522, -0.09543750000000001, 0.9904999999999999, 0.252625, 192.0, 126.0, 120.0, 15.0, 120.0, 3.5, 112.0, 0.0, 0.0, 0.0, 1.7068828065488167E9, 0.0, 2024-02-02 15:06:46.548
12.0, 60952.7377429888, 64026.259067804705, -23589.42760103078, -1410.4397786187862, 16876.10350562376, 8004.472613867833, 28180.52061563976, 4800.595915388574, 33873.73344585102, 45582.06892991888, 36464.92647706586, 45447.019689919915, 23825.551429456646, 25310.91425548962, -4767.336519639078, 726.0070116528287, -0.09543750000000001, 0.9904999999999999, 0.252625, 192.0, 0.0, 0.0, 0.0, 0.0, 0.0, 0.0, 0.0, 0.0, 0.0, 1.706882806557835E9, 0.0, 2024-02-02 15:06:46.557
