%OpenBCI Raw EXG Data
%Number of channels = 16
%Sample Rate = 125 Hz
%Board = OpenBCI_GUI$BoardCytonSerialDaisy
Sample Index, EXG Channel 0, EXG Channel 1, EXG Channel 2, EXG Channel 3, EXG Channel 4, EXG Channel 5, EXG Channel 6, EXG Channel 7, EXG Channel 8, EXG Channel 9, EXG Channel 10, EXG Channel 11, EXG Channel 12, EXG Channel 13, EXG Channel 14, EXG Channel 15, Accel Channel 0, Accel Channel 1, Accel Channel 2, Other, Other, Other, Other, Other, Other, Other, Analog Channel 0, Analog Channel 1, Analog Channel 2, Timestamp, Other, Timestamp (Formatted)
0.0, 62572.88158808728, 65060.004897118204, -21441.49201410914, -7553.436762504192, 17021.79217598345, 5792.856906993021, 23650.000828504664, 5106.345427792719, 0.0, 0.0, 0.0, 0.0, 0.0, 0.0, 0.0, 0.0, 0.0, 0.0, 0.0, 192.0, 0.0, 0.0, 0.0, 0.0, 0.0, 0.0, 0.0, 0.0, 0.0, 1.7068833017860687E9, 0.0, 2024-02-02 15:15:01.786
182.0, 62554.12847448928, 65040.2012515308, -21438.161604185298, -7555.694288694178, 17026.195469641145, 5794.980322716275, 23654.53823262909, 5111.1063493617, 41035.50059026487, 46886.27086714159, 37584.27948764318, 50358.52496129572, 23185.97861361249, 27505.408526111667, -8925.342133682028, -1546.025460484679, 0.0, 0.0, 0.0, 192.0, 0.0, 0.0, 0.0, 0.0, 0.0, 0.0, 0.0, 0.0, 0.0, 1.7068833017860963E9, 0.0, 2024-02-02 15:15:01.786
0.0, 31363.610191775584, 32619.912340630573, -9918.117215408947, -4355.304462349947, 8432.508520186964, 2832.8824440100725, 11732.542423312954, 2566.1590774248934, 20510.3406918455, 23437.279276523506, 18783.15434255056, 25168.84656773169, 11590.944122188583, 13737.918584098648, -4466.437335781734, -776.253733188359, -0.098, 0.988, 0.278, 192.0, 126.0, 120.0, 15.0, 112.0, 4.0, 88.0, 0.0, 0.0, 0.0, 1.706883301907235E9, 0.0, 2024-02-02 15:15:01.907
2.0, 62730.99782836412, 65244.786768530226, -19833.30635229425, -8705.333913008442, 16871.119066610227, 5668.625911310424, 23465.286012326003, 5133.905128706113, 41235.124019995215, 46974.20262982877, 37611.25804320074, 50459.95717763391, 23095.588159035226, 27498.591244052797, -9043.091123472586, -2366.2003715277165, -0.098, 0.988, 0.278, 192.0, 0.0, 0.0, 0.0, 0.0, 0.0, 0.0, 0.0, 0.0, 0.0, 1.706883301914231E9, 0.0, 2024-02-02 15:15:01.914
4.0, 62733.54592723202, 65248.02777147625, -19834.49099475038, -8708.172584554266, 16870.873197421217, 5667.664786298846, 23465.107198370362, 5131.8711199606805, 41236.107496751254, 46970.58164722701, 37614.07436300211, 50462.102945101615, 23096.77280149136, 27506.950796479083, -9041.660611827447, -2368.2343802731493, -0.098, 0.988, 0.278, 192.0, 0.0, 0.0, 0.0, 0.0, 0.0, 0.0, 0.0, 0.0, 0.0, 1.7068833019220715E9, 0.0, 2024-02-02 15:15:01.922
6.0, 62731.08723534194, 65248.117178454064, -19833.574573227714, -8711.480642733652, 16867.67689796411, 5661.339242617994, 23462.78261694701, 5130.39590482663, 41235.97338628452, 46981.44459503229, 37614.20847346884, 50461.32063404568, 23098.516237558873, 27497.96539520805, -9042.241757183285, -2367.139144794839, -0.098, 0.988, 0.278, 192.0, 0.0, 0.0, 0.0, 0.0, 0.0, 0.0, 0.0, 0.0, 0.0, 1.7068833019300056E9, 0.0, 2024-02-02 15:15:01.930
8.0, 62735.62463946637, 65253.928632012445, -19829.663017948034, -8709.1560613103, 16873.465999778033, 5669.989367722198, 23470.60572750637, 5137.235538629954, 41229.44667690357, 46972.74976643918, 37614.25317695775, 50457.85611365511, 23093.889426456622, 27497.11602891875, -9041.906481016455, -2367.139144794839, -0.10200000000000001, 0.986, 0.28600000000000003, 192.0, 126.0, 104.0, 15.0, 104.0, 4.0, 120.0, 0.0, 0.0, 0.0, 1.706883301938223E9, 0.0, 2024-02-02 15:15:01.938
10.0, 62735.17760457726, 65256.40967564699, -19829.81948015922, -8711.547697967017, 16872.43781953309, 5664.468486841737, 23464.749570459076, 5136.296765362831, 41235.07931650631, 46980.93050490982, 37619.37172643802, 50466.68505271495, 23102.29368237182, 27501.519322576445, -9038.26314667024, -2364.0546040600066, -0.10200000000000001, 0.986, 0.28600000000000003, 192.0, 0.0, 0.0, 0.0, 0.0, 0.0, 0.0, 0.0, 0.0, 0.0, 1.7068833019460464E9, 0.0, 2024-02-02 15:15:01.946
12.0, 62728.51678472958, 65252.00638198929, -19834.334532539193, -8716.375674769364, 16871.00730788795, 5666.904826987366, 23465.44247453719, 5134.665088017594, 41225.24454894597, 46984.57383925603, 37613.06853450162, 50461.45474451241, 23105.065298684276, 27490.47756081552, -9040.207748437851, -2367.7426418951322, -0.10200000000000001, 0.986, 0.28600000000000003, 192.0, 0.0, 0.0, 0.0, 0.0, 0.0, 0.0, 0.0, 0.0, 0.0, 1.706883301953091E9, 0.0, 2024-02-02 15:15:01.953
14.0, 62737.43513076725, 65257.571966358664, -19825.706759179444, -8703.545773452017, 16874.315366067334, 5672.179838678818, 23473.779675219022, 5143.985765455457, 41224.48458963449, 46979.097661864485, 37617.4271246704, 50464.136953847046, 23103.232455638943, 27503.575683066334, -9038.9336990039, -2365.3510052384145, -0.10200000000000001, 0.986, 0.28600000000000003, 192.0, 0.0, 0.0, 0.0, 0.0, 0.0, 0.0, 0.0, 0.0, 0.0, 1.7068833019620612E9, 0.0, 2024-02-02 15:15:01.962
16.0, 62734.127072587864, 65253.88392852354, -19830.534735981793, -8708.552564210006, 16870.76143869894, 5668.424745610327, 23472.282108340518, 5140.297727620331, 41229.9831187705, 46992.68752249331, 37618.656470615446, 50468.98728239385, 23106.898141729613, 27507.55429357938, -9034.910385001944, -2357.4608394456914, -0.10200000000000001, 0.986, 0.28600000000000003, 192.0, 0.0, 0.0, 0.0, 0.0, 0.0, 0.0, 0.0, 0.0, 0.0, 1.7068833019702413E9, 0.0, 2024-02-02 15:15:01.970
18.0, 62743.067770369984, 65260.7012105824, -19825.0809103347, -8705.1550990528, 16877.265796335436, 5675.845524769488, 23476.77480897603, 5146.980899212468, 41223.56816811182, 46982.24925783268, 37615.81779906962, 50461.94648289043, 23101.198446893508, 27498.50183707498, -9039.403085637461, -2364.859266860398, -0.098, 0.982, 0.292, 192.0, 126.0, 120.0, 15.0, 88.0, 4.5, 16.0, 0.0, 0.0, 0.0, 1.706883301978048E9, 0.0, 2024-02-02 15:15:01.978
20.0, 62730.841366152934, 65253.74981805681, -19836.994390129377, -8720.600154471416, 16863.363011284233, 5659.931082717309, 23458.06639886694, 5129.881814704158, 41231.12305773772, 46986.89842067938, 37621.40573518345, 50468.160267849, 23105.020595195365, 27500.424087098134, -9031.35645763355, -2358.399612712814, -0.098, 0.982, 0.292, 192.0, 0.0, 0.0, 0.0, 0.0, 0.0, 0.0, 0.0, 0.0, 0.0, 1.7068833019860976E9, 0.0, 2024-02-02 15:15:01.986
22.0, 62725.253430039105, 65247.714847053874, -19840.12363435312, -8725.249317318121, 16857.842130403773, 5657.919425716332, 23449.08099759591, 5124.763265223893, 41211.431170872595, 46973.82265017303, 37604.172540208405, 50452.98343336385, 23095.811676479778, 27482.67680200062, -9054.848141056078, -2379.9913978566406, -0.098, 0.982, 0.292, 192.0, 0.0, 0.0, 0.0, 0.0, 0.0, 0.0, 0.0, 0.0, 0.0, 1.706883301994292E9, 0.0, 2024-02-02 15:15:01.994
24.0, 62729.4555579967, 65250.70998081088, -19838.983695385898, -8725.428131273762, 16858.602089715256, 5663.932044974809, 23451.07030285243, 5130.708829249004, 41212.03466797288, 46970.849868160476, 37611.14628447846, 50455.9115118875, 23099.276196870353, 27492.265700371947, -9049.416667153439, -2373.7776128980654, -0.098, 0.982, 0.292, 192.0, 0.0, 0.0, 0.0, 0.0, 0.0, 0.0, 0.0, 0.0, 0.0, 1.7068833020021012E9, 0.0, 2024-02-02 15:15:02.002
26.0, 62731.64602895332, 65255.02386749076, -19839.654247719558, -8722.567107983483, 16857.37274377021, 5664.379079863916, 23456.188852332696, 5130.9323466935575, 41209.128941193696, 46981.35518805447, 37606.18419720938, 50454.92803513146, 23095.968138690965, 27483.146188634182, -9052.165931721442, -2372.972950097674, -0.098, 0.982, 0.292, 192.0, 0.0, 0.0, 0.0, 0.0, 0.0, 0.0, 0.0, 0.0, 0.0, 1.7068833020100975E9, 0.0, 2024-02-02 15:15:02.010
28.0, 62735.311715043994, 65259.49421638182, -19837.01674187383, -8722.410645772296, 16862.51364499493, 5670.436402611304, 23465.464826281648, 5135.067419417789, 41211.94526099507, 46982.808051444066, 37614.20847346884, 50461.834724168155, 23103.411269594584, 27503.463924344054, -9046.17566420742, -2369.083746562451, -0.098, 0.98, 0.296, 192.0, 126.0, 120.0, 15.0, 80.0, 4.5, 32.0, 0.0, 0.0, 0.0, 1.7068833020171168E9, 0.0, 2024-02-02 15:15:02.017
30.0, 62721.56539220398, 65246.41844587546, -19848.997276901875, -8737.96745991319, 16849.19200529957, 5655.93012045981, 23446.287029538995, 5116.738988964437, 41203.65276380214, 46977.66715021934, 37607.748819321256, 50458.57136947768, 23096.66104276908, 27499.462962086556, -9051.07069624313, -2373.889371620342, -0.098, 0.98, 0.296, 192.0, 0.0, 0.0, 0.0, 0.0, 0.0, 0.0, 0.0, 0.0, 0.0, 1.7068833020253568E9, 0.0, 2024-02-02 15:15:02.025
32.0, 62714.7034066562, 65240.159957427975, -19853.244108348383, -8745.477646050173, 16851.941269867573, 5647.794085478078, 23446.711712683646, 5113.788558696337, 41188.47592931699, 46973.46502226174, 37595.45535987084, 50449.094229828625, 23087.832103709236, 27480.687496744096, -9061.307795203662, -2385.914610137297, -0.098, 0.98, 0.296, 192.0, 0.0, 0.0, 0.0, 0.0, 0.0, 0.0, 0.0, 0.0, 0.0, 1.7068833020341437E9, 0.0, 2024-02-02 15:15:02.034
34.0, 62722.7053311712, 65250.84409127761, -19849.48901527989, -8743.197768115731, 16855.51754898042, 5656.623024537925, 23450.600916218867, 5121.589317511239, 41185.88312696018, 46964.14434482388, 37597.042333727164, 50444.757991404294, 23092.23539736693, 27472.86438618474, -9061.017222525743, -2389.9379241392526, -0.098, 0.98, 0.296, 192.0, 0.0, 0.0, 0.0, 0.0, 0.0, 0.0, 0.0, 0.0, 0.0, 1.706883302042169E9, 0.0, 2024-02-02 15:15:02.042
36.0, 62715.32925550095, 65243.42331211845, -19855.591041516192, -8749.947994941234, 16847.783845398884, 5646.698849999768, 23437.97218060162, 5109.765244694382, 41187.96183919452, 46976.996597885685, 37597.86934827201, 50446.47907572736, 23091.81071422228, 27482.095656644782, -9059.31848994714, -2387.5462874825344, -0.098, 0.98, 0.296, 192.0, 0.0, 0.0, 0.0, 0.0, 0.0, 0.0, 0.0, 0.0, 0.0, 1.7068833020491674E9, 0.0, 2024-02-02 15:15:02.049
38.0, 62721.341874759426, 65250.06178022168, -19846.471529778424, -8738.97328841368, 16853.371781512713, 5655.527789059614, 23441.63786669229, 5116.046084886323, 41181.211612369014, 46964.16669656834, 37594.62834532599, 50440.37704949106, 23094.04588866781, 27480.307517088357, -9063.140638248997, -2394.788252686054, -0.094, 0.98, 0.304, 192.0, 126.5, 8.0, 15.0, 80.0, 4.5, 64.0, 0.0, 0.0, 0.0, 1.7068833020574858E9, 0.0, 2024-02-02 15:15:02.057
40.0, 62722.54886896001, 65254.24155643482, -19836.614410473634, -8735.575823256471, 16860.993726371973, 5661.361594362449, 23461.486215768604, 5128.697172248027, 41189.414702584116, 46976.03547287411, 37606.54182512067, 50453.4081165085, 23105.892313229124, 27490.946947449083, -9050.198978209375, -2383.4559182472135, -0.094, 0.98, 0.304, 192.0, 0.0, 0.0, 0.0, 0.0, 0.0, 0.0, 0.0, 0.0, 0.0, 1.7068833020662029E9, 0.0, 2024-02-02 15:15:02.066
42.0, 62714.16696478927, 65246.53020459774, -19847.87968967911, -8745.991736172646, 16852.2765460344, 5650.9456814462765, 23449.237459807096, 5116.7836924533485, 41187.62656302769, 46975.99076938519, 37603.479636130294, 50452.871674641574, 23104.14887716161, 27484.57670027932, -9053.194111966386, -2390.273200306082, -0.094, 0.98, 0.304, 192.0, 0.0, 0.0, 0.0, 0.0, 0.0, 0.0, 0.0, 0.0, 0.0, 1.7068833020732243E9, 0.0, 2024-02-02 15:15:02.073
44.0, 62715.50806945659, 65245.971410986356, -19846.091550122685, -8746.662288506304, 16850.5778134558, 5650.11866690143, 23449.237459807096, 5115.531994763851, 41174.55079252134, 46965.2842837911, 37597.332906405085, 50447.55195946121, 23096.638691024626, 27476.395961808677, -9058.312661446651, -2396.688150964755, -0.094, 0.98, 0.304, 192.0, 0.0, 0.0, 0.0, 0.0, 0.0, 0.0, 0.0, 0.0, 0.0, 1.7068833020812187E9, 0.0, 2024-02-02 15:15:02.081
46.0, 62710.25540950959, 65244.16091968548, -19850.11486412464, -8747.668117006793, 16846.800368642853, 5645.983594177198, 23440.07324458042, 5110.301686561309, 41170.303961074824, 46974.18027808431, 37593.66722031441, 50446.233206538345, 23096.951615447, 27479.547557776878, -9062.045402770687, -2397.04577887604, -0.094, 0.98, 0.304, 192.0, 0.0, 0.0, 0.0, 0.0, 0.0, 0.0, 0.0, 0.0, 0.0, 1.706883302090207E9, 0.0, 2024-02-02 15:15:02.090
48.0, 62718.816127635975, 65255.403847146496, -19841.956477398453, -8738.302736080019, 16853.349429768256, 5658.679385027813, 23451.204413319163, 5120.650544244117, 41165.38657729466, 46972.12391759443, 37595.58947033757, 50449.78713390674, 23099.879693970644, 27483.615575267744, -9059.74317309179, -2394.430624774769, -0.098, 0.972, 0.3, 192.0, 126.0, 120.0, 15.0, 48.0, 4.5, 48.0, 0.0, 0.0, 0.0, 1.706883302098616E9, 0.0, 2024-02-02 15:15:02.098
50.0, 62710.18835427623, 65248.02777147625, -19847.656172234558, -8749.992698430146, 16845.213394786526, 5651.996213435676, 23442.241363792582, 5113.520337762873, 41165.1183563612, 46976.34839729648, 37596.416484882415, 50452.44699149692, 23100.639653282127, 27486.498950302477, -9060.547835892181, -2394.6764939637774, -0.098, 0.972, 0.3, 192.0, 0.0, 0.0, 0.0, 0.0, 0.0, 0.0, 0.0, 0.0, 0.0, 1.7068833021052728E9, 0.0, 2024-02-02 15:15:02.105
52.0, 62717.58678169093, 65254.86740527957, -19844.79514894428, -8746.751695484125, 16851.829511145297, 5660.132248417407, 23451.897317397277, 5124.986782668446, 41161.20680108152, 46977.756557197165, 37592.52728134719, 50449.76478216229, 23098.71740325897, 27483.570871778833, -9062.60419638207, -2400.1973748442383, -0.098, 0.972, 0.3, 192.0, 0.0, 0.0, 0.0, 0.0, 0.0, 0.0, 0.0, 0.0, 0.0, 1.7068833021135163E9, 0.0, 2024-02-02 15:15:02.113
54.0, 62712.33412174394, 65246.91018425348, -19846.69504722298, -8751.356154841918, 16847.649734932154, 5654.209036136751, 23441.190831803186, 5119.421198299075, 41158.83751616925, 46967.60886521445, 37596.32707790459, 50449.49656122882, 23098.42683058105, 27482.788560722896, -9060.927815547922, -2397.6492759763332, -0.098, 0.972, 0.3, 192.0, 0.0, 0.0, 0.0, 0.0, 0.0, 0.0, 0.0, 0.0, 0.0, 1.706883302122256E9, 0.0, 2024-02-02 15:15:02.122
56.0, 62702.40994720578, 65237.32128588216, -19852.372390314627, -8758.240492134153, 16839.916031350618, 5638.540463273581, 23444.051855093465, 5111.329866806253, 41148.39925150863, 46964.21140005725, 37585.240612654765, 50436.46549421138, 23098.18096139204, 27474.272546085424, -9067.968615051344, -2403.7736539570874, -0.098, 0.972, 0.3, 192.0, 0.0, 0.0, 0.0, 0.0, 0.0, 0.0, 0.0, 0.0, 0.0, 1.7068833021293085E9, 0.0, 2024-02-02 15:15:02.129
58.0, 62716.804470635, 65253.83922503462, -19836.21207907344, -8741.54373902604, 16855.405790258144, 5653.583187292003, 23450.667971452236, 5122.751608222915, 41142.69955667252, 46958.66816743233, 37588.660429556425, 50438.4547994679, 23098.739755003426, 27473.847862940773, -9065.644033627992, -2400.599706244434, -0.096, 0.98, 0.302, 192.0, 126.5, 0.0, 15.0, 80.0, 4.5, 56.0, 0.0, 0.0, 0.0, 1.7068833021373453E9, 0.0, 2024-02-02 15:15:02.137
60.0, 62720.96189510368, 65259.2036437039, -19832.367579027126, -8736.983983157157, 16858.84795890426, 5657.695908271779, 23457.105273855363, 5126.461997802496, 41159.39630978064, 46974.604961228964, 37605.13366521998, 50455.7103461874, 23113.268388899374, 27492.82449398333, -9049.595481109081, -2387.3898252713475, -0.096, 0.98, 0.302, 192.0, 0.0, 0.0, 0.0, 0.0, 0.0, 0.0, 0.0, 0.0, 0.0, 1.7068833021456213E9, 0.0, 2024-02-02 15:15:02.145
62.0, 62714.41283397828, 65251.04525697771, -19840.21304133094, -8745.745866983636, 16851.4271797451, 5647.16823663333, 23450.153881329763, 5119.935288421547, 41150.70148118752, 46974.22498157323, 37594.89656625946, 50449.0048228508, 23108.99920570841, 27483.72733399002, -9060.346670192084, -2398.2527730766265, -0.096, 0.98, 0.302, 192.0, 0.0, 0.0, 0.0, 0.0, 0.0, 0.0, 0.0, 0.0, 0.0, 1.7068833021543343E9, 0.0, 2024-02-02 15:15:02.154
64.0, 62724.13584281634, 65261.975260016356, -19828.83600340319, -8739.241509347143, 16857.082171092294, 5656.064230926541, 23454.892451154286, 5125.29970709082, 41155.19418182304, 46965.64191170239, 37601.44562738486, 50449.407154251, 23112.061394698787, 27482.095656644782, -9057.284481201707, -2400.107967866417, -0.096, 0.98, 0.302, 192.0, 0.0, 0.0, 0.0, 0.0, 0.0, 0.0, 0.0, 0.0, 0.0, 1.7068833021613538E9, 0.0, 2024-02-02 15:15:02.161
66.0, 62712.51293569958, 65254.286259923734, -19838.335494796695, -8753.054887420521, 16843.00057208545, 5638.8533876959555, 23429.769090386522, 5105.227840569954, 41160.737414447955, 46977.17541184132, 37602.2726419297, 50451.21764555188, 23114.363624377685, 27484.420238068134, -9062.626548126525, -2409.5851075154674, -0.096, 0.98, 0.302, 192.0, 0.0, 0.0, 0.0, 0.0, 0.0, 0.0, 0.0, 0.0, 0.0, 1.7068833021693532E9, 0.0, 2024-02-02 15:15:02.169
68.0, 62720.82778463695, 65255.56030935769, -19832.993427871876, -8747.82457921798, 16853.818816401817, 5644.418972065327, 23446.443491750182, 5117.722465720471, 41155.775327178875, 46964.85960064645, 37594.62834532599, 50437.94070934543, 23106.406403351593, 27475.39013330819, -9073.109516276065, -2419.7775029870872, -0.10400000000000001, 0.984, 0.3, 192.0, 126.0, 96.0, 15.0, 96.0, 4.5, 48.0, 0.0, 0.0, 0.0, 1.7068833021783524E9, 0.0, 2024-02-02 15:15:02.178
70.0, 62719.441976480724, 65254.37566690156, -19831.965247626933, -8745.499997794628, 16853.930575124094, 5652.3538413469605, 23453.39488427578, 5124.293878590332, 41173.00852215392, 46975.588437984996, 37605.67010708691, 50447.86488388359, 23115.369452878174, 27488.62236602573, -9058.98321378031, -2401.203203344727, -0.10400000000000001, 0.984, 0.3, 192.0, 0.0, 0.0, 0.0, 0.0, 0.0, 0.0, 0.0, 0.0, 0.0, 1.7068833021853776E9, 0.0, 2024-02-02 15:15:02.185
72.0, 62713.38465373334, 65252.69928606741, -19836.994390129377, -8750.417381574796, 16850.28724077788, 5652.733821002701, 23455.697113954677, 5126.752570480415, 41173.81318495431, 46982.18220259932, 37594.69540055936, 50441.137008802536, 23102.964234705476, 27477.737066476, -9063.721783604835, -2402.9019359233303, -0.10400000000000001, 0.984, 0.3, 192.0, 0.0, 0.0, 0.0, 0.0, 0.0, 0.0, 0.0, 0.0, 0.0, 1.7068833021933985E9, 0.0, 2024-02-02 15:15:02.193
74.0, 62716.67036016827, 65257.46020763639, -19832.07700634921, -8748.45042806273, 16855.495197235967, 5657.852370482966, 23462.380285546817, 5135.380343840164, 41185.01140892642, 46972.83917341699, 37596.349429649046, 50443.59570069262, 23098.471534069962, 27484.4872933015, -9057.820923068633, -2401.6725899782887, -0.10400000000000001, 0.984, 0.3, 192.0, 0.0, 0.0, 0.0, 0.0, 0.0, 0.0, 0.0, 0.0, 0.0, 1.7068833022016163E9, 0.0, 2024-02-02 15:15:02.201
76.0, 62711.03772056553, 65253.34748665661, -19839.92246865302, -8761.347384613442, 16847.917955865618, 5652.577358791514, 23449.706846440655, 5129.457131559508, 41201.86462424572, 46981.310484565554, 37592.90726100293, 50443.39453499253, 23102.964234705476, 27488.331793347814, -9059.40789692496, -2402.365494056403, -0.10400000000000001, 0.984, 0.3, 192.0, 0.0, 0.0, 0.0, 0.0, 0.0, 0.0, 0.0, 0.0, 0.0, 1.7068833022093992E9, 0.0, 2024-02-02 15:15:02.209
78.0, 62717.18445029074, 65256.40967564699, -19834.803919172755, -8759.358079356918, 16853.371781512713, 5656.131286159907, 23457.172329088728, 5131.49114030494, 41209.66538306062, 46970.29107454909, 37585.55353707714, 50435.59377617762, 23094.71644100147, 27479.59226126579, -9067.074545273132, -2414.5024912956346, -0.10400000000000001, 0.98, 0.3, 192.0, 126.0, 96.0, 15.0, 64.0, 4.5, 48.0, 0.0, 0.0, 0.0, 1.706883302217424E9, 0.0, 2024-02-02 15:15:02.217
80.0, 62712.75880488859, 65247.53603309823, -19839.341323297183, -8762.889654980858, 16846.778016898395, 5645.223634865718, 23447.941058628687, 5120.851709944214, 41229.804304814854, 46971.52042049413, 37592.30376390264, 50442.187540791936, 23098.270368369864, 27483.079133400817, -9059.765524836246, -2408.176947614783, -0.10400000000000001, 0.98, 0.3, 192.0, 0.0, 0.0, 0.0, 0.0, 0.0, 0.0, 0.0, 0.0, 0.0, 1.7068833022254732E9, 0.0, 2024-02-02 15:15:02.225
82.0, 62724.895802127816, 65258.6001466036, -19835.139195339587, -8756.184131644266, 16850.175482055605, 5653.806704736556, 23451.383227274804, 5126.417294313585, 41241.896598565174, 46976.41545252984, 37588.28044990068, 50441.204064035905, 23090.33549908823, 27486.186025880103, -9066.158123750463, -2409.9650871712074, -0.10400000000000001, 0.98, 0.3, 192.0, 0.0, 0.0, 0.0, 0.0, 0.0, 0.0, 0.0, 0.0, 0.0, 1.7068833022346778E9, 0.0, 2024-02-02 15:15:02.234
84.0, 62734.529403988054, 65268.18904497493, -19829.238334803384, -8755.245358377142, 16850.04137158887, 5658.3441088609825, 23459.586317489902, 5129.9935734264345, 41260.11327029625, 46973.39796702838, 37599.03163898369, 50449.6083199511, 23094.738792745924, 27488.64471777019, -9056.45746665686, -2399.303305066026, -0.10400000000000001, 0.98, 0.3, 192.0, 0.0, 0.0, 0.0, 0.0, 0.0, 0.0, 0.0, 0.0, 0.0, 1.706883302241487E9, 0.0, 2024-02-02 15:15:02.241
86.0, 62732.78596792054, 65269.21722521988, -19831.473509248914, -8766.532989327072, 16848.72261866601, 5649.157541889852, 23451.137358085794, 5120.561137266295, 41272.69730242459, 46988.15011836888, 37597.8246447831, 50450.860017640596, 23092.883597956134, 27483.839092712296, -9059.251434713773, -2400.040912633051, -0.10400000000000001, 0.98, 0.3, 192.0, 0.0, 0.0, 0.0, 0.0, 0.0, 0.0, 0.0, 0.0, 0.0, 1.7068833022495005E9, 0.0, 2024-02-02 15:15:02.249
88.0, 62736.65281971131, 65274.46988516687, -19829.193631314472, -8766.39887886034, 16853.349429768256, 5653.694946014279, 23455.83122442141, 5121.745779722426, 41273.50196522498, 46974.5379059956, 37592.840205769564, 50444.489770470835, 23085.887501941623, 27477.982935665004, -9064.995833038787, -2408.6463342483444, -0.10400000000000001, 0.978, 0.302, 192.0, 126.0, 96.0, 15.0, 64.0, 4.5, 64.0, 0.0, 0.0, 0.0, 1.706883302257522E9, 0.0, 2024-02-02 15:15:02.257
90.0, 62731.80249116451, 65270.088943253635, -19830.15475632605, -8770.578655073483, 16847.202700043046, 5648.710507000746, 23443.984799860096, 5113.766206951882, 41291.36100904477, 46989.11124338046, 37605.848921042554, 50456.157381076504, 23093.598853778705, 27493.495046316988, -9054.445809655883, -2399.2586015771153, -0.10400000000000001, 0.978, 0.302, 192.0, 0.0, 0.0, 0.0, 0.0, 0.0, 0.0, 0.0, 0.0, 0.0, 1.706883302265803E9, 0.0, 2024-02-02 15:15:02.265
92.0, 62727.42154925127, 65266.378553674054, -19831.49586099337, -8771.495076596151, 16845.883947120186, 5651.705640757757, 23439.290933524484, 5110.72636970596, 41289.03642762142, 46983.903286922374, 37595.790636037666, 50444.288604770736, 23090.76018223288, 27493.673860272633, -9065.398164438982, -2409.2498313486376, -0.10400000000000001, 0.978, 0.302, 192.0, 0.0, 0.0, 0.0, 0.0, 0.0, 0.0, 0.0, 0.0, 0.0, 1.7068833022735653E9, 0.0, 2024-02-02 15:15:02.273
94.0, 62734.79762492152, 65271.18417873194, -19828.97011386992, -8764.409573603818, 16847.314458765326, 5655.125457659418, 23448.54455572898, 5116.806044197803, 41292.29978231189, 46980.483470020714, 37602.920842518906, 50448.5577879617, 23089.799057221302, 27493.562101550353, -9058.424420168927, -2399.2586015771153, -0.10400000000000001, 0.978, 0.302, 192.0, 0.0, 0.0, 0.0, 0.0, 0.0, 0.0, 0.0, 0.0, 0.0, 1.7068833022817469E9, 0.0, 2024-02-02 15:15:02.281
96.0, 62732.31658128698, 65268.278451952756, -19833.10518659415, -8761.347384613442, 16840.13954879517, 5656.511265815648, 23442.107253325852, 5112.201584840011, 41295.16080560217, 46988.798318958085, 37600.95388900684, 50452.22347405237, 23082.110057128677, 27504.87208424474, -9059.474952158327, -2397.068130620495, -0.10400000000000001, 0.978, 0.302, 192.0, 0.0, 0.0, 0.0, 0.0, 0.0, 0.0, 0.0, 0.0, 0.0, 1.706883302290573E9, 0.0, 2024-02-02 15:15:02.290
98.0, 62735.84815691092, 65272.70409735491, -19833.88749765009, -8760.050983435034, 16841.3241912513, 5656.824190238022, 23441.83903239239, 5113.922669163068, 41290.712808455566, 46984.17150785583, 37597.64583082746, 50450.70355542941, 23074.04107738031, 27494.25500562847, -9063.922949304933, -2400.107967866417, -0.10200000000000001, 0.974, 0.303, 192.0, 126.0, 112.0, 15.0, 40.0, 4.5, 64.0, 0.0, 0.0, 0.0, 1.7068833022968311E9, 0.0, 2024-02-02 15:15:02.296
100.0, 62736.362247033394, 65274.000498533314, -19831.317047037726, -8761.325032868986, 16843.089979063272, 5653.046745425075, 23447.35991327285, 5115.06260813029, 41297.21716609206, 46990.742920725694, 37602.920842518906, 50455.106849087104, 23080.165455361064, 27505.07324994484, -9056.45746665686, -2396.2187643311936, -0.10200000000000001, 0.974, 0.303, 192.0, 0.0, 0.0, 0.0, 0.0, 0.0, 0.0, 0.0, 0.0, 0.0, 1.7068833023055952E9, 0.0, 2024-02-02 15:15:02.305
102.0, 62744.36417154839, 65281.80125734821, -19824.29859927876, -8762.084992180466, 16848.72261866601, 5657.02535593812, 23448.522203984525, 5117.700113976016, 41300.97225916055, 46990.94408642579, 37600.39509539546, 50451.17294206297, 23080.836007694725, 27494.34441260629, -9058.335013191107, -2400.2867818220598, -0.10200000000000001, 0.974, 0.303, 192.0, 0.0, 0.0, 0.0, 0.0, 0.0, 0.0, 0.0, 0.0, 0.0, 1.7068833023138363E9, 0.0, 2024-02-02 15:15:02.313
104.0, 62749.70623847321, 65283.499989926815, -19816.140212552575, -8757.011146189112, 16854.779941413395, 5665.943701975787, 23457.999343633575, 5127.065494902789, 41318.116047157775, 46990.474699792234, 37615.19195022487, 50461.79002067924, 23089.50848454338, 27503.665090044153, -9045.281594429207, -2390.0049793726184, -0.10200000000000001, 0.974, 0.303, 192.0, 0.0, 0.0, 0.0, 0.0, 0.0, 0.0, 0.0, 0.0, 0.0, 1.7068833023215747E9, 0.0, 2024-02-02 15:15:02.321
106.0, 62740.765540691085, 65273.12878049956, -19822.286942277784, -8759.916872968302, 16850.398999500158, 5656.891245471388, 23452.54551798648, 5119.935288421547, 41319.09952391381, 46990.92173468134, 37611.7274298343, 50461.32063404568, 23091.85541771119, 27503.01688945495, -9046.35447816306, -2390.206145072716, -0.10200000000000001, 0.974, 0.303, 192.0, 0.0, 0.0, 0.0, 0.0, 0.0, 0.0, 0.0, 0.0, 0.0, 1.7068833023287964E9, 0.0, 2024-02-02 15:15:02.328
108.0, 62741.59255523593, 65274.76045784479, -19823.538639967283, -8759.067506678999, 16846.5768511983, 5654.164332647841, 23442.82250914842, 5111.218108083976, 41315.232672123035, 46985.445557289786, 37607.48059838779, 50459.800715422716, 23083.361754818172, 27497.719526019042, -9050.780123565213, -2394.2965143080373, -0.10200000000000001, 0.971, 0.3055, 192.0, 126.0, 104.0, 15.0, 32.0, 4.5, 80.0, 0.0, 0.0, 0.0, 1.7068833023376021E9, 0.0, 2024-02-02 15:15:02.337
110.0, 62745.01237213759, 65274.626347378064, -19816.386081741584, -8759.916872968302, 16854.75758966894, 5656.153637904363, 23454.713637198645, 5118.035390142845, 41321.51351231498, 46987.92660092433, 37607.57000536561, 50458.817238666685, 23093.978833434445, 27496.423124840632, -9047.60617585256, -2395.3246945529813, -0.10200000000000001, 0.971, 0.3055, 192.0, 0.0, 0.0, 0.0, 0.0, 0.0, 0.0, 0.0, 0.0, 0.0, 1.7068833023456492E9, 0.0, 2024-02-02 15:15:02.345
112.0, 62742.97836339216, 65274.40282993351, -19816.944875352965, -8762.39791660284, 16855.38343851369, 5660.0428414395865, 23462.313230313448, 5123.779788467859, 41325.6038815503, 46990.608810258964, 37608.3299646771, 50458.50431424431, 23090.983699677432, 27498.077153930328, -9044.02989673971, -2394.6317904748666, -0.10200000000000001, 0.971, 0.3055, 192.0, 0.0, 0.0, 0.0, 0.0, 0.0, 0.0, 0.0, 0.0, 0.0, 1.706883302352634E9, 0.0, 2024-02-02 15:15:02.352
114.0, 62745.57116574898, 65277.353260201606, -19814.73205265189, -8766.287120138064, 16858.602089715256, 5664.557893819559, 23462.000305891073, 5127.132550136155, 41331.5047420865, 46982.60688574397, 37613.56027287964, 50458.23609331085, 23089.419077565562, 27494.433819584112, -9037.771408292223, -2392.9777613851743, -0.10200000000000001, 0.971, 0.3055, 192.0, 0.0, 0.0, 0.0, 0.0, 0.0, 0.0, 0.0, 0.0, 0.0, 1.7068833023616433E9, 0.0, 2024-02-02 15:15:02.361
116.0, 62733.076540598464, 65265.14920772901, -19827.40549175805, -8778.714690055214, 16844.922822108605, 5649.693983756779, 23443.82833764891, 5112.246288328921, 41327.59318680682, 46990.80997595906, 37604.15018846395, 50451.79879090772, 23081.931243173032, 27498.43478184161, -9046.488588629793, -2397.4481102762356, -0.10200000000000001, 0.971, 0.3055, 192.0, 0.0, 0.0, 0.0, 0.0, 0.0, 0.0, 0.0, 0.0, 0.0, 1.7068833023699925E9, 0.0, 2024-02-02 15:15:02.369
118.0, 62744.65474422631, 65275.654527623, -19813.79327938477, -8760.676832279782, 16857.596261214767, 5665.898998486877, 23457.44055002219, 5126.931384436058, 41323.078134426854, 46978.605923486466, 37599.81395003962, 50447.015517594285, 23081.037173394823, 27492.4892178165, -9049.707239831358, -2403.3266190679815, -0.10200000000000001, 0.9744999999999999, 0.30674999999999997, 192.0, 126.0, 104.0, 15.0, 72.0, 4.5, 80.0, 0.0, 0.0, 0.0, 1.7068833023777144E9, 0.0, 2024-02-02 15:15:02.377
120.0, 62745.392351793336, 65276.57094914567, -19808.8758956046, -8759.201617145733, 16860.077304849303, 5665.0943356864855, 23461.061532623953, 5129.591242026239, 41339.03727996794, 46995.88382195042, 37617.248310714764, 50465.05337536972, 23091.94482468901, 27509.521247091445, -9031.803492522657, -2384.752319425621, -0.10200000000000001, 0.9744999999999999, 0.30674999999999997, 192.0, 0.0, 0.0, 0.0, 0.0, 0.0, 0.0, 0.0, 0.0, 0.0, 1.7068833023847404E9, 0.0, 2024-02-02 15:15:02.384
122.0, 62747.00167739412, 65274.40282993351, -19811.28988400577, -8762.442620091751, 16860.211415316036, 5661.808629251555, 23455.518299999036, 5122.885718689647, 41334.61163456579, 46996.353208583976, 37612.95677577934, 50461.611206723595, 23090.93899618852, 27503.508627832965, -9036.363248391539, -2394.497680008135, -0.10200000000000001, 0.9744999999999999, 0.30674999999999997, 192.0, 0.0, 0.0, 0.0, 0.0, 0.0, 0.0, 0.0, 0.0, 0.0, 1.7068833023937142E9, 0.0, 2024-02-02 15:15:02.393
124.0, 62753.349572819425, 65279.14139975803, -19804.8749333471, -8757.078201422477, 16860.613746716233, 5666.927178731821, 23453.327829042417, 5124.092712890233, 41338.590245078834, 46985.95964741226, 37619.99757528277, 50464.136953847046, 23093.33063284524, 27503.329813877324, -9035.133902446498, -2391.5472497400347, -0.10200000000000001, 0.9744999999999999, 0.30674999999999997, 192.0, 0.0, 0.0, 0.0, 0.0, 0.0, 0.0, 0.0, 0.0, 0.0, 1.7068833024019644E9, 0.0, 2024-02-02 15:15:02.401
126.0, 62746.30877331601, 65273.642870622025, -19813.659168918035, -8768.54464632805, 16852.991801856973, 5658.4558675832595, 23456.099445354874, 5118.974163409968, 41339.66312881269, 46996.37556032844, 37617.315365948125, 50462.885256157555, 23090.067278154766, 27503.106296432772, -9037.972573992321, -2389.3567787834145, -0.10200000000000001, 0.9744999999999999, 0.30674999999999997, 192.0, 0.0, 0.0, 0.0, 0.0, 0.0, 0.0, 0.0, 0.0, 0.0, 1.7068833024087603E9, 0.0, 2024-02-02 15:15:02.408
128.0, 62741.50314825811, 65269.328983942156, -19814.888514863076, -8776.233646420676, 16853.505891979443, 5656.868893726933, 23454.445416265182, 5116.090788375233, 41333.069364198374, 46981.2881328211, 37611.59331936757, 50454.72686943137, 23082.177112362042, 27487.14715089168, -9040.386562393494, -2397.8951451653415, -0.1, 0.97525, 0.30437499999999995, 192.0, 126.0, 120.0, 15.0, 64.0, 4.5, 56.0, 0.0, 0.0, 0.0, 1.7068833024177463E9, 0.0, 2024-02-02 15:15:02.417
130.0, 62742.33016280296, 65268.72548684186, -19816.542543952768, -8777.708861554725, 16850.913089622627, 5650.632757023902, 23443.426006248716, 5109.765244694382, 41332.62232930927, 46976.12487985192, 37608.9781652663, 50452.93872987494, 23081.350097817194, 27486.118970646738, -9039.514844359737, -2402.52195626759, -0.1, 0.97525, 0.30437499999999995, 192.0, 0.0, 0.0, 0.0, 0.0, 0.0, 0.0, 0.0, 0.0, 0.0, 1.706883302425754E9, 0.0, 2024-02-02 15:15:02.425
132.0, 62742.62073548088, 65270.46892290937, -19813.703872406946, -8775.071355709, 16857.260985047935, 5648.978727934209, 23449.863308651842, 5109.720541205471, 41327.548483317914, 46981.534002010114, 37605.73716232028, 50448.490732728336, 23078.690240227013, 27493.427991083623, -9044.879263029012, -2403.1925086012493, -0.1, 0.97525, 0.30437499999999995, 192.0, 0.0, 0.0, 0.0, 0.0, 0.0, 0.0, 0.0, 0.0, 0.0, 1.7068833024337618E9, 0.0, 2024-02-02 15:15:02.433
134.0, 62750.46619778469, 65278.94023405793, -19803.757346124334, -8762.084992180466, 16864.547653740367, 5659.305233872561, 23458.580488989413, 5120.270564588376, 41331.34827987532, 46982.42807178832, 37617.337717692586, 50458.92899738896, 23086.625109508648, 27489.87406371523, -9035.9832687358, -2396.5093370091126, -0.1, 0.97525, 0.30437499999999995, 192.0, 0.0, 0.0, 0.0, 0.0, 0.0, 0.0, 0.0, 0.0, 0.0, 1.7068833024417615E9, 0.0, 2024-02-02 15:15:02.441
136.0, 62751.561433263, 65283.67880388246, -19801.566875167715, -8761.280329380075, 16862.826569417306, 5659.372289105927, 23452.29964879747, 5117.9012796761135, 41334.70104154361, 46999.48245280772, 37623.0821160176, 50470.283683572256, 23090.402554321594, 27510.929406992127, -9032.69756230087, -2389.6473514613335, -0.1, 0.97525, 0.30437499999999995, 192.0, 0.0, 0.0, 0.0, 0.0, 0.0, 0.0, 0.0, 0.0, 0.0, 1.706883302449806E9, 0.0, 2024-02-02 15:15:02.449
138.0, 62757.14936937683, 65287.903283584514, -19798.437630943972, -8762.867303236402, 16861.060781605338, 5665.3849083644045, 23450.757378430055, 5120.516433777384, 41331.5047420865, 46994.36390332746, 37624.08794451808, 50468.74141320484, 23090.916644444067, 27502.033412698915, -9038.196091436874, -2395.9952468866404, -0.097, 0.978625, 0.30418749999999994, 192.0, 126.5, 8.0, 15.0, 88.0, 4.5, 64.0, 0.0, 0.0, 0.0, 1.7068833024579797E9, 0.0, 2024-02-02 15:15:02.457
140.0, 62749.19214835074, 65279.56608290268, -19806.14898278105, -8774.40080337534, 16852.120083823214, 5653.493780314181, 23442.174308559217, 5114.816738941281, 41329.35897461879, 46992.82163296004, 37623.327985206604, 50466.2603695703, 23090.246092110407, 27505.699098789588, -9043.091123472586, -2398.2304213321713, -0.097, 0.978625, 0.30418749999999994, 192.0, 0.0, 0.0, 0.0, 0.0, 0.0, 0.0, 0.0, 0.0, 0.0, 1.7068833024650333E9, 0.0, 2024-02-02 15:15:02.465
142.0, 62744.00654363711, 65275.83334157865, -19807.467735703915, -8778.088841210467, 16854.71288618003, 5652.622062280424, 23447.22580280612, 5113.229765084954, 41321.89349197072, 46993.51453703816, 37615.75074383626, 50461.477096256865, 23082.13240887313, 27496.937214963105, -9047.628527597015, -2404.1536336128274, -0.097, 0.978625, 0.30418749999999994, 192.0, 0.0, 0.0, 0.0, 0.0, 0.0, 0.0, 0.0, 0.0, 0.0, 1.7068833024737935E9, 0.0, 2024-02-02 15:15:02.473
144.0, 62753.32722107497, 65283.14236201553, -19797.76707861031, -8766.220064904699, 16859.362049026735, 5663.954396719265, 23449.39392201828, 5121.254041344409, 41321.669974526165, 46987.747786968685, 37618.90233980445, 50463.84638116913, 23087.787400220324, 27491.86336897175, -9039.894824015479, -2402.0302178895736, -0.097, 0.978625, 0.30418749999999994, 192.0, 0.0, 0.0, 0.0, 0.0, 0.0, 0.0, 0.0, 0.0, 0.0, 1.706883302481825E9, 0.0, 2024-02-02 15:15:02.481
146.0, 62743.26893607008, 65283.857617838104, -19797.789430354765, -8764.409573603818, 16857.685668192586, 5664.401431608371, 23443.850689393366, 5121.946945422524, 41320.82060823686, 46998.83425221852, 37618.56706363762, 50469.68018647197, 23086.982737419934, 27503.6427382997, -9040.230100182307, -2396.1293573533726, -0.097, 0.978625, 0.30418749999999994, 192.0, 0.0, 0.0, 0.0, 0.0, 0.0, 0.0, 0.0, 0.0, 0.0, 1.7068833024891028E9, 0.0, 2024-02-02 15:15:02.489
148.0, 62741.525500002565, 65283.2094172489, -19798.415279199515, -8762.509675325116, 16861.798389172363, 5665.608425808958, 23448.58925921789, 5124.87502394617, 41319.36774484727, 46992.866336448955, 37618.4776566598, 50470.283683572256, 23087.563882775772, 27503.15099992168, -9039.581899593104, -2398.006903887618, -0.0955, 0.9833125, 0.30109374999999994, 192.0, 126.5, 8.0, 15.0, 112.0, 4.5, 40.0, 0.0, 0.0, 0.0, 1.706883302496927E9, 0.0, 2024-02-02 15:15:02.496
150.0, 62738.37390403437, 65279.96841430288, -19803.86910484661, -8768.79051551706, 16858.467979248522, 5654.991347192687, 23451.182061574706, 5120.158805866099, 41322.51934081547, 46990.22883060323, 37622.50097066176, 50475.13401211906, 23082.37827806214, 27509.051860457883, -9036.877338514012, -2396.732854453666, -0.0955, 0.9833125, 0.30109374999999994, 192.0, 0.0, 0.0, 0.0, 0.0, 0.0, 0.0, 0.0, 0.0, 0.0, 1.706883302505878E9, 0.0, 2024-02-02 15:15:02.505
152.0, 62740.497319757626, 65281.33187071465, -19803.846753102156, -8773.64084406386, 16859.85378740475, 5654.611367536947, 23455.719465699134, 5121.432855300052, 41314.31625060037, 46991.92756318183, 37612.10740949004, 50468.58495099365, 23080.388972805617, 27494.322060861836, -9046.019201996232, -2407.3499330699365, -0.0955, 0.9833125, 0.30109374999999994, 192.0, 0.0, 0.0, 0.0, 0.0, 0.0, 0.0, 0.0, 0.0, 0.0, 1.7068833025128877E9, 0.0, 2024-02-02 15:15:02.512
154.0, 62745.77233144907, 65283.6117486491, -19805.7242996364, -8781.888637767868, 16855.38343851369, 5654.298443114572, 23447.87400339532, 5119.398846554619, 41316.59612853481, 46986.96547591275, 37615.54957813616, 50468.22732308237, 23085.149894374597, 27492.310403860858, -9040.632431582502, -2405.472386535691, -0.0955, 0.9833125, 0.30109374999999994, 192.0, 0.0, 0.0, 0.0, 0.0, 0.0, 0.0, 0.0, 0.0, 0.0, 1.706883302521855E9, 0.0, 2024-02-02 15:15:02.521
156.0, 62747.94045066124, 65284.01408004929, -19801.186895511975, -8780.793402289559, 16857.730371681497, 5659.1040681724635, 23447.53872722849, 5122.326925078264, 41319.568910547365, 46995.74971148369, 37611.88389204549, 50466.238017825846, 23086.89333044211, 27500.58054930932, -9045.661574084947, -2411.037970905062, -0.0955, 0.9833125, 0.30109374999999994, 192.0, 0.0, 0.0, 0.0, 0.0, 0.0, 0.0, 0.0, 0.0, 0.0, 1.7068833025289E9, 0.0, 2024-02-02 15:15:02.528
158.0, 62738.32920054546, 65271.29593745422, -19809.88172410509, -8787.588332603971, 16858.490330992976, 5652.510303558148, 23450.623267963325, 5119.242384343432, 41311.812855221375, 46986.02670264563, 37604.9772030088, 50455.7103461874, 23084.747562974404, 27492.10923816076, -9046.533292118704, -2414.636601762367, -0.09575, 0.98365625, 0.299546875, 192.0, 126.5, 0.0, 15.0, 96.0, 4.5, 40.0, 0.0, 0.0, 0.0, 1.7068833025379086E9, 0.0, 2024-02-02 15:15:02.537
160.0, 62735.22230806617, 65268.881949053044, -19812.943913095467, -8790.203486705243, 16849.884909377684, 5649.202245378762, 23438.910953868744, 5112.894488918125, 41316.32790760135, 46988.68656023581, 37605.44658964236, 50458.16903807748, 23086.781571719835, 27490.946947449083, -9048.656707841958, -2416.6706105077997, -0.09575, 0.98365625, 0.299546875, 192.0, 0.0, 0.0, 0.0, 0.0, 0.0, 0.0, 0.0, 0.0, 0.0, 1.7068833025449228E9, 0.0, 2024-02-02 15:15:02.544
162.0, 62739.42443602377, 65273.91109155549, -19809.166468282518, -8792.796289062058, 16853.394133257167, 5651.16919889083, 23443.604820204357, 5113.29682031832, 41309.13064588674, 46986.11610962345, 37596.75176104924, 50451.061183340695, 23076.678583226036, 27483.079133400817, -9058.536178891203, -2428.271165880104, -0.09575, 0.98365625, 0.299546875, 192.0, 0.0, 0.0, 0.0, 0.0, 0.0, 0.0, 0.0, 0.0, 0.0, 1.7068833025531433E9, 0.0, 2024-02-02 15:15:02.553
164.0, 62745.48175877116, 65276.19096948993, -19802.34918622365, -8790.114079727422, 16856.746894925465, 5655.773658248622, 23445.50471848306, 5117.67776223156, 41318.07134366886, 46985.15498461187, 37612.73325833479, 50460.001881122815, 23087.966214175965, 27493.025659683426, -9046.35447816306, -2416.7376657411655, -0.09575, 0.98365625, 0.299546875, 192.0, 0.0, 0.0, 0.0, 0.0, 0.0, 0.0, 0.0, 0.0, 0.0, 1.7068833025619411E9, 0.0, 2024-02-02 15:15:02.561
166.0, 62736.38459877785, 65266.646774607514, -19809.345282238162, -8797.512507142128, 16847.00153434295, 5647.592919777981, 23434.351197999862, 5109.988762138934, 41310.494102298515, 46989.46887129174, 37602.38440065198, 50452.044660096726, 23081.305394328287, 27490.209339882058, -9056.345707934584, -2421.2303663766825, -0.09575, 0.98365625, 0.299546875, 192.0, 0.0, 0.0, 0.0, 0.0, 0.0, 0.0, 0.0, 0.0, 0.0, 1.706883302568972E9, 0.0, 2024-02-02 15:15:02.568
168.0, 62734.08236909895, 65270.06659150918, -19809.345282238162, -8792.416309406319, 16850.44370298907, 5654.857236725955, 23438.64273293528, 5116.068436630779, 41305.17438711815, 46985.82553694553, 37599.3222116616, 50451.64232869653, 23084.36758331866, 27498.658299286166, -9056.993908523787, -2421.8338634769757, -0.097875, 0.9828281249999999, 0.30077343749999996, 192.0, 126.0, 112.0, 15.0, 88.0, 4.5, 56.0, 0.0, 0.0, 0.0, 1.706883302577134E9, 0.0, 2024-02-02 15:15:02.577
170.0, 62725.16402306128, 65263.07049549467, -19816.699006163955, -8798.674797853804, 16843.4252552301, 5647.078829655508, 23433.077148565906, 5110.502852261407, 41300.145244615705, 46983.16567935535, 37591.99083948026, 50450.39063100704, 23080.366621061163, 27494.567930050842, -9055.69750734538, -2420.8056832320312, -0.097875, 0.9828281249999999, 0.30077343749999996, 192.0, 0.0, 0.0, 0.0, 0.0, 0.0, 0.0, 0.0, 0.0, 0.0, 1.70688330258497E9, 0.0, 2024-02-02 15:15:02.584
172.0, 62725.29813352801, 65266.42325716296, -19816.140212552575, -8802.832222322491, 16842.218261029513, 5644.866006954433, 23433.993570088576, 5107.932401649046, 41293.03738987892, 46986.47373753473, 37586.6711242999, 50444.780343148755, 23070.75537094538, 27486.454246813566, -9065.375812694529, -2432.9650322157186, -0.097875, 0.9828281249999999, 0.30077343749999996, 192.0, 0.0, 0.0, 0.0, 0.0, 0.0, 0.0, 0.0, 0.0, 0.0, 1.706883302594018E9, 0.0, 2024-02-02 15:15:02.594
174.0, 62732.96478187619, 65274.715754355886, -19805.791354869765, -8794.539725129573, 16848.968487855018, 5651.616233779935, 23436.899296867767, 5114.637924985638, 41299.74291321551, 46983.836231689005, 37601.71384831832, 50454.07866884216, 23077.37148730415, 27489.270566614934, -9057.262129457251, -2426.4383228347688, -0.097875, 0.9828281249999999, 0.30077343749999996, 192.0, 0.0, 0.0, 0.0, 0.0, 0.0, 0.0, 0.0, 0.0, 0.0, 1.7068833026010072E9, 0.0, 2024-02-02 15:15:02.601
176.0, 62728.29326728502, 65273.866388066584, -19803.48912519087, -8795.59025711897, 16852.589470456776, 5654.7007745147675, 23442.86721263733, 5116.850747686714, 41304.41442780667, 46999.97419118574, 37607.50295013225, 50462.08059335716, 23075.404533792083, 27506.25789240097, -9052.568263121637, -2422.8620437219197, -0.097875, 0.9828281249999999, 0.30077343749999996, 192.0, 0.0, 0.0, 0.0, 0.0, 0.0, 0.0, 0.0, 0.0, 0.0, 1.706883302609009E9, 0.0, 2024-02-02 15:15:02.609
178.0, 62732.718912687174, 65274.73810610034, -19798.95172106644, -8797.780728075591, 16856.18810131408, 5652.666765769335, 23447.5834307174, 5116.91780292008, 41295.876061424744, 46990.25118234768, 37601.40092389595, 50453.89985488652, 23081.215987350464, 27492.936252705607, -9053.283518944207, -2430.573395559001, -0.097875, 0.9828281249999999, 0.30077343749999996, 192.0, 0.0, 0.0, 0.0, 0.0, 0.0, 0.0, 0.0, 0.0, 0.0, 1.7068833026171925E9, 0.0, 2024-02-02 15:15:02.617
180.0, 62726.41572075078, 65269.932481042444, -19804.24908450235, -8804.709768856737, 16850.130778566694, 5645.3130418435385, 23445.34825627187, 5112.380398795653, 41298.73708471502, 46989.46887129174, 37607.34648792106, 50461.38768927904, 23095.34228984622, 27499.641776042197, -9046.063905485142, -2426.7735990015985, -0.098, 0.982, 0.306, 192.0, 126.0, 120.0, 15.0, 88.0, 4.5, 72.0, 0.0, 0.0, 0.0, 1.706883302625023E9, 0.0, 2024-02-02 15:15:02.625
182.0, 62725.02991259455, 65268.65843160849, -19805.411375214026, -8804.329789200996, 16849.102598321748, 5649.805742479056, 23434.68647416669, 5109.899355161114, 41282.46501475156, 46987.5913247575, 37594.51658660371, 50452.42463975247, 23079.830179194236, 27489.404677081668, -9058.290309702195, -2436.1836834172827, -0.098, 0.982, 0.306, 192.0, 0.0, 0.0, 0.0, 0.0, 0.0, 0.0, 0.0, 0.0, 0.0, 1.7068833026331873E9, 0.0, 2024-02-02 15:15:02.633
184.0, 62729.90259288581, 65271.47475140986, -19802.773869368302, -8802.139318244377, 16850.62251694471, 5646.654146510858, 23444.409483004747, 5111.329866806253, 41281.1462618287, 46981.37753979892, 37603.68080183039, 50458.481962499856, 23081.439504795017, 27493.11506666125, -9052.948242777376, -2429.4781600806905, -0.098, 0.982, 0.306, 192.0, 0.0, 0.0, 0.0, 0.0, 0.0, 0.0, 0.0, 0.0, 0.0, 1.7068833026410942E9, 0.0, 2024-02-02 15:15:02.641
186.0, 62722.9064968713, 65264.92569028446, -19810.552276438746, -8808.576620647505, 16838.396112727656, 5642.250852853162, 23430.573753186913, 5104.266715558376, 41276.3406367708, 46982.361016554954, 37600.462150628824, 50455.17390432047, 23075.51629251436, 27483.079133400817, -9059.877283558522, -2436.1613316728276, -0.098, 0.982, 0.306, 192.0, 0.0, 0.0, 0.0, 0.0, 0.0, 0.0, 0.0, 0.0, 0.0, 1.7068833026500788E9, 0.0, 2024-02-02 15:15:02.650
188.0, 62734.395293521324, 65277.5097224128, -19798.370575710604, -8795.344387929963, 16853.975278613005, 5662.456829840759, 23451.651448208268, 5126.216128613488, 41273.926648369634, 46982.718644466244, 37602.16088320743, 50454.190427564434, 23073.9963738914, 27487.303613102868, -9060.167856236441, -2432.3391833709697, -0.098, 0.982, 0.306, 192.0, 0.0, 0.0, 0.0, 0.0, 0.0, 0.0, 0.0, 0.0, 0.0, 1.706883302657092E9, 0.0, 2024-02-02 15:15:02.657
190.0, 62724.29230502753, 65271.38534443204, -19806.73012813689, -8804.016864778623, 16846.91212736513, 5654.320794859028, 23445.571773716423, 5116.873099431169, 41274.73131117002, 46991.72639748173, 37607.34648792106, 50466.21566608139, 23086.24512985291, 27492.73508700551, -9049.595481109081, -2420.7386279986654, -0.096, 0.978, 0.298, 192.0, 126.5, 0.0, 15.0, 72.0, 4.5, 40.0, 0.0, 0.0, 0.0, 1.7068833026654313E9, 0.0, 2024-02-02 15:15:02.665
192.0, 62729.097930085416, 65274.24636772232, -19801.499819934346, -8804.419196178818, 16846.509795964932, 5657.807666994056, 23439.335637013395, 5117.186023853544, 41261.29791275238, 46990.429996303326, 37596.39413313796, 50456.47030549888, 23075.158664603077, 27496.736049263007, -9060.480780658816, -2430.0816571809837, -0.096, 0.978, 0.298, 192.0, 0.0, 0.0, 0.0, 0.0, 0.0, 0.0, 0.0, 0.0, 0.0, 1.7068833026731036E9, 0.0, 2024-02-02 15:15:02.673
194.0, 62730.59549696392, 65275.63217587855, -19794.548427408747, -8806.609667135437, 16850.600165200256, 5658.50057107217, 23447.06934059493, 5121.991648911435, 41262.10257555277, 46984.86441193395, 37604.73133381979, 50456.64911945452, 23075.046905880798, 27493.3385841058, -9057.17272247943, -2430.573395559001, -0.096, 0.978, 0.298, 192.0, 0.0, 0.0, 0.0, 0.0, 0.0, 0.0, 0.0, 0.0, 0.0, 1.7068833026803641E9, 0.0, 2024-02-02 15:15:02.680
196.0, 62729.54496497452, 65277.17444624597, -19792.045032029753, -8807.481385169194, 16847.783845398884, 5656.667728026835, 23447.87400339532, 5119.935288421547, 41263.30956975336, 46997.2919818511, 37609.02286875521, 50464.38282303606, 23083.741734473915, 27493.472694572534, -9053.685850344402, -2428.1594071578274, -0.096, 0.978, 0.298, 192.0, 0.0, 0.0, 0.0, 0.0, 0.0, 0.0, 0.0, 0.0, 0.0, 1.7068833026893594E9, 0.0, 2024-02-02 15:15:02.689
198.0, 62735.42347376627, 65287.210379506396, -19786.30063370474, -8798.808908320536, 16856.61278445873, 5660.244007139684, 23456.367666288337, 5128.630117014661, 41258.52629643992, 46993.58159227152, 37611.526264134205, 50465.880389914564, 23084.747562974404, 27495.484351573512, -9048.589652608593, -2427.1759304017937, -0.096, 0.978, 0.298, 192.0, 0.0, 0.0, 0.0, 0.0, 0.0, 0.0, 0.0, 0.0, 0.0, 1.7068833026974647E9, 0.0, 2024-02-02 15:15:02.697
200.0, 62737.4574825117, 65289.28909174074, -19786.457095915925, -8798.74185308717, 16852.209490801037, 5656.824190238022, 23445.16944231623, 5124.293878590332, 41260.716767396545, 46995.34738008349, 37616.19777872536, 50474.41875629649, 23089.933167688032, 27502.949834221585, -9044.275765928718, -2420.850386720942, -0.098, 0.978, 0.294, 192.0, 126.0, 120.0, 15.0, 72.0, 4.5, 24.0, 0.0, 0.0, 0.0, 1.706883302705232E9, 0.0, 2024-02-02 15:15:02.705
202.0, 62727.28743878454, 65281.06364978119, -19790.48040991788, -8807.12375725791, 16846.308630264837, 5652.0632686690415, 23439.15682305775, 5118.01303839839, 41249.54089516889, 46999.214231874255, 37606.4747698873, 50466.97562539287, 23082.71355422897, 27492.623328283233, -9056.636280612503, -2434.1273229273943, -0.098, 0.978, 0.294, 192.0, 0.0, 0.0, 0.0, 0.0, 0.0, 0.0, 0.0, 0.0, 0.0, 1.7068833027121775E9, 0.0, 2024-02-02 15:15:02.712
204.0, 62743.984191892654, 65295.4134697215, -19776.868197544598, -8794.092690240466, 16861.23959556098, 5664.580245564013, 23455.02656162102, 5131.133512393655, 41249.36208121325, 46993.87216494944, 37612.7779618237, 50469.74724170533, 23089.441429310016, 27497.831284741318, -9048.07556248612, -2428.494683324657, -0.098, 0.978, 0.294, 192.0, 0.0, 0.0, 0.0, 0.0, 0.0, 0.0, 0.0, 0.0, 0.0, 1.7068833027215176E9, 0.0, 2024-02-02 15:15:02.721
206.0, 62732.4059882648, 65285.69046088344, -19786.367688938106, -8804.665065367826, 16853.036505345885, 5658.232350138706, 23443.761282415544, 5123.176291367566, 41251.21727600304, 47003.52811855413, 37612.24151995677, 50470.663663228, 23096.169304391064, 27495.976089951528, -9042.97936475031, -2424.426665833791, -0.098, 0.978, 0.294, 192.0, 0.0, 0.0, 0.0, 0.0, 0.0, 0.0, 0.0, 0.0, 0.0, 1.7068833027292104E9, 0.0, 2024-02-02 15:15:02.729
208.0, 62743.984191892654, 65299.63794942355, -19777.38228766707, -8792.908047784334, 16865.24055781848, 5670.995196222687, 23455.473596510124, 5134.128646150666, 41241.49426716498, 46992.32989458202, 37606.38536290948, 50461.92413114597, 23086.267481597362, 27499.462962086556, -9050.333088676107, -2427.8241309909977, -0.098, 0.978, 0.294, 192.0, 0.0, 0.0, 0.0, 0.0, 0.0, 0.0, 0.0, 0.0, 0.0, 1.706883302736226E9, 0.0, 2024-02-02 15:15:02.736
210.0, 62737.479834256155, 65292.194818519936, -19782.031450513776, -8805.26856246812, 16858.44562750407, 5660.3334141175055, 23451.204413319163, 5127.713695491993, 41249.943226569085, 46997.895478951395, 37615.79544732517, 50472.65296848452, 23101.779592249346, 27509.230674413524, -9041.302983916163, -2417.1176453969056, -0.1, 0.976, 0.3, 192.0, 126.0, 112.0, 15.0, 64.0, 4.5, 48.0, 0.0, 0.0, 0.0, 1.7068833027457545E9, 0.0, 2024-02-02 15:15:02.745
212.0, 62735.28936329954, 65284.77403936077, -19782.992575525353, -8812.152899760355, 16858.87031064872, 5652.398544835872, 23448.097520839874, 5122.0140006558895, 41236.86745606273, 46991.882859692916, 37603.59139485257, 50462.19235207944, 23094.269406112362, 27495.39494459569, -9050.534254376204, -2429.947546714252, -0.1, 0.976, 0.3, 192.0, 0.0, 0.0, 0.0, 0.0, 0.0, 0.0, 0.0, 0.0, 0.0, 1.706883302753677E9, 0.0, 2024-02-02 15:15:02.753
214.0, 62735.82580516647, 65284.706984127406, -19778.119895234096, -8804.799175834558, 16865.128799096205, 5661.138076917896, 23458.155805844763, 5131.781712982859, 41236.06279326234, 46983.36684505545, 37609.04522049966, 50462.41586952399, 23094.269406112362, 27491.595148038286, -9045.259242684751, -2426.5053780681346, -0.1, 0.976, 0.3, 192.0, 0.0, 0.0, 0.0, 0.0, 0.0, 0.0, 0.0, 0.0, 0.0, 1.706883302760271E9, 0.0, 2024-02-02 15:15:02.760
216.0, 62727.913287629286, 65276.727411356864, -19783.57372088119, -8811.571754404516, 16857.43979900358, 5653.136152402896, 23448.49985224007, 5124.360933823697, 41235.325185695314, 46996.39791207289, 37608.9781652663, 50464.42752652497, 23099.320900359264, 27497.45130508558, -9043.716972317336, -2422.9067472108304, -0.1, 0.976, 0.3, 192.0, 0.0, 0.0, 0.0, 0.0, 0.0, 0.0, 0.0, 0.0, 0.0, 1.7068833027682455E9, 0.0, 2024-02-02 15:15:02.768
218.0, 62736.02697086656, 65286.11514402809, -19778.522226634293, -8803.234553722687, 16860.09965659376, 5667.351861876472, 23454.914802898744, 5132.765189738892, 41227.32326118032, 46986.63019974592, 37608.84405479956, 50460.87359915658, 23096.683394513537, 27494.187950395102, -9045.952146762866, -2426.9300612127854, -0.1, 0.976, 0.3, 192.0, 0.0, 0.0, 0.0, 0.0, 0.0, 0.0, 0.0, 0.0, 0.0, 1.7068833027775981E9, 0.0, 2024-02-02 15:15:02.777
220.0, 62732.31658128698, 65282.40475444851, -19783.14903773654, -8805.715597357226, 16849.39317099967, 5657.695908271779, 23441.056721336452, 5124.96443092399, 41223.27759543391, 46986.138461367904, 37608.28526118818, 50462.37116603508, 23092.01187992238, 27485.604880524264, -9047.762638063747, -2424.2031483892383, -0.092, 0.976, 0.302, 192.0, 126.5, 16.0, 15.0, 64.0, 4.5, 56.0, 0.0, 0.0, 0.0, 1.7068833027852616E9, 0.0, 2024-02-02 15:15:02.785
222.0, 62731.17664231976, 65281.9577195594, -19784.40073542604, -8802.966332789223, 16849.14730181066, 5658.098239671975, 23439.514450969036, 5122.997477411924, 41223.188188456086, 46998.20840337377, 37606.92180477641, 50466.2603695703, 23093.8000194788, 27497.11602891875, -9050.668364842935, -2419.531633798079, -0.092, 0.976, 0.302, 192.0, 0.0, 0.0, 0.0, 0.0, 0.0, 0.0, 0.0, 0.0, 0.0, 1.7068833027923136E9, 0.0, 2024-02-02 15:15:02.792
224.0, 62737.2563168116, 65289.42320220747, -19776.75643882232, -8804.419196178818, 16855.71871468052, 5659.707565272756, 23448.745721429077, 5127.423122814074, 41220.39422039917, 46985.40085380088, 37607.9276332769, 50460.58302647866, 23095.543455546314, 27496.512531818455, -9048.813170053145, -2418.86108146442, -0.092, 0.976, 0.302, 192.0, 0.0, 0.0, 0.0, 0.0, 0.0, 0.0, 0.0, 0.0, 0.0, 1.7068833028013277E9, 0.0, 2024-02-02 15:15:02.801
226.0, 62732.584802220445, 65284.95285331641, -19783.216092969906, -8820.043065553078, 16846.375685498202, 5647.056477911053, 23437.703959668157, 5114.883794174647, 41222.00354599995, 46994.743882983195, 37608.59818561056, 50460.784192178755, 23098.71740325897, 27494.3891160952, -9054.870492800534, -2426.8630059794195, -0.092, 0.976, 0.302, 192.0, 0.0, 0.0, 0.0, 0.0, 0.0, 0.0, 0.0, 0.0, 0.0, 1.7068833028093274E9, 0.0, 2024-02-02 15:15:02.809
228.0, 62733.97061037667, 65288.08209754016, -19780.645642357547, -8819.484271941696, 16852.410656501135, 5651.482123313203, 23442.86721263733, 5119.555308765806, 41215.45448487455, 46985.646722989884, 37602.96554600782, 50454.4586484979, 23099.85734222619, 27486.20837762456, -9059.631414369514, -2440.9669567307183, -0.092, 0.976, 0.302, 192.0, 0.0, 0.0, 0.0, 0.0, 0.0, 0.0, 0.0, 0.0, 0.0, 1.706883302816543E9, 0.0, 2024-02-02 15:15:02.816
230.0, 62729.857889396895, 65283.32117597118, -19783.39490692555, -8826.078036556011, 16848.275583776904, 5648.039954667086, 23427.980950830097, 5111.396922039619, 41216.68383081959, 46987.63602824641, 37604.41840939742, 50457.69965144392, 23102.91953121657, 27485.873101457728, -9055.585748623103, -2439.335279385481, -0.09, 0.98, 0.296, 192.0, 126.5, 24.0, 15.0, 80.0, 4.5, 32.0, 0.0, 0.0, 0.0, 1.706883302824365E9, 0.0, 2024-02-02 15:15:02.824
232.0, 62722.7053311712, 65278.5602544022, -19784.8701220596, -8827.486196456695, 16851.203662300548, 5639.680402240801, 23444.230669049106, 5113.989724396435, 41210.33593539428, 46988.507746280164, 37599.5233773617, 50452.737564174844, 23099.298548614806, 27482.140360133693, -9058.51382714675, -2445.616119577422, -0.09, 0.98, 0.296, 192.0, 0.0, 0.0, 0.0, 0.0, 0.0, 0.0, 0.0, 0.0, 0.0, 1.7068833028333862E9, 0.0, 2024-02-02 15:15:02.833
234.0, 62729.008523107594, 65282.02477479277, -19774.275395187786, -8814.969219561723, 16859.943194382573, 5654.432553581304, 23454.31130579845, 5128.20543387001, 41203.98803996897, 46969.665225704346, 37600.39509539546, 50449.69772692892, 23099.030327681343, 27482.363877578246, -9051.808303810156, -2440.0952386969616, -0.09, 0.98, 0.296, 192.0, 0.0, 0.0, 0.0, 0.0, 0.0, 0.0, 0.0, 0.0, 0.0, 1.7068833028417263E9, 0.0, 2024-02-02 15:15:02.841
236.0, 62724.046435838514, 65279.49902766932, -19779.23748245686, -8822.725274887714, 16850.711923922532, 5653.605539036458, 23441.347294014373, 5124.1821198680545, 41204.90446149164, 46982.27160957713, 37601.91501401842, 50453.05048859722, 23099.879693970644, 27483.213243867547, -9050.198978209375, -2437.748305529154, -0.09, 0.98, 0.296, 192.0, 0.0, 0.0, 0.0, 0.0, 0.0, 0.0, 0.0, 0.0, 0.0, 1.706883302848568E9, 0.0, 2024-02-02 15:15:02.848
238.0, 62728.98617136314, 65284.483466682854, -19781.517360391303, -8822.591164420983, 16852.589470456776, 5654.007870436653, 23447.918706884233, 5130.351201337719, 41201.86462424572, 46981.24342933219, 37603.5243396192, 50451.821142652174, 23095.498752057407, 27479.05581939886, -9055.943376534387, -2440.5422735860675, -0.09, 0.98, 0.296, 192.0, 0.0, 0.0, 0.0, 0.0, 0.0, 0.0, 0.0, 0.0, 0.0, 1.706883302857403E9, 0.0, 2024-02-02 15:15:02.857
240.0, 62729.36615101888, 65284.706984127406, -19781.67382260249, -8828.22380402372, 16850.354296011246, 5654.253739625662, 23443.895392882278, 5128.093675147734, 41204.03274345789, 46977.30952230806, 37603.25611868574, 50453.94455837543, 23100.974929448956, 27493.83032248382, -9052.523559632726, -2436.474256095202, -0.098, 0.982, 0.3, 192.0, 126.0, 120.0, 15.0, 88.0, 4.5, 48.0, 0.0, 0.0, 0.0, 1.7068833028653946E9, 0.0, 2024-02-02 15:15:02.865
242.0, 62726.996866106616, 65286.49512368383, -19781.49500864685, -8830.682495913803, 16849.61668844422, 5654.723126259223, 23445.10238708286, 5129.747704237426, 41198.13188292168, 46985.13263286742, 37595.723580804304, 50451.776439163266, 23100.326728859753, 27486.20837762456, -9058.625585869026, -2440.050535208051, -0.098, 0.982, 0.3, 192.0, 0.0, 0.0, 0.0, 0.0, 0.0, 0.0, 0.0, 0.0, 0.0, 1.7068833028726938E9, 0.0, 2024-02-02 15:15:02.872
244.0, 62729.70142718571, 65288.79735336272, -19778.142246978554, -8828.290859257086, 16847.76149365443, 5654.276091370117, 23440.02854109151, 5129.881814704158, 41197.01429569892, 46977.17541184132, 37598.8751767725, 50453.922206630974, 23100.99728119341, 27487.661241014153, -9059.832580069611, -2438.8435410074644, -0.098, 0.982, 0.3, 192.0, 0.0, 0.0, 0.0, 0.0, 0.0, 0.0, 0.0, 0.0, 0.0, 1.7068833028804452E9, 0.0, 2024-02-02 15:15:02.880
246.0, 62723.286476527035, 65282.96354805989, -19782.433781913973, -8832.537690703593, 16848.923784366107, 5648.375230833916, 23448.58925921789, 5127.601936769716, 41198.8247869998, 46989.982961414215, 37599.65748782844, 50455.039793853735, 23102.8524759832, 27488.01886892544, -9056.74803933478, -2436.362497372925, -0.098, 0.982, 0.3, 192.0, 0.0, 0.0, 0.0, 0.0, 0.0, 0.0, 0.0, 0.0, 0.0, 1.7068833028894377E9, 0.0, 2024-02-02 15:15:02.889
248.0, 62724.71698817218, 65283.94702481593, -19778.745744078846, -8834.45994072675, 16847.96265935453, 5652.733821002701, 23443.336599270893, 5125.903204191113, 41191.851042729744, 46981.735167710205, 37596.17061569341, 50449.65302344001, 23100.28202537084, 27477.29003158689, -9060.145504491986, -2442.598634075956, -0.098, 0.982, 0.3, 192.0, 0.0, 0.0, 0.0, 0.0, 0.0, 0.0, 0.0, 0.0, 0.0, 1.7068833028969064E9, 0.0, 2024-02-02 15:15:02.896
250.0, 62726.996866106616, 65287.12097252858, -19770.58735735266, -8831.12953080291, 16855.919880380618, 5650.632757023902, 23451.31617204144, 5130.239442615443, 41189.83938572877, 46979.790565942596, 37597.265851171716, 50449.094229828625, 23104.730022517448, 27476.038333897395, -9057.731516090813, -2442.173950931305, -0.098, 0.978, 0.296, 192.0, 126.0, 120.0, 15.0, 72.0, 4.5, 32.0, 0.0, 0.0, 0.0, 1.706883302904446E9, 0.0, 2024-02-02 15:15:02.904
252.0, 62722.392406748826, 65285.757516116806, -19774.700078332437, -8838.058571584055, 16844.60989768623, 5643.815474965033, 23437.659256179246, 5118.482425031952, 41188.54298455036, 46987.904249179875, 37598.450493627846, 50451.66468044099, 23100.930225960044, 27477.625307753722, -9059.02791726922, -2442.4868753536794, -0.098, 0.978, 0.296, 192.0, 0.0, 0.0, 0.0, 0.0, 0.0, 0.0, 0.0, 0.0, 0.0, 1.7068833029124944E9, 0.0, 2024-02-02 15:15:02.912
254.0, 62724.58287770544, 65290.60784466361, -19767.97220325139, -8835.264603527141, 16855.271679791414, 5649.179893634307, 23448.723369684623, 5127.333715836253, 41184.944353693056, 46978.471813019736, 37600.30568841764, 50448.826008895165, 23105.937016718035, 27472.05972338435, -9057.932681790911, -2447.0689829670173, -0.098, 0.978, 0.296, 192.0, 0.0, 0.0, 0.0, 0.0, 0.0, 0.0, 0.0, 0.0, 0.0, 1.7068833029214628E9, 0.0, 2024-02-02 15:15:02.921
0.0, 62721.74420615962, 65289.378498718565, -19772.53195912027, -8836.918632616835, 16849.19200529957, 5649.112838400941, 23445.080035338407, 5124.673858246071, 41193.66153403062, 46996.8896504509, 37609.22403445531, 50459.577197978164, 23111.9049324876, 27493.83032248382, -9048.097914230575, -2438.2400439071707, -0.098, 0.978, 0.296, 192.0, 0.0, 0.0, 0.0, 0.0, 0.0, 0.0, 0.0, 0.0, 0.0, 1.706883302928799E9, 0.0, 2024-02-02 15:15:02.928
2.0, 62716.62565667935, 65282.71767887088, -19779.25983420132, -8840.763132663147, 16842.33001975179, 5642.452018553259, 23432.16072704324, 5117.431893042552, 41173.187336109564, 46980.50582176517, 37592.370819136006, 50446.94846236092, 23095.364641590673, 27482.229767111516, -9065.308757461162, -2454.065078981528, -0.098, 0.978, 0.296, 192.0, 0.0, 0.0, 0.0, 0.0, 0.0, 0.0, 0.0, 0.0, 0.0, 1.706883302936516E9, 0.0, 2024-02-02 15:15:02.936
4.0, 62725.02991259455, 65291.36780397509, -19773.560139365214, -8835.935155860801, 16850.890737878173, 5649.917501201332, 23443.649523693268, 5129.0548001593115, 41174.506089032424, 46979.54469675359, 37597.53407210518, 50449.92124437347, 23101.980757949445, 27485.76134273545, -9060.950167292378, -2449.10299171245, -0.094, 0.982, 0.3, 192.0, 126.5, 8.0, 15.0, 88.0, 4.5, 48.0, 0.0, 0.0, 0.0, 1.7068833029445248E9, 0.0, 2024-02-02 15:15:02.944
6.0, 62721.118357314874, 65289.53496092975, -19775.638851599557, -8837.432722739306, 16849.795502399862, 5657.181818149307, 23445.281201038506, 5132.742837994438, 41173.254391342925, 46991.63699050391, 37596.59529883806, 50453.74339267533, 23102.67366202756, 27486.275432857925, -9059.497303902783, -2445.213788177227, -0.094, 0.982, 0.3, 192.0, 0.0, 0.0, 0.0, 0.0, 0.0, 0.0, 0.0, 0.0, 0.0, 1.7068833029525244E9, 0.0, 2024-02-02 15:15:02.952
8.0, 62730.975476619664, 65300.64377792404, -19763.367743893596, -8826.927402845313, 16857.484502492487, 5665.563722320047, 23454.557174987458, 5144.946890467035, 41175.60132451073, 46984.57383925603, 37604.55251986415, 50459.91247414499, 23107.456935340993, 27479.838130454795, -9054.289347444696, -2440.654032308344, -0.094, 0.982, 0.3, 192.0, 0.0, 0.0, 0.0, 0.0, 0.0, 0.0, 0.0, 0.0, 0.0, 1.7068833029605088E9, 0.0, 2024-02-02 15:15:02.960
10.0, 62721.8559648819, 65291.45721095291, -19766.452284628427, -8837.902109372868, 16851.67304893411, 5650.342184345983, 23450.86913715233, 5133.279279861365, 41174.55079252134, 46992.82163296004, 37607.41354315443, 50461.43239276796, 23109.870923742168, 27493.137418405702, -9049.46137064235, -2434.596709560956, -0.094, 0.982, 0.3, 192.0, 0.0, 0.0, 0.0, 0.0, 0.0, 0.0, 0.0, 0.0, 0.0, 1.7068833029685776E9, 0.0, 2024-02-02 15:15:02.968
12.0, 62730.88606964184, 65298.85563836761, -19763.703020060424, -8838.349144261974, 16850.689572178075, 5643.748419731667, 23445.862346394344, 5124.562099523795, 41171.60036225324, 46982.025740388126, 37606.765342565224, 50454.905683387005, 23110.563827820282, 27475.05485714136, -9053.104704988564, -2448.7453638011652, -0.094, 0.982, 0.3, 192.0, 0.0, 0.0, 0.0, 0.0, 0.0, 0.0, 0.0, 0.0, 0.0, 1.7068833029775753E9, 0.0, 2024-02-02 15:15:02.977
14.0, 62733.501223743115, 65305.29294077074, -19763.077171215675, -8835.018734338133, 16846.129816309192, 5642.563777275536, 23436.988703845585, 5120.96346866649, 41173.29909483184, 46984.08210087802, 37611.235691456284, 50461.968834634885, 23112.933112732546, 27480.218110110538, -9054.088181744597, -2447.828942278498, -0.098, 0.976, 0.296, 192.0, 126.0, 120.0, 15.0, 64.0, 4.5, 32.0, 0.0, 0.0, 0.0, 1.706883302984846E9, 0.0, 2024-02-02 15:15:02.984
16.0, 62731.13193883085, 65302.92365585848, -19763.8147787827, -8837.477426228217, 16849.303764021846, 5642.094390641974, 23445.750587672068, 5123.355105323209, 41169.00755989642, 46991.43582480381, 37605.46894138681, 50461.92413114597, 23110.005034208898, 27482.140360133693, -9058.17855097992, -2449.5500266015565, -0.098, 0.976, 0.296, 192.0, 0.0, 0.0, 0.0, 0.0, 0.0, 0.0, 0.0, 0.0, 0.0, 1.7068833029925525E9, 0.0, 2024-02-02 15:15:02.992
18.0, 62733.94825863222, 65303.415394236494, -19760.52907234777, -8836.717466916736, 16854.66818269112, 5643.279033098106, 23449.8856603963, 5126.216128613488, 41168.851097685234, 46981.958685154765, 37611.30274668965, 50464.069898613685, 23120.62211282517, 27482.699153745074, -9047.896748530478, -2444.856160265942, -0.098, 0.976, 0.296, 192.0, 0.0, 0.0, 0.0, 0.0, 0.0, 0.0, 0.0, 0.0, 0.0, 1.7068833030006037E9, 0.0, 2024-02-02 15:15:03.000
20.0, 62734.529403988054, 65305.605865193116, -19760.439665369948, -8839.243214040187, 16857.305688536846, 5644.821303465522, 23450.198584818674, 5127.244308858431, 41169.968684907995, 46986.29492357909, 37608.41937165491, 50460.717136945386, 23122.18673493704, 27478.452322298566, -9049.416667153439, -2445.146732943861, -0.098, 0.976, 0.296, 192.0, 0.0, 0.0, 0.0, 0.0, 0.0, 0.0, 0.0, 0.0, 0.0, 1.706883303008658E9, 0.0, 2024-02-02 15:15:03.008
22.0, 62722.19124104873, 65295.68169065496, -19771.548482364236, -8848.206263566764, 16846.062761075827, 5641.960280175243, 23435.558192200446, 5117.342486064731, 41161.85500167072, 46980.2376008317, 37603.03260124118, 50457.163209577, 23118.81162152429, 27472.86438618474, -9051.093047987586, -2447.560721345034, -0.098, 0.976, 0.296, 192.0, 0.0, 0.0, 0.0, 0.0, 0.0, 0.0, 0.0, 0.0, 0.0, 1.7068833030171587E9, 0.0, 2024-02-02 15:15:03.017
24.0, 62719.553735203, 65290.33962373014, -19775.035354499265, -8857.012850882156, 16841.592412184764, 5639.054553396053, 23434.30649451095, 5114.123834863167, 41145.7617456629, 46966.80420241407, 37589.80036852365, 50444.57917744866, 23104.171228906063, 27471.076246628316, -9064.727612105324, -2461.619968607422, -0.096, 0.976, 0.294, 192.0, 126.5, 8.0, 15.0, 64.0, 4.5, 16.0, 0.0, 0.0, 0.0, 1.7068833030246098E9, 0.0, 2024-02-02 15:15:03.024
26.0, 62724.337008516435, 65297.67099591148, -19770.497950374836, -8856.051725870577, 16842.66529591862, 5643.524902287114, 23432.093671809875, 5116.381361053152, 41151.34968177673, 46982.40572004387, 37596.26002267123, 50451.59762520762, 23115.48121160045, 27472.05972338435, -9058.22325446883, -2452.9027882698524, -0.096, 0.976, 0.294, 192.0, 0.0, 0.0, 0.0, 0.0, 0.0, 0.0, 0.0, 0.0, 0.0, 1.7068833030327172E9, 0.0, 2024-02-02 15:15:03.032
28.0, 62732.96478187619, 65305.20353379292, -19762.943060748945, -8847.088676344, 16845.86159537573, 5646.2518151106615, 23438.195698046173, 5121.857538444703, 41146.87933288566, 46976.79543218559, 37600.35039190655, 50449.98829960684, 23113.13427843264, 27472.260889084446, -9063.69943186038, -2457.7307650721987, -0.096, 0.976, 0.294, 192.0, 0.0, 0.0, 0.0, 0.0, 0.0, 0.0, 0.0, 0.0, 0.0, 1.7068833030407295E9, 0.0, 2024-02-02 15:15:03.040
30.0, 62723.1076625714, 65299.14621104553, -19767.502816617827, -8850.910824645856, 16842.709999407532, 5639.367477818427, 23439.11211956884, 5117.186023853544, 41150.79088816534, 46992.575763771034, 37607.77117106571, 50461.00770962331, 23121.225609925463, 27482.185063622605, -9056.010431767754, -2446.107857955439, -0.096, 0.976, 0.294, 192.0, 0.0, 0.0, 0.0, 0.0, 0.0, 0.0, 0.0, 0.0, 0.0, 1.7068833030487416E9, 0.0, 2024-02-02 15:15:03.048
32.0, 62728.51678472958, 65306.18701054896, -19764.8653107721, -8847.669821699837, 16845.168691297615, 5645.894187199377, 23437.72631141261, 5120.225861099465, 41138.85505662621, 46982.29396132159, 37599.05399072814, 50452.402288008016, 23112.82135401027, 27473.87021468523, -9059.609062625059, -2455.8755702824083, -0.096, 0.976, 0.294, 192.0, 0.0, 0.0, 0.0, 0.0, 0.0, 0.0, 0.0, 0.0, 0.0, 1.7068833030567343E9, 0.0, 2024-02-02 15:15:03.056
34.0, 62734.395293521324, 65311.327911773675, -19759.232671169364, -8839.846711140479, 16845.48161571999, 5649.269300612128, 23436.67577942321, 5121.790483211337, 41140.62084443818, 46984.28326657811, 37602.4738076298, 50462.12529684607, 23119.459822113495, 27482.274470600423, -9056.658632356957, -2454.690927826277, -0.093, 0.978, 0.294, 192.0, 126.5, 24.0, 15.0, 80.0, 4.5, 24.0, 0.0, 0.0, 0.0, 1.706883303064721E9, 0.0, 2024-02-02 15:15:03.064
36.0, 62736.18343307775, 65312.110222829615, -19755.58933682315, -8837.142150061387, 16843.916993608116, 5652.845579724977, 23437.72631141261, 5124.495044290429, 41145.091193329245, 47000.4435778193, 37609.02286875521, 50469.05433762722, 23124.980702993955, 27486.5883572803, -9053.507036388759, -2447.270148667115, -0.093, 0.978, 0.294, 192.0, 0.0, 0.0, 0.0, 0.0, 0.0, 0.0, 0.0, 0.0, 0.0, 1.7068833030730004E9, 0.0, 2024-02-02 15:15:03.073
38.0, 62734.1047208434, 65308.39983325003, -19752.460092599405, -8839.80200765157, 16852.65652569014, 5658.1652949053405, 23448.96923887363, 5129.30066934832, 41140.687899671546, 46997.2919818511, 37614.00730776874, 50468.29437831574, 23126.14299370563, 27485.426066568623, -9048.008507252754, -2443.0680207095174, -0.093, 0.978, 0.294, 192.0, 0.0, 0.0, 0.0, 0.0, 0.0, 0.0, 0.0, 0.0, 0.0, 1.7068833030807824E9, 0.0, 2024-02-02 15:15:03.080
40.0, 62729.50026148561, 65308.28807452775, -19757.57864207967, -8843.0877140865, 16848.364990754722, 5652.420896580326, 23444.96827661613, 5124.584451268251, 41133.557693190305, 46997.06846440655, 37605.13366521998, 50460.67243345648, 23121.516182603384, 27491.93042420512, -9053.238815455295, -2447.0466312225617, -0.093, 0.978, 0.294, 192.0, 0.0, 0.0, 0.0, 0.0, 0.0, 0.0, 0.0, 0.0, 0.0, 1.7068833030888E9, 0.0, 2024-02-02 15:15:03.088
42.0, 62734.46234875469, 65313.18310656347, -19754.851729256123, -8841.813664652547, 16852.254194289948, 5660.780449006611, 23447.40461676176, 5129.010096670401, 41134.384707735146, 46995.81676671705, 37607.882929787986, 50462.17000033498, 23127.14882220612, 27494.411467839658, -9048.142617719486, -2443.29153815407, -0.093, 0.978, 0.294, 192.0, 0.0, 0.0, 0.0, 0.0, 0.0, 0.0, 0.0, 0.0, 0.0, 1.7068833030957608E9, 0.0, 2024-02-02 15:15:03.095
44.0, 62728.15915681829, 65305.00236809282, -19761.512549103805, -8849.949699634279, 16844.140511052672, 5648.062306411542, 23434.82058463342, 5117.990686653935, 41127.03098380935, 46991.41347305936, 37605.67010708691, 50458.83959041114, 23131.19448795253, 27487.99651718098, -9052.344745677085, -2449.840599279475, -0.0915, 0.98, 0.295, 192.0, 126.5, 24.0, 15.0, 88.0, 4.5, 32.0, 0.0, 0.0, 0.0, 1.706883303104754E9, 0.0, 2024-02-02 15:15:03.104
46.0, 62732.026008609064, 65308.84686813914, -19756.43870311245, -8844.22765305372, 16848.90143262165, 5655.751306504168, 23439.5815062024, 5125.1208931351775, 41123.2535389964, 46996.66613300635, 37600.81977854011, 50456.82793341016, 23126.34415940573, 27483.325002589823, -9060.927815547922, -2457.395488905369, -0.0915, 0.98, 0.295, 192.0, 0.0, 0.0, 0.0, 0.0, 0.0, 0.0, 0.0, 0.0, 0.0, 1.7068833031127932E9, 0.0, 2024-02-02 15:15:03.112
48.0, 62731.198994064216, 65304.57768494817, -19757.399828124027, -8844.51822573164, 16849.728447166497, 5652.152675646863, 23440.229706791604, 5126.327887335764, 41126.51689368688, 46989.15594686937, 37607.86057804353, 50461.74531719033, 23131.9097437751, 27488.935290448106, -9052.79178056619, -2450.2652824241263, -0.0915, 0.98, 0.295, 192.0, 0.0, 0.0, 0.0, 0.0, 0.0, 0.0, 0.0, 0.0, 0.0, 1.7068833031198745E9, 0.0, 2024-02-02 15:15:03.119
50.0, 62736.89868890032, 65306.857562882615, -19755.790502523247, -8844.674687942826, 16847.828548887795, 5649.984556434698, 23440.185003302697, 5126.193776869032, 41124.460533196994, 46994.118034138446, 37602.58556635208, 50455.15155257602, 23125.606551838704, 27483.10148514527, -9057.79857132418, -2453.10395396995, -0.0915, 0.98, 0.295, 192.0, 0.0, 0.0, 0.0, 0.0, 0.0, 0.0, 0.0, 0.0, 0.0, 1.7068833031279163E9, 0.0, 2024-02-02 15:15:03.127
52.0, 62739.51384300159, 65309.53977221725, -19759.031505469266, -8844.674687942826, 16843.492310463465, 5651.25860586865, 23437.12281431232, 5125.545576279828, 41125.175789019566, 46990.29588583659, 37599.88100527299, 50451.59762520762, 23127.95348500651, 27477.67001124263, -9065.353460950073, -2458.647186594866, -0.0915, 0.98, 0.295, 192.0, 0.0, 0.0, 0.0, 0.0, 0.0, 0.0, 0.0, 0.0, 0.0, 1.706883303136803E9, 0.0, 2024-02-02 15:15:03.136
54.0, 62734.21647956568, 65309.42801349497, -19759.366781636094, -8846.976917621723, 16841.480653462488, 5651.012736679642, 23435.982875345097, 5127.713695491993, 41135.792867635835, 46997.00140917319, 37602.920842518906, 50456.69382294343, 23125.807717538803, 27492.15394164967, -9063.65472837147, -2455.003852248651, -0.08975, 0.984, 0.2975, 192.0, 126.5, 32.0, 15.0, 112.0, 4.5, 48.0, 0.0, 0.0, 0.0, 1.706883303143854E9, 0.0, 2024-02-02 15:15:03.143
56.0, 62730.304924286, 65307.57281870519, -19760.32790664767, -8855.090600859, 16844.85576687524, 5646.140056388385, 23439.15682305775, 5129.211262370499, 41143.10188807272, 46998.70014175179, 37594.06955171461, 50450.502389729314, 23119.236304668942, 27482.185063622605, -9070.114382519054, -2460.4129744068355, -0.08975, 0.984, 0.2975, 192.0, 0.0, 0.0, 0.0, 0.0, 0.0, 0.0, 0.0, 0.0, 0.0, 1.7068833031518488E9, 0.0, 2024-02-02 15:15:03.151
58.0, 62737.52453774507, 65312.110222829615, -19754.941136233945, -8853.213054324753, 16840.631287173186, 5649.135190145396, 23423.085918794386, 5125.366762324186, 41161.05033887033, 46992.218135859745, 37599.411618639424, 50451.08353508515, 23124.198391938018, 27486.16367413565, -9069.17560925193, -2461.82113430752, -0.08975, 0.984, 0.2975, 192.0, 0.0, 0.0, 0.0, 0.0, 0.0, 0.0, 0.0, 0.0, 0.0, 1.7068833031609948E9, 0.0, 2024-02-02 15:15:03.160
60.0, 62736.45165401121, 65309.74093791735, -19757.44453161294, -8857.593996237993, 16841.167729040113, 5650.655108768357, 23441.615514947836, 5129.658297259605, 41179.53523153487, 47000.689447008306, 37596.550595349145, 50453.13989557504, 23122.343197148228, 27481.603918266766, -9072.818943598146, -2463.2963494415703, -0.08975, 0.984, 0.2975, 192.0, 0.0, 0.0, 0.0, 0.0, 0.0, 0.0, 0.0, 0.0, 0.0, 1.7068833031689153E9, 0.0, 2024-02-02 15:15:03.168
62.0, 62739.62560172386, 65310.45619373992, -19756.729275790367, -8854.8894351589, 16843.961697097027, 5650.900977957365, 23453.238422064594, 5133.838073472747, 41195.33791486477, 47002.343476098, 37600.41744713992, 50458.526665988764, 23114.721252288968, 27479.97224092153, -9062.335975448606, -2453.5286371146008, -0.08975, 0.984, 0.2975, 192.0, 0.0, 0.0, 0.0, 0.0, 0.0, 0.0, 0.0, 0.0, 0.0, 1.7068833031758971E9, 0.0, 2024-02-02 15:15:03.175
64.0, 62733.076540598464, 65304.60003669263, -19766.29582241724, -8868.702813232281, 16833.702246392044, 5639.993326663176, 23435.26761952253, 5120.404675055108, 41206.6255458147, 46997.090816151, 37593.77897903669, 50450.927072873965, 23109.04390919732, 27474.987801907995, -9067.767449351246, -2461.888189540886, -0.095875, 0.983, 0.29874999999999996, 192.0, 126.0, 104.0, 15.0, 88.0, 4.5, 48.0, 0.0, 0.0, 0.0, 1.706883303185136E9, 0.0, 2024-02-02 15:15:03.185
66.0, 62735.02114236607, 65306.54463846024, -19768.53099686277, -8874.42485981284, 16829.47776668999, 5639.702753985257, 23429.97025608662, 5113.989724396435, 41216.01327848593, 46998.76719698515, 37584.90533648793, 50443.79686639272, 23099.946749204013, 27475.792464708386, -9076.484629688815, -2466.850276809964, -0.095875, 0.983, 0.29874999999999996, 192.0, 0.0, 0.0, 0.0, 0.0, 0.0, 0.0, 0.0, 0.0, 0.0, 1.706883303192855E9, 0.0, 2024-02-02 15:15:03.192
68.0, 62750.46619778469, 65321.22973456738, -19752.303630388218, -8860.27620557263, 16837.14441503816, 5649.5375215455915, 23435.49113696708, 5120.091750632733, 41235.23577871749, 46995.5932492725, 37594.471883114806, 50452.82697115267, 23101.62313003816, 27474.227842596512, -9072.282501731217, -2463.2739976971147, -0.095875, 0.983, 0.29874999999999996, 192.0, 0.0, 0.0, 0.0, 0.0, 0.0, 0.0, 0.0, 0.0, 0.0, 1.7068833031999168E9, 0.0, 2024-02-02 15:15:03.199
70.0, 62749.03568613955, 65321.341493289656, -19755.544633334237, -8860.723240461737, 16834.261040003425, 5653.180855891807, 23432.6301136768, 5120.96346866649, 41256.380528972215, 47012.714685525265, 37603.16671170792, 50465.746279447834, 23105.646444040114, 27494.992613195493, -9066.716917361846, -2457.663709838833, -0.095875, 0.983, 0.29874999999999996, 192.0, 0.0, 0.0, 0.0, 0.0, 0.0, 0.0, 0.0, 0.0, 0.0, 1.706883303207906E9, 0.0, 2024-02-02 15:15:03.207
72.0, 62762.42438106828, 65331.57859225018, -19745.28518262925, -8851.89430140189, 16847.09094132077, 5665.608425808958, 23455.540651743493, 5134.3968670841305, 41270.61859019024, 47014.97221171525, 37609.38049666649, 50471.04364288374, 23104.99824345091, 27500.267624886947, -9058.357364935562, -2450.3099859130366, -0.095875, 0.983, 0.29874999999999996, 192.0, 0.0, 0.0, 0.0, 0.0, 0.0, 0.0, 0.0, 0.0, 0.0, 1.70688330321711E9, 0.0, 2024-02-02 15:15:03.217
74.0, 62756.45646529871, 65324.15781309102, -19754.449397855926, -8861.103220117477, 16836.18329002658, 5653.091448913986, 23437.323980012417, 5119.734122721448, 41281.07920659533, 47011.97707795824, 37610.96747052282, 50470.663663228, 23109.46859234197, 27496.557235307366, -9056.077487001121, -2445.526712599601, -0.09893750000000001, 0.9824999999999999, 0.30137499999999995, 192.0, 126.0, 104.0, 15.0, 88.0, 4.5, 64.0, 0.0, 0.0, 0.0, 1.706883303224913E9, 0.0, 2024-02-02 15:15:03.224
76.0, 62749.97445940667, 65318.324007788186, -19758.539767091246, -8865.148885863888, 16832.696417891555, 5645.648318010369, 23431.95956134314, 5114.01207614089, 41279.91691588365, 47015.01691520416, 37598.808121539136, 50461.968834634885, 23095.94578694651, 27489.87406371523, -9067.70039411788, -2455.2273696932043, -0.09893750000000001, 0.9824999999999999, 0.30137499999999995, 192.0, 0.0, 0.0, 0.0, 0.0, 0.0, 0.0, 0.0, 0.0, 0.0, 1.7068833032319727E9, 0.0, 2024-02-02 15:15:03.231
78.0, 62755.04830539803, 65323.24139156836, -19753.644735055535, -8865.059478886065, 16832.31643823581, 5647.97289943372, 23430.014959575532, 5114.168538352077, 41281.347427528795, 47003.5951737875, 37600.52920586219, 50462.54997999072, 23087.65328975359, 27483.325002589823, -9068.46035342936, -2459.8094773065422, -0.09893750000000001, 0.9824999999999999, 0.30137499999999995, 192.0, 0.0, 0.0, 0.0, 0.0, 0.0, 0.0, 0.0, 0.0, 0.0, 1.7068833032401404E9, 0.0, 2024-02-02 15:15:03.240
80.0, 62757.93168043276, 65326.19182183645, -19750.157862920507, -8864.880664930424, 16835.557441181834, 5650.1857221347955, 23429.411462475236, 5116.135491864145, 41294.2443840795, 47017.87793849444, 37608.82170305511, 50472.89883767353, 23101.198446893508, 27493.942081206096, -9060.525484147725, -2452.813381292031, -0.09893750000000001, 0.9824999999999999, 0.30137499999999995, 192.0, 0.0, 0.0, 0.0, 0.0, 0.0, 0.0, 0.0, 0.0, 0.0, 1.706883303249023E9, 0.0, 2024-02-02 15:15:03.249
82.0, 62758.15519787731, 65323.911943902014, -19749.397903609028, -8867.585226009516, 16842.95586859654, 5660.422821095326, 23444.521241727023, 5124.9420791795355, 41296.63602073622, 47013.74286577021, 37606.25125244275, 50466.52859050377, 23097.868036969667, 27491.86336897175, -9061.8889405595, -2459.0271662506066, -0.09893750000000001, 0.9824999999999999, 0.30137499999999995, 192.0, 0.0, 0.0, 0.0, 0.0, 0.0, 0.0, 0.0, 0.0, 0.0, 1.7068833032560313E9, 0.0, 2024-02-02 15:15:03.256
84.0, 62756.67998274326, 65324.202516579935, -19748.593240808637, -8868.635757998914, 16839.200775528047, 5653.717297758734, 23439.44739573567, 5121.946945422524, 41298.22299459255, 47007.73024651173, 37608.06174374363, 50465.679224214466, 23099.18678989253, 27495.417296340143, -9054.155236977964, -2456.1437912158717, -0.09946875000000001, 0.97925, 0.3036875, 192.0, 126.0, 112.0, 15.0, 64.0, 4.5, 72.0, 0.0, 0.0, 0.0, 1.7068833032640657E9, 0.0, 2024-02-02 15:15:03.264
86.0, 62759.362192077904, 65327.71174045942, -19743.139415161542, -8861.438496284307, 16842.039447073872, 5659.1040681724635, 23441.123776569817, 5123.668029745582, 41303.18508186163, 47014.83810124852, 37606.78769430968, 50468.60730273811, 23095.789324735324, 27496.043145184893, -9057.731516090813, -2459.0718697395173, -0.09946875000000001, 0.97925, 0.3036875, 192.0, 0.0, 0.0, 0.0, 0.0, 0.0, 0.0, 0.0, 0.0, 0.0, 1.706883303273018E9, 0.0, 2024-02-02 15:15:03.273
88.0, 62762.916119446294, 65328.60581023763, -19739.853708726612, -8861.572606751039, 16843.514662207923, 5660.959262962254, 23436.340503256382, 5122.326925078264, 41313.75745698899, 47010.94889771329, 37616.44364791437, 50474.39640455203, 23100.304377115295, 27502.01106095446, -9048.902577030967, -2451.8969597693635, -0.09946875000000001, 0.97925, 0.3036875, 192.0, 0.0, 0.0, 0.0, 0.0, 0.0, 0.0, 0.0, 0.0, 0.0, 1.7068833032810695E9, 0.0, 2024-02-02 15:15:03.281
90.0, 62751.3602675629, 65319.06161535521, -19750.515490831793, -8879.47635405974, 16835.71390339302, 5643.122570886919, 23439.894430624776, 5115.531994763851, 41315.880872712245, 47011.038304691116, 37610.051049000154, 50469.0096341383, 23096.48222881344, 27491.52809280492, -9054.714030589346, -2460.815305807031, -0.09946875000000001, 0.97925, 0.3036875, 192.0, 0.0, 0.0, 0.0, 0.0, 0.0, 0.0, 0.0, 0.0, 0.0, 1.7068833032880735E9, 0.0, 2024-02-02 15:15:03.288
92.0, 62753.975421664174, 65324.29192355775, -19742.62532503907, -8874.536618535116, 16842.039447073872, 5651.906806457854, 23440.989666103087, 5118.616535498683, 41312.41635232167, 47003.9975051877, 37603.99372625277, 50460.24775031183, 23084.747562974404, 27483.660278756655, -9059.273786458229, -2470.8288873230085, -0.09946875000000001, 0.97925, 0.3036875, 192.0, 0.0, 0.0, 0.0, 0.0, 0.0, 0.0, 0.0, 0.0, 0.0, 1.7068833032960217E9, 0.0, 2024-02-02 15:15:03.296
94.0, 62746.219366338184, 65315.30652228672, -19743.25117388382, -8881.063327916067, 16837.882022605183, 5643.480198798204, 23433.83710787739, 5113.542689507329, 41319.25598612499, 47002.656400520376, 37608.19585421036, 50466.70740445941, 23094.38116483464, 27486.901281702674, -9052.724725332824, -2465.48682039819, -0.09673437500000001, 0.979625, 0.30384374999999997, 192.0, 126.5, 8.0, 15.0, 80.0, 4.5, 64.0, 0.0, 0.0, 0.0, 1.706883303305326E9, 0.0, 2024-02-02 15:15:03.305
96.0, 62747.60517449441, 65315.395929264545, -19740.0101709378, -8880.102202904487, 16838.15024353865, 5644.933062187799, 23435.938171856185, 5115.308477319298, 41318.83130298034, 47002.857566220475, 37600.9762407513, 50460.717136945386, 23094.33646134573, 27485.180197379614, -9057.709164346357, -2471.1865152342934, -0.09673437500000001, 0.979625, 0.30384374999999997, 192.0, 0.0, 0.0, 0.0, 0.0, 0.0, 0.0, 0.0, 0.0, 0.0, 1.7068833033120823E9, 0.0, 2024-02-02 15:15:03.312
98.0, 62747.38165704986, 65313.87601064158, -19738.66906627048, -8878.023490670144, 16843.537013952377, 5649.671632012324, 23444.655352193757, 5121.745779722426, 41318.116047157775, 46992.03932190411, 37601.512682618224, 50457.140857832535, 23092.19069387802, 27482.565043278344, -9053.864664300045, -2470.8288873230085, -0.09673437500000001, 0.979625, 0.30384374999999997, 192.0, 0.0, 0.0, 0.0, 0.0, 0.0, 0.0, 0.0, 0.0, 0.0, 1.7068833033200955E9, 0.0, 2024-02-02 15:15:03.320
100.0, 62742.576031991965, 65310.23267629537, -19746.872156485577, -8885.75719425168, 16838.217298772015, 5643.435495309293, 23436.988703845585, 5114.704980219005, 41324.46394258308, 47004.48924356571, 37601.55738610714, 50458.88429390005, 23093.218874122966, 27490.946947449083, -9050.735420076302, -2467.364366932436, -0.09673437500000001, 0.979625, 0.30384374999999997, 192.0, 0.0, 0.0, 0.0, 0.0, 0.0, 0.0, 0.0, 0.0, 0.0, 1.7068833033290856E9, 0.0, 2024-02-02 15:15:03.329
102.0, 62752.50020653012, 65319.55335373323, -19740.457205826904, -8879.118726148454, 16847.359162254234, 5654.87958847041, 23447.20345106166, 5126.216128613488, 41325.33566061684, 47008.35609535648, 37600.886833773475, 50459.28662530025, 23089.262615354375, 27485.001383423973, -9051.562434621148, -2468.7725268331205, -0.09673437500000001, 0.979625, 0.30384374999999997, 192.0, 0.0, 0.0, 0.0, 0.0, 0.0, 0.0, 0.0, 0.0, 0.0, 1.7068833033364155E9, 0.0, 2024-02-02 15:15:03.336
104.0, 62747.64987798332, 65316.69233044295, -19748.19090940844, -8891.300426876596, 16834.350446981247, 5641.222672608218, 23429.478517708605, 5112.045122628823, 41331.951776975606, 47007.08204592253, 37601.6244413405, 50458.88429390005, 23088.56971127626, 27483.4367613121, -9054.736382333802, -2472.818192579531, -0.0953671875, 0.9808125, 0.301921875, 192.0, 126.5, 8.0, 15.0, 88.0, 4.5, 48.0, 0.0, 0.0, 0.0, 1.7068833033440979E9, 0.0, 2024-02-02 15:15:03.344
106.0, 62750.980287907165, 65319.03926361076, -19745.307534373707, -8888.19353439731, 16839.625458672697, 5643.301384842562, 23439.559154457947, 5118.34831456522, 41330.09658218582, 47011.75356051369, 37594.82951102609, 50454.03396535325, 23089.53083628784, 27484.554348534864, -9061.821885326133, -2477.3779484484135, -0.0953671875, 0.9808125, 0.301921875, 192.0, 0.0, 0.0, 0.0, 0.0, 0.0, 0.0, 0.0, 0.0, 0.0, 1.7068833033521488E9, 0.0, 2024-02-02 15:15:03.352
108.0, 62753.17075886378, 65321.76617643431, -19738.691418014936, -8880.169258137854, 16843.537013952377, 5651.035088424098, 23441.92843937021, 5124.1597681236, 41331.23652115304, 47000.197708630294, 37596.99763023826, 50454.70451768691, 23087.13919963112, 27482.162711878147, -9058.424420168927, -2475.6345123808997, -0.0953671875, 0.9808125, 0.301921875, 192.0, 0.0, 0.0, 0.0, 0.0, 0.0, 0.0, 0.0, 0.0, 0.0, 1.7068833033611293E9, 0.0, 2024-02-02 15:15:03.361
110.0, 62739.715008701685, 65306.857562882615, -19749.017923953288, -8896.038996701122, 16832.785824869374, 5637.646393495369, 23429.92555259771, 5110.905183661603, 41338.14321018973, 47011.99942970269, 37599.88100527299, 50458.973700877876, 23087.586234520226, 27487.303613102868, -9053.84231255559, -2468.370195432925, -0.0953671875, 0.9808125, 0.301921875, 192.0, 0.0, 0.0, 0.0, 0.0, 0.0, 0.0, 0.0, 0.0, 0.0, 1.7068833033681543E9, 0.0, 2024-02-02 15:15:03.368
112.0, 62747.29225007204, 65311.618484451596, -19740.680723271456, -8890.115784420464, 16841.480653462488, 5646.0730011550195, 23443.49306148208, 5121.477558788963, 41325.08979142783, 46990.96643817025, 37590.2250516683, 50443.372183248066, 23074.75633320288, 27471.34446756178, -9060.480780658816, -2476.796803092576, -0.0953671875, 0.9808125, 0.301921875, 192.0, 0.0, 0.0, 0.0, 0.0, 0.0, 0.0, 0.0, 0.0, 0.0, 1.7068833033763063E9, 0.0, 2024-02-02 15:15:03.376
114.0, 62752.67902048577, 65315.64179845355, -19737.640886025536, -8889.177011153342, 16841.99474358496, 5650.923329701821, 23442.82250914842, 5122.9527739230125, 41345.04989922642, 47001.76233074216, 37608.5758338661, 50461.00770962331, 23092.034231666832, 27482.542691533887, -9045.639222340491, -2461.10587848495, -0.10068359375, 0.9784062499999999, 0.29796093749999997, 192.0, 126.0, 88.0, 15.0, 64.0, 4.5, 24.0, 0.0, 0.0, 0.0, 1.706883303384173E9, 0.0, 2024-02-02 15:15:03.384
116.0, 62744.31946805948, 65307.93044661647, -19746.894508230034, -8899.056482202588, 16832.696417891555, 5645.447152310271, 23430.39493923127, 5111.642791228627, 41333.695213043124, 47003.1928423873, 37597.55642384964, 50455.687994442946, 23079.22668209394, 27489.337621848303, -9058.60323412457, -2469.599541377967, -0.10068359375, 0.9784062499999999, 0.29796093749999997, 192.0, 0.0, 0.0, 0.0, 0.0, 0.0, 0.0, 0.0, 0.0, 0.0, 1.7068833033922057E9, 0.0, 2024-02-02 15:15:03.392
118.0, 62752.008468152104, 65315.597094964636, -19738.467900570384, -8894.183801911331, 16842.5758889408, 5654.991347192687, 23438.59802944637, 5122.975125667468, 41326.788524006435, 46995.34738008349, 37595.12008370401, 50451.977604863365, 23074.08578086922, 27483.794389223385, -9059.162027735953, -2471.521791401123, -0.10068359375, 0.9784062499999999, 0.29796093749999997, 192.0, 0.0, 0.0, 0.0, 0.0, 0.0, 0.0, 0.0, 0.0, 0.0, 1.7068833034001932E9, 0.0, 2024-02-02 15:15:03.400
120.0, 62745.57116574898, 65314.747728675335, -19740.971295949377, -8900.107014191988, 16834.395150470158, 5648.352879089461, 23430.014959575532, 5110.882831917147, 41324.88862572773, 47008.04317093411, 37596.707057560336, 50458.124334588574, 23076.924452415045, 27482.85561595626, -9053.641146855492, -2467.6325878658995, -0.10068359375, 0.9784062499999999, 0.29796093749999997, 192.0, 0.0, 0.0, 0.0, 0.0, 0.0, 0.0, 0.0, 0.0, 0.0, 1.706883303408396E9, 0.0, 2024-02-02 15:15:03.408
122.0, 62756.90350018782, 65323.75548169082, -19735.204545879908, -8893.267380388663, 16839.424292972602, 5651.638585524391, 23434.574715444414, 5116.7836924533485, 41324.08396292734, 47009.138406412414, 37602.0267727407, 50459.666604955986, 23079.830179194236, 27485.895453202185, -9058.111495746552, -2472.01352977914, -0.10068359375, 0.9784062499999999, 0.29796093749999997, 192.0, 0.0, 0.0, 0.0, 0.0, 0.0, 0.0, 0.0, 0.0, 0.0, 1.706883303417217E9, 0.0, 2024-02-02 15:15:03.417
124.0, 62756.67998274326, 65318.27930429928, -19734.064606912685, -8894.183801911331, 16838.48551970548, 5649.582225034503, 23430.082014808897, 5116.604878497706, 41327.39202110672, 47006.36679009996, 37608.15115072145, 50460.09128810064, 23081.841836195214, 27489.67289801513, -9055.026955011721, -2469.1301547444054, -0.10068359375, 0.9784062499999999, 0.29796093749999997, 192.0, 0.0, 0.0, 0.0, 0.0, 0.0, 0.0, 0.0, 0.0, 0.0, 1.706883303423241E9, 0.0, 2024-02-02 15:15:03.423
126.0, 62755.5623955205, 65317.005254865326, -19733.505813301304, -8897.134232179431, 16840.743045895462, 5649.269300612128, 23432.20543053215, 5115.5543465083065, 41324.10631467179, 47008.28904012311, 37603.56904310812, 50454.16807581998, 23080.612490250172, 27484.666107257144, -9063.006527782265, -2473.980483291207, -0.1, 0.97, 0.294, 192.0, 126.0, 112.0, 15.0, 40.0, 4.5, 24.0, 0.0, 0.0, 0.0, 1.7068833034323585E9, 0.0, 2024-02-02 15:15:03.432
128.0, 62766.55945379251, 65328.58345849317, -19723.29106608523, -8889.266418131163, 16851.04720008936, 5658.031184438609, 23440.609686447347, 5124.606803012705, 41328.1519804182, 47001.11413015296, 37610.83336005609, 50456.78322992125, 23086.490999041915, 27485.895453202185, -9054.423457911427, -2468.1243262439166, -0.1, 0.97, 0.294, 192.0, 0.0, 0.0, 0.0, 0.0, 0.0, 0.0, 0.0, 0.0, 0.0, 1.706883303440261E9, 0.0, 2024-02-02 15:15:03.440
130.0, 62758.378715321865, 65322.28026655678, -19732.321170845174, -8898.765909524669, 16841.01126682893, 5648.64345176738, 23427.757433385545, 5115.531994763851, 41334.410468865695, 47007.3949703449, 37612.46503740133, 50462.952311390916, 23083.38410656263, 27498.01009869696, -9050.69071658739, -2465.464468653735, -0.1, 0.97, 0.294, 192.0, 0.0, 0.0, 0.0, 0.0, 0.0, 0.0, 0.0, 0.0, 0.0, 1.7068833034485152E9, 0.0, 2024-02-02 15:15:03.448
132.0, 62756.769389721085, 65320.87210665609, -19730.622438266568, -8896.62014205696, 16832.71876963601, 5650.54335004608, 23415.48632567958, 5111.307515061798, 41322.54169255992, 46996.219098117246, 37599.635136083976, 50452.13406707455, 23074.912795414068, 27483.995554923484, -9063.610024882559, -2476.796803092576, -0.1, 0.97, 0.294, 192.0, 0.0, 0.0, 0.0, 0.0, 0.0, 0.0, 0.0, 0.0, 0.0, 1.7068833034562948E9, 0.0, 2024-02-02 15:15:03.456
134.0, 62752.94724141923, 65319.64276071105, -19730.08599639964, -8900.24112465872, 16834.99864757045, 5643.703716242757, 23422.415366460726, 5112.223936584465, 41317.6019570353, 46991.68169399282, 37601.06564772912, 50454.12337233107, 23080.612490250172, 27485.135493890702, -9067.432173184416, -2477.690872870788, -0.1, 0.97, 0.294, 192.0, 0.0, 0.0, 0.0, 0.0, 0.0, 0.0, 0.0, 0.0, 0.0, 1.7068833034645867E9, 0.0, 2024-02-02 15:15:03.464
136.0, 62759.87628220038, 65323.53196424627, -19723.447528296416, -8898.452985102294, 16845.213394786526, 5651.504475057659, 23448.03046560651, 5124.986782668446, 41321.401753592705, 47006.36679009996, 37603.34552566356, 50461.45474451241, 23081.66302223957, 27486.118970646738, -9054.60227186707, -2473.0640617685394, -0.10200000000000001, 0.974, 0.296, 192.0, 126.0, 104.0, 15.0, 56.0, 4.5, 32.0, 0.0, 0.0, 0.0, 1.7068833034723153E9, 0.0, 2024-02-02 15:15:03.472
138.0, 62760.14450313384, 65320.82740316718, -19723.93926667443, -8903.593886327015, 16843.492310463465, 5651.2362541241955, 23430.841974120376, 5117.63305874265, 41324.061611182886, 47004.19867088779, 37607.99468851026, 50463.60051198012, 23082.467685039963, 27488.756476492465, -9052.255338699262, -2472.2817507126038, -0.10200000000000001, 0.974, 0.296, 192.0, 0.0, 0.0, 0.0, 0.0, 0.0, 0.0, 0.0, 0.0, 0.0, 1.7068833034793625E9, 0.0, 2024-02-02 15:15:03.479
140.0, 62757.261128099104, 65319.46394675541, -19719.290103827727, -8903.459775860283, 16847.850900632253, 5652.8232279805225, 23437.838070134887, 5122.036352400345, 41325.53682631694, 47000.890612708405, 37602.18323495188, 50460.20304682291, 23082.646498995604, 27488.711773003553, -9058.402068424472, -2479.2778467271146, -0.10200000000000001, 0.974, 0.296, 192.0, 0.0, 0.0, 0.0, 0.0, 0.0, 0.0, 0.0, 0.0, 0.0, 1.7068833034884844E9, 0.0, 2024-02-02 15:15:03.488
142.0, 62746.10760761591, 65309.91975187299, -19730.220106866374, -8914.210964943286, 16836.652676660142, 5642.049687153064, 23423.935285083688, 5110.994590639423, 41321.22293963706, 46998.07429290704, 37599.90335701744, 50457.85611365511, 23080.992469905912, 27489.963470693052, -9054.289347444696, -2479.8589920829527, -0.10200000000000001, 0.974, 0.296, 192.0, 0.0, 0.0, 0.0, 0.0, 0.0, 0.0, 0.0, 0.0, 0.0, 1.7068833034964015E9, 0.0, 2024-02-02 15:15:03.496
144.0, 62759.295136844536, 65324.046054368744, -19717.077281126654, -8897.04482520161, 16851.024848344907, 5655.997175693175, 23445.72823592761, 5128.428951314563, 41319.34539310281, 46992.32989458202, 37599.47867387279, 50456.22443630987, 23074.979850647433, 27488.220034625538, -9059.22908296932, -2483.1223467734276, -0.10200000000000001, 0.974, 0.296, 192.0, 0.0, 0.0, 0.0, 0.0, 0.0, 0.0, 0.0, 0.0, 0.0, 1.7068833035043569E9, 0.0, 2024-02-02 15:15:03.504
146.0, 62755.316526331495, 65317.698158943436, -19724.0063219078, -8904.152679938397, 16844.922822108605, 5650.141018645885, 23439.5815062024, 5122.528090778362, 41323.72633501606, 47005.80799648858, 37605.15601696444, 50463.53345674676, 23084.702859485493, 27490.455209071068, -9047.919100274934, -2472.1252885014164, -0.10200000000000001, 0.98, 0.294, 192.0, 126.0, 104.0, 15.0, 80.0, 4.5, 24.0, 0.0, 0.0, 0.0, 1.7068833035113778E9, 0.0, 2024-02-02 15:15:03.511
148.0, 62760.79270372304, 65322.83906016816, -19713.65746422499, -8897.849488002, 16850.80133090035, 5656.041879182087, 23444.610648704846, 5128.272489103376, 41319.63596578073, 46991.56993527054, 37608.19585421036, 50462.57233173518, 23081.215987350464, 27485.806046224363, -9051.74124857679, -2476.2603612256485, -0.10200000000000001, 0.98, 0.294, 192.0, 0.0, 0.0, 0.0, 0.0, 0.0, 0.0, 0.0, 0.0, 0.0, 1.7068833035203981E9, 0.0, 2024-02-02 15:15:03.520
150.0, 62752.723723974676, 65314.65832169752, -19717.166688104473, -8907.281924162142, 16845.369856997713, 5649.179893634307, 23435.088805566884, 5119.331791321253, 41330.16363741918, 47005.6962377663, 37615.370764180516, 50470.641311483545, 23091.408382822083, 27496.132552162715, -9044.521635117726, -2468.8619338109415, -0.10200000000000001, 0.98, 0.294, 192.0, 0.0, 0.0, 0.0, 0.0, 0.0, 0.0, 0.0, 0.0, 0.0, 1.7068833035284743E9, 0.0, 2024-02-02 15:15:03.528
152.0, 62758.93750893325, 65318.79339442175, -19711.779917690747, -8906.991351484223, 16854.846996646764, 5652.599710535969, 23445.147090571772, 5125.009134412901, 41319.45715182509, 46996.33085683952, 37607.882929787986, 50459.75601193381, 23082.57944376224, 27482.118008389236, -9050.64601309848, -2479.724881616221, -0.10200000000000001, 0.98, 0.294, 192.0, 0.0, 0.0, 0.0, 0.0, 0.0, 0.0, 0.0, 0.0, 0.0, 1.7068833035354116E9, 0.0, 2024-02-02 15:15:03.535
154.0, 62758.15519787731, 65322.01204562331, -19712.919856657965, -8911.126424208454, 16854.3776100132, 5651.862102968944, 23440.54263121398, 5124.785616968348, 41327.83905599583, 47001.6952755088, 37619.707002604846, 50470.216628338894, 23090.916644444067, 27484.934328190608, -9038.956050748355, -2469.621893122422, -0.10200000000000001, 0.98, 0.294, 192.0, 0.0, 0.0, 0.0, 0.0, 0.0, 0.0, 0.0, 0.0, 0.0, 1.7068833035444205E9, 0.0, 2024-02-02 15:15:03.544
156.0, 62756.38941006535, 65319.866278155605, -19718.485441027336, -8912.691046320326, 16847.739141909977, 5644.530730787603, 23432.54070669898, 5115.330829063753, 41318.540730302426, 47002.365827842455, 37608.508778632735, 50460.13599158955, 23083.115885629166, 27491.952775949572, -9049.573129364626, -2476.595637392478, -0.1, 0.972, 0.3, 192.0, 126.0, 112.0, 15.0, 48.0, 4.5, 48.0, 0.0, 0.0, 0.0, 1.7068833035525713E9, 0.0, 2024-02-02 15:15:03.552
158.0, 62763.45256131322, 65324.73895844686, -19713.635112480537, -8908.690084062826, 16850.42135124461, 5645.938890688288, 23433.479479966103, 5117.63305874265, 41317.24432912401, 46994.16273762736, 37612.12976123449, 50458.57136947768, 23091.274272355353, 27487.77299973643, -9052.478856143816, -2481.848297339475, -0.1, 0.972, 0.3, 192.0, 0.0, 0.0, 0.0, 0.0, 0.0, 0.0, 0.0, 0.0, 0.0, 1.7068833035594535E9, 0.0, 2024-02-02 15:15:03.559
160.0, 62758.84810195543, 65319.2180775664, -19714.08214736964, -8915.373255654962, 16848.454397732545, 5643.189626120285, 23433.345369499373, 5115.196718597022, 41318.49602681351, 47002.656400520376, 37615.54957813616, 50462.393517779536, 23094.38116483464, 27487.951813692074, -9046.26507118524, -2473.0640617685394, -0.1, 0.972, 0.3, 192.0, 0.0, 0.0, 0.0, 0.0, 0.0, 0.0, 0.0, 0.0, 0.0, 1.7068833035674796E9, 0.0, 2024-02-02 15:15:03.567
162.0, 62766.7159160037, 65328.91873466, -19702.28042629724, -8907.684255562337, 16863.38536302869, 5652.107972157953, 23445.147090571772, 5121.969297166979, 41311.522282543454, 46992.642819004395, 37615.638985113976, 50460.47126775638, 23089.061449654277, 27481.402752566668, -9045.16983570693, -2478.3390734599916, -0.1, 0.972, 0.3, 192.0, 0.0, 0.0, 0.0, 0.0, 0.0, 0.0, 0.0, 0.0, 0.0, 1.7068833035764675E9, 0.0, 2024-02-02 15:15:03.576
164.0, 62751.31556407399, 65323.219039823896, -19708.94124614492, -8914.389778898929, 16855.875176891706, 5647.659975011346, 23438.441567235182, 5115.688456975038, 41313.8021604779, 46997.80607197357, 37624.69144161838, 50472.317692317694, 23098.471534069962, 27484.397886323677, -9035.558585591149, -2469.621893122422, -0.1, 0.972, 0.3, 192.0, 0.0, 0.0, 0.0, 0.0, 0.0, 0.0, 0.0, 0.0, 0.0, 1.7068833035836885E9, 0.0, 2024-02-02 15:15:03.583
166.0, 62765.48657005866, 65337.39004580856, -19700.80521116319, -8904.733825294235, 16862.558348483843, 5658.075887927519, 23447.44932025067, 5125.791445468837, 41307.18604411913, 47002.76815924265, 37620.44461017187, 50470.8648289281, 23094.604682279194, 27487.974165436528, -9036.653821069458, -2468.951340788763, -0.096, 0.972, 0.302, 192.0, 126.5, 0.0, 15.0, 48.0, 4.5, 56.0, 0.0, 0.0, 0.0, 1.706883303591488E9, 0.0, 2024-02-02 15:15:03.591
168.0, 62760.70329674522, 65332.092682372655, -19706.66136821048, -8909.986485241234, 16850.82368264481, 5655.259568126151, 23434.708825911144, 5118.370666309675, 41304.70500048459, 46998.56603128505, 37624.26675847373, 50475.69280573044, 23092.838894467222, 27495.57375855133, -9038.55371934816, -2463.8998465418636, -0.096, 0.972, 0.302, 192.0, 0.0, 0.0, 0.0, 0.0, 0.0, 0.0, 0.0, 0.0, 0.0, 1.7068833036005044E9, 0.0, 2024-02-02 15:15:03.600
170.0, 62746.59934599392, 65324.58249623567, -19708.605969978093, -8915.9544010108, 16847.917955865618, 5650.275129112617, 23435.02175033352, 5116.627230242161, 41297.999477148, 47005.62918253293, 37615.61663336952, 50469.25550332732, 23093.755315989893, 27489.114104403747, -9045.482760129305, -2469.308968700048, -0.096, 0.972, 0.302, 192.0, 0.0, 0.0, 0.0, 0.0, 0.0, 0.0, 0.0, 0.0, 0.0, 1.7068833036087263E9, 0.0, 2024-02-02 15:15:03.608
172.0, 62743.24658432563, 65321.20738282292, -19713.18807759143, -8920.33534292404, 16844.945173853062, 5652.3538413469605, 23433.926514855208, 5117.923631420569, 41289.97520088854, 47002.87991796493, 37609.6263658555, 50465.14278234754, 23092.078935155743, 27492.891549216696, -9046.443885140883, -2471.9911780346847, -0.096, 0.972, 0.302, 192.0, 0.0, 0.0, 0.0, 0.0, 0.0, 0.0, 0.0, 0.0, 0.0, 1.70688330361551E9, 0.0, 2024-02-02 15:15:03.615
174.0, 62746.576994249466, 65323.33079854617, -19711.779917690747, -8922.257592947197, 16848.610859943732, 5657.114762915941, 23433.479479966103, 5119.264736087887, 41279.514584483455, 46996.86729870645, 37602.83143554109, 50459.42073576698, 23082.020650150855, 27488.667069514642, -9050.243681698284, -2478.3837769489023, -0.096, 0.972, 0.302, 192.0, 0.0, 0.0, 0.0, 0.0, 0.0, 0.0, 0.0, 0.0, 0.0, 1.706883303623546E9, 0.0, 2024-02-02 15:15:03.623
176.0, 62744.16300584829, 65318.77104267729, -19716.362025304083, -8930.728904095758, 16843.961697097027, 5651.370364590927, 23431.691340409678, 5115.77786395286, 41280.855689150776, 47004.73511275472, 37601.78090355169, 50461.00770962331, 23085.66398449707, 27483.414409567646, -9050.98128926531, -2479.9707508052293, -0.10200000000000001, 0.974, 0.302, 192.0, 126.0, 104.0, 15.0, 56.0, 4.5, 56.0, 0.0, 0.0, 0.0, 1.7068833036326613E9, 0.0, 2024-02-02 15:15:03.632
178.0, 62752.030819896565, 65327.2200020814, -19705.163801331975, -8920.067121990576, 16853.86351989073, 5661.383946106905, 23438.486270724094, 5124.450340801518, 41275.64773269269, 46994.743882983195, 37605.40188615345, 50464.494581758336, 23092.883597956134, 27486.96833693604, -9049.751943320269, -2475.9921402921846, -0.10200000000000001, 0.974, 0.302, 192.0, 0.0, 0.0, 0.0, 0.0, 0.0, 0.0, 0.0, 0.0, 0.0, 1.706883303639558E9, 0.0, 2024-02-02 15:15:03.639
180.0, 62744.252412826114, 65319.26278105531, -19711.13171710154, -8927.443197660828, 16846.442740731567, 5651.012736679642, 23433.59123868838, 5119.264736087887, 41269.88098262322, 46998.87895570743, 37601.08799947357, 50465.65687247001, 23088.23443510943, 27491.550444549375, -9051.204806709864, -2473.622855379922, -0.10200000000000001, 0.974, 0.302, 192.0, 0.0, 0.0, 0.0, 0.0, 0.0, 0.0, 0.0, 0.0, 0.0, 1.7068833036477923E9, 0.0, 2024-02-02 15:15:03.647
182.0, 62752.99194490814, 65330.908039916525, -19705.387318776528, -8913.428653887351, 16851.80715940084, 5660.467524584237, 23437.838070134887, 5127.1101983917, 41270.75270065698, 47007.05969417807, 37606.18419720938, 50473.770555707284, 23091.967176433467, 27492.042182927395, -9047.472065385828, -2468.9289890443074, -0.10200000000000001, 0.974, 0.302, 192.0, 0.0, 0.0, 0.0, 0.0, 0.0, 0.0, 0.0, 0.0, 0.0, 1.706883303655602E9, 0.0, 2024-02-02 15:15:03.655
184.0, 62751.62848849637, 65332.94204866196, -19705.61083622108, -8916.803767300102, 16849.57198495531, 5658.657033283357, 23437.815718390433, 5124.226823356966, 41267.86932562224, 47005.83034823303, 37607.36883966551, 50474.552866763224, 23094.112943901175, 27499.90999697566, -9048.254376441762, -2470.560666389545, -0.10200000000000001, 0.974, 0.302, 192.0, 0.0, 0.0, 0.0, 0.0, 0.0, 0.0, 0.0, 0.0, 0.0, 1.7068833036646087E9, 0.0, 2024-02-02 15:15:03.664
186.0, 62745.57116574898, 65331.06450212771, -19711.981083390845, -8924.649229603914, 16842.598240685253, 5651.526826802115, 23431.758395643046, 5118.0800936317555, 41261.275561007926, 47010.904194224386, 37599.5233773617, 50467.065032370694, 23086.312185086274, 27491.997479438483, -9053.015298010743, -2478.6967013712765, -0.10400000000000001, 0.974, 0.3, 192.0, 126.0, 96.0, 15.0, 56.0, 4.5, 48.0, 0.0, 0.0, 0.0, 1.7068833036716185E9, 0.0, 2024-02-02 15:15:03.671
188.0, 62754.333049575456, 65340.18401386548, -19703.152144330998, -8917.340209167029, 16850.600165200256, 5662.16625716284, 23437.659256179246, 5128.563061781295, 41256.44758420558, 47002.365827842455, 37601.08799947357, 50468.29437831574, 23080.545435016804, 27495.14907540668, -9054.714030589346, -2481.2895037280923, -0.10400000000000001, 0.974, 0.3, 192.0, 0.0, 0.0, 0.0, 0.0, 0.0, 0.0, 0.0, 0.0, 0.0, 1.706883303679628E9, 0.0, 2024-02-02 15:15:03.679
190.0, 62743.67126747028, 65328.672865470995, -19710.863496168076, -8933.254651219208, 16842.3747232407, 5653.650242525368, 23432.697168910167, 5121.321096577775, 41260.225029018526, 47010.613621546465, 37605.53599662018, 50472.518858017786, 23094.627034023648, 27497.92069171914, -9048.388486908494, -2472.0805850125057, -0.10400000000000001, 0.974, 0.3, 192.0, 0.0, 0.0, 0.0, 0.0, 0.0, 0.0, 0.0, 0.0, 0.0, 1.7068833036888428E9, 0.0, 2024-02-02 15:15:03.688
192.0, 62740.497319757626, 65329.231659082376, -19712.38341479104, -8939.177863499865, 16839.401941228145, 5648.352879089461, 23427.86919210782, 5116.046084886323, 41249.96557831354, 46997.20257487328, 37595.231842426285, 50459.26427355579, 23081.57361526175, 27486.00721192446, -9059.363193436051, -2486.20688750826, -0.10400000000000001, 0.974, 0.3, 192.0, 0.0, 0.0, 0.0, 0.0, 0.0, 0.0, 0.0, 0.0, 0.0, 1.7068833036957376E9, 0.0, 2024-02-02 15:15:03.695
194.0, 62739.67030521278, 65327.15294684804, -19708.38245253354, -8935.847453576023, 16846.308630264837, 5654.4102018368485, 23436.31815151193, 5126.126721635666, 41248.64682539068, 46989.13359512491, 37594.78480753718, 50455.77740142076, 23089.441429310016, 27485.76134273545, -9055.853969556567, -2486.20688750826, -0.10400000000000001, 0.974, 0.3, 192.0, 0.0, 0.0, 0.0, 0.0, 0.0, 0.0, 0.0, 0.0, 0.0, 1.7068833037037404E9, 0.0, 2024-02-02 15:15:03.703
196.0, 62727.980342862655, 65317.67580719898, -19722.28523758474, -8947.157436270409, 16836.85384236024, 5647.3023471000615, 23418.794383858967, 5115.040256385834, 41243.863552077244, 46995.97322892824, 37589.286278401174, 50453.96691011988, 23087.72034498696, 27476.91005193115, -9058.960862035854, -2483.7705473626315, -0.1, 0.982, 0.302, 192.0, 126.0, 112.0, 15.0, 88.0, 4.5, 56.0, 0.0, 0.0, 0.0, 1.706883303711974E9, 0.0, 2024-02-02 15:15:03.711
198.0, 62743.13482560335, 65329.81280443822, -19704.113269342575, -8933.277002963663, 16851.918918123116, 5659.148771661374, 23442.88956438179, 5133.413390328096, 41240.77901134241, 46985.42320554533, 37590.94030749086, 50450.860017640596, 23089.70965024348, 27486.476598558023, -9057.619757368537, -2483.971713062729, -0.1, 0.982, 0.302, 192.0, 0.0, 0.0, 0.0, 0.0, 0.0, 0.0, 0.0, 0.0, 0.0, 1.7068833037207272E9, 0.0, 2024-02-02 15:15:03.720
200.0, 62737.43513076725, 65325.07423461369, -19707.46603101087, -8936.853282076512, 16848.655563432643, 5651.906806457854, 23443.515413226538, 5130.507663548907, 41248.95974981305, 46998.16369988486, 37602.45145588535, 50462.48292475736, 23100.080859670743, 27498.457133586067, -9046.399181651972, -2473.3993379353687, -0.1, 0.982, 0.302, 192.0, 0.0, 0.0, 0.0, 0.0, 0.0, 0.0, 0.0, 0.0, 0.0, 1.7068833037277172E9, 0.0, 2024-02-02 15:15:03.727
202.0, 62741.41374128029, 65330.39394979405, -19703.71093794238, -8935.042790775633, 16848.677915177097, 5651.035088424098, 23440.02854109151, 5126.506701291407, 41235.99573802898, 46990.340589325504, 37596.975278493795, 50455.64329095403, 23089.933167688032, 27482.743857233985, -9056.613928868048, -2485.4692799412346, -0.1, 0.982, 0.302, 192.0, 0.0, 0.0, 0.0, 0.0, 0.0, 0.0, 0.0, 0.0, 0.0, 1.7068833037358627E9, 0.0, 2024-02-02 15:15:03.735
204.0, 62740.45261626871, 65332.9196969175, -19702.012205363775, -8936.67446812087, 16847.403865743145, 5651.012736679642, 23432.16072704324, 5123.042180900834, 41239.92964505311, 46995.28032485012, 37606.05008674265, 50465.79098293674, 23090.067278154766, 27487.14715089168, -9054.401106166972, -2482.1165182729387, -0.1, 0.982, 0.302, 192.0, 0.0, 0.0, 0.0, 0.0, 0.0, 0.0, 0.0, 0.0, 0.0, 1.7068833037437088E9, 0.0, 2024-02-02 15:15:03.743
206.0, 62740.31850580198, 65333.47849052888, -19701.721632685858, -8937.970869299277, 16844.29697326386, 5650.275129112617, 23431.35606424285, 5123.019829156378, 41234.74404033948, 47002.61169703146, 37601.311516918126, 50462.03588986825, 23092.637728767128, 27487.370668336236, -9057.373888179527, -2484.8210793520307, -0.1, 0.972, 0.304, 192.0, 126.0, 112.0, 15.0, 48.0, 4.5, 64.0, 0.0, 0.0, 0.0, 1.7068833037517157E9, 0.0, 2024-02-02 15:15:03.751
208.0, 62754.064828642, 65342.66505750002, -19689.0481935797, -8926.012686015689, 16857.43979900358, 5659.975786206221, 23447.046988850474, 5135.156826395611, 41237.24743571847, 47000.17535688583, 37609.64871759996, 50466.12625910357, 23098.38212709214, 27489.62819452622, -9048.656707841958, -2480.753061861165, -0.1, 0.972, 0.304, 192.0, 0.0, 0.0, 0.0, 0.0, 0.0, 0.0, 0.0, 0.0, 0.0, 1.706883303759776E9, 0.0, 2024-02-02 15:15:03.759
210.0, 62747.44871228322, 65339.37935106509, -19694.926702371446, -8931.332401196052, 16850.80133090035, 5653.046745425075, 23438.55332595746, 5125.791445468837, 41242.4330404321, 47012.424112847344, 37615.996613025265, 50475.0669568857, 23105.221760895463, 27500.938177220607, -9041.794722294178, -2471.7900123345867, -0.1, 0.972, 0.304, 192.0, 0.0, 0.0, 0.0, 0.0, 0.0, 0.0, 0.0, 0.0, 0.0, 1.7068833037680368E9, 0.0, 2024-02-02 15:15:03.768
212.0, 62748.454540783714, 65338.75350222034, -19695.530199471737, -8932.561747141093, 16852.991801856973, 5655.147809403874, 23442.44252949268, 5128.674820503571, 41230.854836804254, 47002.701104009284, 37608.26290944373, 50469.300206816224, 23094.872903212658, 27484.375534579223, -9053.194111966386, -2483.2788089846144, -0.1, 0.972, 0.304, 192.0, 0.0, 0.0, 0.0, 0.0, 0.0, 0.0, 0.0, 0.0, 0.0, 1.70688330377579E9, 0.0, 2024-02-02 15:15:03.775
214.0, 62753.70720073071, 65342.732112733385, -19689.450524979893, -8928.33726743904, 16851.561290211834, 5659.2828821281055, 23437.59220094588, 5132.1616926386, 41237.31449095184, 47001.248240619694, 37614.655508357944, 50474.50816327431, 23105.601740551203, 27497.87598823023, -9048.254376441762, -2476.886210070397, -0.1, 0.972, 0.304, 192.0, 0.0, 0.0, 0.0, 0.0, 0.0, 0.0, 0.0, 0.0, 0.0, 1.7068833037837996E9, 0.0, 2024-02-02 15:15:03.783
216.0, 62740.922002902276, 65330.55041200524, -19700.536990229724, -8940.8095408451, 16845.995705842462, 5653.516132058637, 23435.69230266718, 5125.791445468837, 41231.95007228256, 47009.428979090335, 37608.91111003293, 50470.909532417005, 23099.61147303718, 27498.323023119334, -9050.64601309848, -2475.500401914168, -0.1, 0.972, 0.304, 192.0, 126.0, 112.0, 15.0, 48.0, 4.5, 64.0, 0.0, 0.0, 0.0, 1.7068833037918289E9, 0.0, 2024-02-02 15:15:03.791
218.0, 62751.71789547419, 65340.832214454684, -19687.9976615903, -8930.52773839566, 16862.20072057256, 5665.071983942031, 23453.573698231423, 5138.084904919256, 41221.06477273283, 46997.42609231784, 37604.73133381979, 50465.72392770337, 23097.890388714124, 27488.510607303455, -9047.941452019388, -2480.8871723278967, -0.1, 0.972, 0.304, 192.0, 0.0, 0.0, 0.0, 0.0, 0.0, 0.0, 0.0, 0.0, 0.0, 1.706883303800325E9, 0.0, 2024-02-02 15:15:03.800
220.0, 62731.668380697774, 65324.69425495795, -19703.107440842086, -8945.414000202894, 16844.028752330392, 5651.1244954019185, 23432.54070669898, 5122.215166355988, 41223.85874078974, 47008.244336634205, 37607.9276332769, 50469.590779494145, 23100.43848758203, 27489.516435803944, -9046.712106074347, -2478.8308118380087, -0.1, 0.972, 0.304, 192.0, 0.0, 0.0, 0.0, 0.0, 0.0, 0.0, 0.0, 0.0, 0.0, 1.706883303807838E9, 0.0, 2024-02-02 15:15:03.807
222.0, 62743.02306688108, 65337.30063883074, -19693.630301193036, -8937.032096032155, 16847.33681050978, 5657.852370482966, 23435.178212544706, 5127.959564681001, 41209.08423770479, 46997.44844406229, 37593.53310984768, 50455.956215376405, 23088.815580465267, 27486.275432857925, -9062.31362370415, -2492.174803277827, -0.1, 0.972, 0.304, 192.0, 0.0, 0.0, 0.0, 0.0, 0.0, 0.0, 0.0, 0.0, 0.0, 1.7068833038158157E9, 0.0, 2024-02-02 15:15:03.815
224.0, 62745.54881400452, 65339.51346153182, -19689.0481935797, -8934.0593140196, 16851.6283454452, 5658.254701883162, 23442.330770770404, 5133.681611261561, 41223.07642973381, 47007.73024651173, 37611.07922924509, 50474.17288710748, 23107.345176618717, 27502.055764443372, -9046.130960718509, -2475.8356780809972, -0.1, 0.972, 0.304, 192.0, 0.0, 0.0, 0.0, 0.0, 0.0, 0.0, 0.0, 0.0, 0.0, 1.706883303824098E9, 0.0, 2024-02-02 15:15:03.824
226.0, 62731.48956674214, 65325.7671386918, -19705.499077498804, -8955.673450907881, 16833.456377203034, 5637.35582081745, 23418.146183269764, 5111.9110121620915, 41208.771313282414, 47003.34930459849, 37597.13174070499, 50462.19235207944, 23096.90691195809, 27488.957642192563, -9058.200902724375, -2491.794823622087, -0.101, 0.972, 0.307, 192.0, 126.0, 104.0, 15.0, 48.0, 4.5, 88.0, 0.0, 0.0, 0.0, 1.706883303830866E9, 0.0, 2024-02-02 15:15:03.830
228.0, 62731.064883597486, 65326.080063114176, -19700.067603596166, -8955.651099163426, 16841.257136017935, 5638.607518506947, 23428.24917176356, 5116.314305819787, 41191.33695260727, 46981.62340898793, 37586.93934523337, 50449.541264717736, 23084.166417618566, 27465.734179703497, -9072.103687775576, -2510.5479372200894, -0.101, 0.972, 0.307, 192.0, 0.0, 0.0, 0.0, 0.0, 0.0, 0.0, 0.0, 0.0, 0.0, 1.7068833038389091E9, 0.0, 2024-02-02 15:15:03.838
230.0, 62735.91521214428, 65330.70687421643, -19694.9490541159, -8952.43244796186, 16842.3747232407, 5638.719277229224, 23424.53878218398, 5119.041218643334, 41201.32818237879, 46996.2414498617, 37599.03163898369, 50462.17000033498, 23097.242188124917, 27483.593223523287, -9058.625585869026, -2499.528527203623, -0.101, 0.972, 0.307, 192.0, 0.0, 0.0, 0.0, 0.0, 0.0, 0.0, 0.0, 0.0, 0.0, 1.70688330384789E9, 0.0, 2024-02-02 15:15:03.847
232.0, 62749.48272102866, 65345.19080462347, -19681.158027786976, -8940.116636766987, 16853.461188490535, 5652.845579724977, 23435.02175033352, 5131.379381582664, 41203.40689461314, 47000.93531619732, 37603.9266710194, 50465.187485836446, 23101.801943993803, 27483.68263050111, -9055.786914323202, -2494.454681212268, -0.101, 0.972, 0.307, 192.0, 0.0, 0.0, 0.0, 0.0, 0.0, 0.0, 0.0, 0.0, 0.0, 1.7068833038560724E9, 0.0, 2024-02-02 15:15:03.856
234.0, 62749.6615349843, 65344.341438334166, -19682.02974582073, -8942.57532865707, 16851.516586722923, 5652.1750273913185, 23439.53680271349, 5132.385210083153, 41208.61485107122, 47007.3949703449, 37615.706040347344, 50477.27977958677, 23109.71446153098, 27487.05774391386, -9049.193149708886, -2487.2797712421147, -0.101, 0.972, 0.307, 192.0, 0.0, 0.0, 0.0, 0.0, 0.0, 0.0, 0.0, 0.0, 0.0, 1.706883303862899E9, 0.0, 2024-02-02 15:15:03.862
236.0, 62737.837462167445, 65333.634952740074, -19695.887827383023, -8956.63457591946, 16841.01126682893, 5643.502550542659, 23434.105328810852, 5123.578622767762, 41201.7752172679, 47008.15492965638, 37603.43493264138, 50466.39448003704, 23105.75820276239, 27485.090790401795, -9057.887978302, -2497.673332413832, -0.1005, 0.972, 0.3055, 192.0, 126.0, 112.0, 15.0, 48.0, 4.5, 64.0, 0.0, 0.0, 0.0, 1.7068833038719487E9, 0.0, 2024-02-02 15:15:03.871
238.0, 62743.80537793701, 65335.57955450768, -19690.210484291376, -8953.259462506707, 16846.95683085404, 5646.944719188777, 23431.713692154135, 5125.456169302007, 41190.88991771817, 46993.96157192726, 37595.25419417074, 50455.330366531656, 23096.99631893591, 27483.325002589823, -9066.292234217195, -2508.625687196933, -0.1005, 0.972, 0.3055, 192.0, 0.0, 0.0, 0.0, 0.0, 0.0, 0.0, 0.0, 0.0, 0.0, 1.7068833038799484E9, 0.0, 2024-02-02 15:15:03.879
240.0, 62746.46523552719, 65339.62522025409, -19685.628376678036, -8952.164227028397, 16846.509795964932, 5644.553082532058, 23429.210296775138, 5126.126721635666, 41201.03760970088, 47007.3949703449, 37605.580700109094, 50465.16513409199, 23107.076955685254, 27482.87796770072, -9052.948242777376, -2494.2758672566256, -0.1005, 0.972, 0.3055, 192.0, 0.0, 0.0, 0.0, 0.0, 0.0, 0.0, 0.0, 0.0, 0.0, 1.7068833038872006E9, 0.0, 2024-02-02 15:15:03.887
242.0, 62751.62848849637, 65341.83804295517, -19679.50399869728, -8950.241977005242, 16848.90143262165, 5651.638585524391, 23440.006189347052, 5128.451303059019, 41197.662496288125, 47004.06456042106, 37607.949985021354, 50466.08155561466, 23103.14304866112, 27488.890586959194, -9054.311699189151, -2497.2486492691814, -0.1005, 0.972, 0.3055, 192.0, 0.0, 0.0, 0.0, 0.0, 0.0, 0.0, 0.0, 0.0, 0.0, 1.7068833038949692E9, 0.0, 2024-02-02 15:15:03.894
244.0, 62746.06290412699, 65337.054769641734, -19687.75179240129, -8963.451857978327, 16842.262964518424, 5635.768846961123, 23421.856572849345, 5115.330829063753, 41194.26503113092, 46994.78858647211, 37607.16767396542, 50463.22053232438, 23111.122621431667, 27473.847862940773, -9055.764562578746, -2504.624724939433, -0.1005, 0.972, 0.3055, 192.0, 0.0, 0.0, 0.0, 0.0, 0.0, 0.0, 0.0, 0.0, 0.0, 1.7068833039039664E9, 0.0, 2024-02-02 15:15:03.903
246.0, 62739.82676742396, 65333.83611844017, -19694.434963993426, -8968.883331880967, 16842.33001975179, 5628.817454435522, 23425.20933451764, 5112.179233095555, 41188.65474327264, 46996.37556032844, 37597.80229303864, 50458.481962499856, 23105.221760895463, 27471.299764072868, -9065.50992316126, -2511.4867104872123, -0.09925, 0.972, 0.30374999999999996, 192.0, 126.0, 120.0, 15.0, 48.0, 4.5, 56.0, 0.0, 0.0, 0.0, 1.7068833039121876E9, 0.0, 2024-02-02 15:15:03.912
248.0, 62754.13188387536, 65349.41528432552, -19683.102629554585, -8956.098134052532, 16853.349429768256, 5642.362611575439, 23437.994532346074, 5121.5446140223285, 41191.515766562916, 46994.58742077201, 37605.223072197805, 50464.472230013875, 23112.843705754723, 27472.327944317814, -9058.17855097992, -2505.7646639066534, -0.09925, 0.972, 0.30374999999999996, 192.0, 0.0, 0.0, 0.0, 0.0, 0.0, 0.0, 0.0, 0.0, 0.0, 1.706883303918986E9, 0.0, 2024-02-02 15:15:03.918
250.0, 62757.03761065455, 65353.95268844994, -19681.35919348707, -8950.174921771875, 16849.5272814664, 5647.21294012224, 23431.221953776116, 5121.432855300052, 41199.04830444435, 47012.222947147246, 37613.29205194617, 50477.637407498056, 23117.53757209034, 27490.835188726807, -9054.669327100435, -2497.6062771804663, -0.09925, 0.972, 0.30374999999999996, 192.0, 0.0, 0.0, 0.0, 0.0, 0.0, 0.0, 0.0, 0.0, 0.0, 1.7068833039269984E9, 0.0, 2024-02-02 15:15:03.926
252.0, 62754.22129085318, 65352.52217680481, -19684.28727201072, -8954.935843340856, 16843.4252552301, 5648.017602922631, 23428.025654319008, 5120.471730288474, 41196.70137127655, 47019.44256060631, 37615.7283920918, 50480.31961683269, 23109.580351064247, 27494.16559865065, -9059.050269013676, -2497.271001013637, -0.09925, 0.972, 0.30374999999999996, 192.0, 0.0, 0.0, 0.0, 0.0, 0.0, 0.0, 0.0, 0.0, 0.0, 1.70688330393602E9, 0.0, 2024-02-02 15:15:03.936
254.0, 62759.87628220038, 65355.62906928409, -19678.69933589689, -8954.444104962839, 16844.766359897418, 5653.873759969922, 23428.048006063465, 5124.293878590332, 41195.80730149833, 47011.06065643557, 37618.76822933772, 50479.00086390983, 23117.649330812616, 27494.903206217674, -9057.038612012699, -2498.5003469586786, -0.09925, 0.972, 0.30374999999999996, 192.0, 0.0, 0.0, 0.0, 0.0, 0.0, 0.0, 0.0, 0.0, 0.0, 1.7068833039433453E9, 0.0, 2024-02-02 15:15:03.943
0.0, 62751.65084024082, 65346.19663312395, -19686.99183308981, -8963.809485889613, 16834.685723148075, 5634.4500940382595, 23413.519372167513, 5108.044160371323, 41190.733455506976, 47007.93141221183, 37612.82266531261, 50472.07182312868, 23113.514258088384, 27484.375534579223, -9066.292234217195, -2508.6033354524775, -0.098625, 0.975, 0.304875, 192.0, 126.0, 120.0, 15.0, 72.0, 4.5, 72.0, 0.0, 0.0, 0.0, 1.706883303951063E9, 0.0, 2024-02-02 15:15:03.951
2.0, 62749.058037884, 65343.156795878036, -19685.71778365586, -8967.318709769095, 16840.541880195367, 5637.2664138396285, 23422.460069949637, 5112.156881351099, 41183.6703042591, 46997.15787138437, 37611.168636222916, 50471.55773300621, 23111.39084236513, 27479.14522637668, -9064.973481294332, -2514.0795128440277, -0.098625, 0.975, 0.304875, 192.0, 0.0, 0.0, 0.0, 0.0, 0.0, 0.0, 0.0, 0.0, 0.0, 1.7068833039600556E9, 0.0, 2024-02-02 15:15:03.960
4.0, 62740.11734010188, 65336.294810330255, -19692.400955247995, -8979.34394828605, 16831.981162068983, 5623.073056110508, 23410.01014828803, 5102.255058557398, 41171.175679108586, 46989.424167802834, 37601.40092389595, 50462.08059335716, 23109.178019664054, 27468.43874078259, -9073.444792442893, -2522.3049548035806, -0.098625, 0.975, 0.304875, 192.0, 0.0, 0.0, 0.0, 0.0, 0.0, 0.0, 0.0, 0.0, 0.0, 1.7068833039682677E9, 0.0, 2024-02-02 15:15:03.968
6.0, 62744.252412826114, 65342.64270575556, -19685.22604527784, -8972.861942394013, 16838.262002260926, 5630.49383526967, 23422.7282908831, 5111.1510528506105, 41173.20968785402, 46992.709874237764, 37605.02190649771, 50462.75114569082, 23111.748470276412, 27465.600069236767, -9068.303891218173, -2516.4040942673796, -0.098625, 0.975, 0.304875, 192.0, 0.0, 0.0, 0.0, 0.0, 0.0, 0.0, 0.0, 0.0, 0.0, 1.7068833039750764E9, 0.0, 2024-02-02 15:15:03.975
8.0, 62754.13188387536, 65352.2763076158, -19674.541911428205, -8957.305128253118, 16845.70513316454, 5647.458809311248, 23424.672892650713, 5119.421198299075, 41178.976437923484, 46995.63795276141, 37614.029659513195, 50469.300206816224, 23119.795098280323, 27483.079133400817, -9057.910330046456, -2503.6635999278546, -0.098625, 0.975, 0.304875, 192.0, 0.0, 0.0, 0.0, 0.0, 0.0, 0.0, 0.0, 0.0, 0.0, 1.706883303983115E9, 0.0, 2024-02-02 15:15:03.983
