%OpenBCI Raw EXG Data
%Number of channels = 16
%Sample Rate = 125 Hz
%Board = OpenBCI_GUI$BoardCytonSerialDaisy
Sample Index, EXG Channel 0, EXG Channel 1, EXG Channel 2, EXG Channel 3, EXG Channel 4, EXG Channel 5, EXG Channel 6, EXG Channel 7, EXG Channel 8, EXG Channel 9, EXG Channel 10, EXG Channel 11, EXG Channel 12, EXG Channel 13, EXG Channel 14, EXG Channel 15, Accel Channel 0, Accel Channel 1, Accel Channel 2, Other, Other, Other, Other, Other, Other, Other, Analog Channel 0, Analog Channel 1, Analog Channel 2, Timestamp, Other, Timestamp (Formatted)
228.0, 63481.61411066224, 65554.80546412534, -30406.7767151328, -6937.065057404645, 17311.202563190767, 5991.295694267237, 24126.405909825076, 5625.576451489503, 40884.62631519155, 47618.04462886389, 37465.681131563324, 49489.042101984276, 23256.07368422433, 27188.70665892442, -8728.736189453148, -2378.046796089029, 0.0, 0.0, 0.0, 192.0, 0.0, 0.0, 0.0, 0.0, 0.0, 0.0, 0.0, 0.0, 0.0, 1.7068832498295608E9, 0.0, 2024-02-02 15:14:09.829
230.0, 63446.45481663404, 65494.67927154056, -30411.157657046042, -6946.095162164589, 17307.42511837782, 5979.449269705924, 24117.778136465327, 5615.272297295606, 40871.90817259648, 47584.80758485885, 37452.627712801426, 49479.58731407968, 23255.69370456859, 27180.70473440942, -8732.625392988371, -2383.5453252250345, 0.0, 0.0, 0.0, 192.0, 0.0, 0.0, 0.0, 0.0, 0.0, 0.0, 0.0, 0.0, 0.0, 1.7068832498295872E9, 0.0, 2024-02-02 15:14:09.829
0.0, 31918.335785667397, 32742.24343803447, -14753.335982958793, -3836.9675084313762, 8615.278734598009, 2994.5526116553083, 11953.869396909404, 2459.3177389285256, 20433.65185661934, 23784.647737103434, 18728.32551340169, 24734.909800876358, 11628.360942406767, 13586.150239247114, -4367.955549711651, -1194.745444625073, -0.092, 0.98, 0.278, 192.0, 126.5, 16.0, 15.0, 80.0, 4.0, 88.0, 0.0, 0.0, 0.0, 1.7068832499388003E9, 0.0, 2024-02-02 15:14:09.938
2.0, 63841.208975459216, 65487.97374820397, -29508.817733385295, -7675.3431767634365, 17227.83055637247, 5984.724281397376, 23905.54832286219, 4915.707399333406, 40524.74087771665, 46921.94425129226, 37464.83176527402, 49593.1565276571, 23249.166995187643, 27274.962040777453, -8807.593143891472, -2493.9405910897963, -0.092, 0.98, 0.278, 192.0, 0.0, 0.0, 0.0, 0.0, 0.0, 0.0, 0.0, 0.0, 0.0, 1.706883249944938E9, 0.0, 2024-02-02 15:14:09.944
4.0, 63839.465539391706, 65483.503399312904, -29510.874093875183, -7681.467554744191, 17224.611905170907, 5978.935179583452, 23905.235398439814, 4913.87455628807, 40541.66114826932, 46930.773190352105, 37464.7423582962, 49594.43057709105, 23245.523660841427, 27273.285659943303, -8809.895373570369, -2494.454681212268, -0.092, 0.98, 0.278, 192.0, 0.0, 0.0, 0.0, 0.0, 0.0, 0.0, 0.0, 0.0, 0.0, 1.706883249952788E9, 0.0, 2024-02-02 15:14:09.952
6.0, 63840.4713678922, 65481.6035010342, -29509.17536129658, -7676.505467475113, 17225.863602860405, 5985.28307500876, 23905.995357751293, 4917.07085574518, 40553.306407130534, 46920.513739647125, 37461.72487279474, 49590.139042155635, 23240.40511136116, 27264.59083135019, -8812.801100349558, -2497.8744981139303, -0.092, 0.98, 0.278, 192.0, 0.0, 0.0, 0.0, 0.0, 0.0, 0.0, 0.0, 0.0, 0.0, 1.7068832499598792E9, 0.0, 2024-02-02 15:14:09.959
8.0, 63848.003905773636, 65494.65691979611, -29502.425134471076, -7667.900045859819, 17230.624524429386, 5994.268476279793, 23912.678529343433, 4929.520777406786, 40570.89723001686, 46924.04531527106, 37468.340989153505, 49596.19636490302, 23241.65680905066, 27273.21860470994, -8806.877888068902, -2487.257419497659, -0.10200000000000001, 0.98, 0.28200000000000003, 192.0, 126.0, 104.0, 15.0, 80.0, 4.0, 104.0, 0.0, 0.0, 0.0, 1.706883249968864E9, 0.0, 2024-02-02 15:14:09.968
10.0, 63853.05540002053, 65499.730765787455, -29500.234663514457, -7664.1896562802385, 17231.920925607792, 5997.956514114919, 23916.120697989547, 4931.845358830137, 40593.3830849389, 46940.920882334816, 37477.304038680086, 49608.62393482017, 23246.97652423102, 27288.35073570618, -8801.133489743888, -2480.9542275612625, -0.10200000000000001, 0.98, 0.28200000000000003, 192.0, 0.0, 0.0, 0.0, 0.0, 0.0, 0.0, 0.0, 0.0, 0.0, 1.7068832499768896E9, 0.0, 2024-02-02 15:14:09.976
12.0, 63854.93294655478, 65497.428536108564, -29502.40278272662, -7662.692089401733, 17231.473890718687, 5997.509479225812, 23915.740718333807, 4929.274908217777, 40604.55895716655, 46932.49427467517, 37479.33804742552, 49607.126367941666, 23245.613067819246, 27286.473189171935, -8798.78655657608, -2481.0883380279947, -0.10200000000000001, 0.98, 0.28200000000000003, 192.0, 0.0, 0.0, 0.0, 0.0, 0.0, 0.0, 0.0, 0.0, 0.0, 1.7068832499838865E9, 0.0, 2024-02-02 15:14:09.983
14.0, 63853.1224552539, 65495.618044807685, -29504.97323333898, -7668.5929499379345, 17227.674094161284, 5988.769947143787, 23905.92830251793, 4918.344905179132, 40613.74552413768, 46932.40486769735, 37476.253506690686, 49602.32074288378, 23241.88032649521, 27282.561633892255, -8802.251076966653, -2484.329340974014, -0.10200000000000001, 0.98, 0.28200000000000003, 192.0, 0.0, 0.0, 0.0, 0.0, 0.0, 0.0, 0.0, 0.0, 0.0, 1.7068832499929197E9, 0.0, 2024-02-02 15:14:09.992
16.0, 63849.657934863324, 65496.33330063025, -29504.705012405517, -7667.475362715169, 17230.244544773646, 5991.698025667432, 23909.72809907533, 4916.847338300627, 40616.04775381658, 46930.39321069637, 37473.168965955854, 49599.4597195935, 23239.242820649484, 27281.06406701375, -8801.513469399628, -2483.1223467734276, -0.10200000000000001, 0.98, 0.28200000000000003, 192.0, 0.0, 0.0, 0.0, 0.0, 0.0, 0.0, 0.0, 0.0, 0.0, 1.706883250001218E9, 0.0, 2024-02-02 15:14:10.001
18.0, 63855.24587097715, 65501.29538789933, -29499.385297225155, -7663.139124290839, 17235.474852976186, 5992.681502423466, 23913.617302610553, 4918.769588323783, 40620.831027130014, 46929.49914091815, 37476.96876251326, 49605.07000745177, 23242.752044528967, 27287.568424650246, -8791.79046056157, -2475.165125747338, -0.10400000000000001, 0.982, 0.28600000000000003, 192.0, 126.0, 96.0, 15.0, 88.0, 4.0, 120.0, 0.0, 0.0, 0.0, 1.706883250007913E9, 0.0, 2024-02-02 15:14:10.007
20.0, 63854.50826341013, 65499.037861709345, -29503.83329437176, -7664.435525469247, 17231.183318040767, 5992.770909401287, 23901.234436182312, 4911.661733586995, 40628.318861522544, 46935.891739832376, 37475.828823546035, 49607.01460921939, 23243.735521285, 27285.869692071643, -8792.84099255097, -2475.7015676142655, -0.10400000000000001, 0.982, 0.28600000000000003, 192.0, 0.0, 0.0, 0.0, 0.0, 0.0, 0.0, 0.0, 0.0, 0.0, 1.7068832500159357E9, 0.0, 2024-02-02 15:14:10.015
22.0, 63863.29249898106, 65505.29635015683, -29499.631166414165, -7658.534664933046, 17238.849966388938, 6002.002179861329, 23911.605645609576, 4918.233146456855, 40633.079783091525, 46931.51079791913, 37479.06982649205, 49606.61227781919, 23243.757873029455, 27287.5907763947, -8792.997454762157, -2479.166088004838, -0.10400000000000001, 0.982, 0.28600000000000003, 192.0, 0.0, 0.0, 0.0, 0.0, 0.0, 0.0, 0.0, 0.0, 0.0, 1.7068832500249329E9, 0.0, 2024-02-02 15:14:10.024
24.0, 63854.46355992122, 65495.685100041046, -29505.487323461453, -7667.9447493487305, 17235.18428029827, 5994.022607090785, 23915.58425612262, 4916.601469111618, 40638.935940138814, 46940.227978256706, 37480.81326255957, 49609.562708087295, 23247.02122771993, 27292.329346219227, -8788.996492504655, -2474.53927690259, -0.10400000000000001, 0.982, 0.28600000000000003, 192.0, 0.0, 0.0, 0.0, 0.0, 0.0, 0.0, 0.0, 0.0, 0.0, 1.7068832500330212E9, 0.0, 2024-02-02 15:14:10.033
26.0, 63853.725952354194, 65491.93000697256, -29503.632128671663, -7663.876731857865, 17238.31352452201, 5999.409377504513, 23918.959369535372, 4919.998934268825, 40637.818352916045, 46935.534111921086, 37475.962934012765, 49604.44415860703, 23242.26030615095, 27286.02615428283, -8791.991626261668, -2478.0932042709833, -0.10400000000000001, 0.982, 0.28600000000000003, 192.0, 0.0, 0.0, 0.0, 0.0, 0.0, 0.0, 0.0, 0.0, 0.0, 1.7068832500399747E9, 0.0, 2024-02-02 15:14:10.039
28.0, 63852.98834478717, 65494.96984421848, -29499.631166414165, -7660.546321934024, 17240.146367567348, 6003.47739499538, 23920.747509091798, 4924.871614560082, 40646.826105931534, 46930.05793452954, 37480.70150383729, 49605.226469662965, 23244.56253582985, 27290.20593049597, -8784.481440124684, -2468.39254717738, -0.098, 0.978, 0.28600000000000003, 192.0, 126.0, 120.0, 15.0, 72.0, 4.0, 120.0, 0.0, 0.0, 0.0, 1.7068832500479913E9, 0.0, 2024-02-02 15:14:10.047
30.0, 63852.76482734262, 65493.27111163988, -29504.503846705422, -7666.223665025672, 17235.899536120836, 6001.465737994402, 23914.466668899855, 4923.754027337316, 40649.82123968855, 46938.43983870028, 37476.99111425771, 49602.87953649516, 23243.579059073814, 27291.815256096754, -8783.565018602016, -2465.397413420369, -0.098, 0.978, 0.28600000000000003, 192.0, 0.0, 0.0, 0.0, 0.0, 0.0, 0.0, 0.0, 0.0, 0.0, 1.7068832500569723E9, 0.0, 2024-02-02 15:14:10.056
32.0, 63854.50826341013, 65494.634568051646, -29503.073335060282, -7665.195484780727, 17242.761521668617, 6005.153775829527, 23924.45789867138, 4927.509120405808, 40654.22453334624, 46930.03558278508, 37478.555736369584, 49599.54912657131, 23243.042617206887, 27286.719058360944, -8781.21808543421, -2468.1690297328273, -0.098, 0.978, 0.28600000000000003, 192.0, 0.0, 0.0, 0.0, 0.0, 0.0, 0.0, 0.0, 0.0, 0.0, 1.7068832500642564E9, 0.0, 2024-02-02 15:14:10.064
34.0, 63848.42858891829, 65489.78423950485, -29507.3648699957, -7672.035118584052, 17240.861623389916, 5993.32970301267, 23921.909799803474, 4923.217585470389, 40657.44318454781, 46932.51662641962, 37475.538250868114, 49597.76098701489, 23244.249611407475, 27285.936747305008, -8780.368719144908, -2471.521791401123, -0.098, 0.978, 0.28600000000000003, 192.0, 0.0, 0.0, 0.0, 0.0, 0.0, 0.0, 0.0, 0.0, 0.0, 1.706883250072014E9, 0.0, 2024-02-02 15:14:10.072
36.0, 63855.894071566356, 65495.14865817412, -29503.095686804736, -7664.1896562802385, 17244.303792036033, 5998.135328070561, 23922.915628303963, 4925.631573871562, 40658.62782700394, 46929.25327172915, 37473.88422177842, 49594.8552602357, 23240.65098055017, 27281.44404666949, -8784.637902335871, -2478.9872740491955, -0.098, 0.978, 0.28600000000000003, 192.0, 0.0, 0.0, 0.0, 0.0, 0.0, 0.0, 0.0, 0.0, 0.0, 1.7068832500810184E9, 0.0, 2024-02-02 15:14:10.081
38.0, 63857.861025078426, 65499.68606229855, -29498.02184081338, -7655.986566065141, 17243.253260046633, 6001.264572294303, 23918.93701779092, 4924.290469204244, 40668.48494630873, 46928.560367651036, 37481.41675965986, 49603.281867895355, 23244.36137012975, 27287.948404305986, -8781.419251134306, -2471.946474545774, -0.094, 0.988, 0.28800000000000003, 192.0, 126.5, 8.0, 15.0, 112.0, 4.5, 0.0, 0.0, 0.0, 0.0, 1.7068832500890367E9, 0.0, 2024-02-02 15:14:10.089
40.0, 63859.76092335713, 65498.6578820536, -29498.960614080504, -7657.193560265728, 17238.89466987785, 6000.146985071538, 23915.919532289452, 4919.954230779914, 40679.45965283628, 46945.748859137166, 37487.988172529724, 49612.46843486648, 23248.339980642795, 27295.54799742079, -8779.049966222045, -2465.7997448205647, -0.094, 0.988, 0.28800000000000003, 192.0, 0.0, 0.0, 0.0, 0.0, 0.0, 0.0, 0.0, 0.0, 0.0, 1.7068832500963073E9, 0.0, 2024-02-02 15:14:10.096
42.0, 63858.35276345644, 65498.479068097964, -29502.55924493781, -7661.37333647887, 17234.066693075503, 5999.834060649164, 23909.593988608598, 4918.277849945766, 40679.05732143609, 46933.70126887575, 37485.976515528746, 49608.26630690889, 23241.03096020591, 27291.16705550755, -8784.034405235578, -2470.7618320896427, -0.094, 0.988, 0.28800000000000003, 192.0, 0.0, 0.0, 0.0, 0.0, 0.0, 0.0, 0.0, 0.0, 0.0, 1.7068832501040611E9, 0.0, 2024-02-02 15:14:10.104
44.0, 63854.79883608805, 65496.735632030446, -29506.560207195307, -7669.107040060407, 17229.909268606814, 5992.167412300994, 23901.30149141568, 4910.745312064328, 40683.617077304974, 46940.27268174561, 37484.32248643905, 49611.48495811045, 23243.98139047401, 27289.378915951125, -8786.426041892295, -2470.7618320896427, -0.094, 0.988, 0.28800000000000003, 192.0, 0.0, 0.0, 0.0, 0.0, 0.0, 0.0, 0.0, 0.0, 0.0, 1.7068832501133118E9, 0.0, 2024-02-02 15:14:10.113
46.0, 63856.34110645546, 65496.7579837749, -29508.214236285003, -7665.195484780727, 17229.752806395627, 5990.312217511203, 23902.754354805274, 4907.347846907121, 40681.47130983726, 46932.71779211972, 37476.07469273504, 49603.415978362085, 23238.281695637907, 27281.287584458303, -8795.634960607882, -2477.10972751495, -0.094, 0.988, 0.28800000000000003, 192.0, 0.0, 0.0, 0.0, 0.0, 0.0, 0.0, 0.0, 0.0, 0.0, 1.7068832501200843E9, 0.0, 2024-02-02 15:14:10.120
48.0, 63864.49949318165, 65503.53056234486, -29502.1122100487, -7656.523007932068, 17234.55843145352, 5994.760214657809, 23902.597892594087, 4909.135986463545, 40692.44601636482, 46936.53994042158, 37487.496434151704, 49616.44704537953, 23244.003742218465, 27290.094171773693, -8790.225838449698, -2473.6452071243775, -0.096, 0.984, 0.28800000000000003, 192.0, 126.5, 0.0, 15.0, 96.0, 4.5, 0.0, 0.0, 0.0, 0.0, 1.7068832501284075E9, 0.0, 2024-02-02 15:14:10.128
50.0, 63864.25362399264, 65507.576228091275, -29509.17536129658, -7661.440391712236, 17231.004504085126, 5988.501726210324, 23897.16641869145, 4902.2069456824, 40694.77059778817, 46948.319309749524, 37485.84240506201, 49619.53158611436, 23243.31083814035, 27291.904663074576, -8795.12087048541, -2478.160259504349, -0.096, 0.984, 0.28800000000000003, 192.0, 0.0, 0.0, 0.0, 0.0, 0.0, 0.0, 0.0, 0.0, 0.0, 1.706883250136124E9, 0.0, 2024-02-02 15:14:10.136
52.0, 63864.65595539284, 65507.59857983573, -29506.113172306203, -7658.288795744038, 17235.36309425391, 5993.866144879597, 23900.049793726183, 4903.883326516549, 40695.17292918837, 46944.00542306965, 37487.2505649627, 49620.336248914755, 23242.372064873227, 27292.73167761942, -8794.807946063036, -2478.6072943934555, -0.096, 0.984, 0.28800000000000003, 192.0, 0.0, 0.0, 0.0, 0.0, 0.0, 0.0, 0.0, 0.0, 0.0, 1.706883250144092E9, 0.0, 2024-02-02 15:14:10.144
54.0, 63864.94652807076, 65509.54318160334, -29501.866340859695, -7656.99239456563, 17240.54869896754, 5998.47060423739, 23908.431697896922, 4909.784187052749, 40698.27982166765, 46949.638062672384, 37490.96095454228, 49623.890176283145, 23244.808405018855, 27301.247692256893, -8785.353158158441, -2468.9960442776733, -0.096, 0.984, 0.28800000000000003, 192.0, 0.0, 0.0, 0.0, 0.0, 0.0, 0.0, 0.0, 0.0, 0.0, 1.7068832501521258E9, 0.0, 2024-02-02 15:14:10.152
56.0, 63868.612214161425, 65509.67729207007, -29501.486361203955, -7654.354888719904, 17247.008353115125, 6004.125595584584, 23919.339349191112, 4918.411960412498, 40692.982458231745, 46946.48646670419, 37489.12811149694, 49623.53254837186, 23242.997913717976, 27298.67724164453, -8784.749661058147, -2470.3818524339026, -0.096, 0.984, 0.28800000000000003, 192.0, 0.0, 0.0, 0.0, 0.0, 0.0, 0.0, 0.0, 0.0, 0.0, 1.7068832501602454E9, 0.0, 2024-02-02 15:14:10.160
58.0, 63867.82990310549, 65505.96690249049, -29500.79345712584, -7654.1537230198055, 17246.94129788176, 6005.913735141008, 23920.054605013684, 4918.479015645864, 40692.02133322017, 46945.77121088162, 37491.38563768693, 49626.840606551246, 23247.132986442208, 27303.81814286925, -8777.39593713235, -2463.2963494415703, -0.10400000000000001, 0.978, 0.28200000000000003, 192.0, 126.0, 96.0, 15.0, 72.0, 4.0, 104.0, 0.0, 0.0, 0.0, 1.7068832501691556E9, 0.0, 2024-02-02 15:14:10.169
60.0, 63854.19533898775, 65494.47810584046, -29512.50577122042, -7662.982662079652, 17234.60313494243, 5998.001217603829, 23901.949692004884, 4905.1797276949565, 40685.76284477268, 46951.62736792891, 37484.38954167242, 49621.25267043742, 23240.941553228087, 27300.957119578972, -8785.509620369628, -2464.9950820201734, -0.10400000000000001, 0.978, 0.28200000000000003, 192.0, 0.0, 0.0, 0.0, 0.0, 0.0, 0.0, 0.0, 0.0, 0.0, 1.7068832501761572E9, 0.0, 2024-02-02 15:14:10.176
62.0, 63858.620984389905, 65496.89209424164, -29503.386259482657, -7654.734868375644, 17240.79456815655, 6002.80684266172, 23910.890389787008, 4906.967867251381, 40679.79492900312, 46939.020984056115, 37485.7977015731, 49616.53645235735, 23238.41580610464, 27297.559654421766, -8789.376472160397, -2467.7666983326317, -0.10400000000000001, 0.978, 0.28200000000000003, 192.0, 0.0, 0.0, 0.0, 0.0, 0.0, 0.0, 0.0, 0.0, 0.0, 1.70688325018428E9, 0.0, 2024-02-02 15:14:10.184
64.0, 63854.73178085468, 65490.90182672761, -29508.54951245183, -7667.318900503982, 17233.30673376402, 5990.334569255659, 23901.167380948948, 4897.647189813518, 40679.12437666945, 46942.932539335794, 37485.9988672732, 49616.692914568535, 23240.136890427697, 27295.21272125396, -8791.701053583749, -2471.4323844233018, -0.10400000000000001, 0.978, 0.28200000000000003, 192.0, 0.0, 0.0, 0.0, 0.0, 0.0, 0.0, 0.0, 0.0, 0.0, 1.7068832501921487E9, 0.0, 2024-02-02 15:14:10.192
66.0, 63856.54227215556, 65496.646225052624, -29509.55534095232, -7672.459801728703, 17231.339780251954, 5988.859354121609, 23894.372450634535, 4896.574306079663, 40674.8998969674, 46940.67501314581, 37482.243774204704, 49611.35084764372, 23237.186460159595, 27288.574253150735, -8796.55138213055, -2478.6519978823662, -0.10400000000000001, 0.978, 0.28200000000000003, 192.0, 0.0, 0.0, 0.0, 0.0, 0.0, 0.0, 0.0, 0.0, 0.0, 1.7068832502001922E9, 0.0, 2024-02-02 15:14:10.200
68.0, 63868.36634497242, 65509.47612636997, -29496.926605335073, -7658.51231318859, 17241.37571351239, 6001.443386249946, 23906.10711647357, 4908.554841107708, 40677.15742315739, 46939.53507417859, 37489.731608597234, 49616.134120957155, 23240.092186938786, 27293.4916369309, -8791.924571028301, -2473.332282702003, -0.1, 0.978, 0.28200000000000003, 192.0, 126.0, 112.0, 15.0, 72.0, 4.0, 104.0, 0.0, 0.0, 0.0, 1.7068832502082057E9, 0.0, 2024-02-02 15:14:10.208
70.0, 63869.93096708429, 65513.61119909421, -29491.65159364362, -7649.772781106566, 17248.595326971452, 6007.880688653075, 23917.528857890233, 4916.422655155976, 40678.81145224708, 46956.41064124234, 37492.30205920959, 49620.895042526136, 23243.9366869851, 27301.44885795699, -8785.666082580816, -2467.096145998972, -0.1, 0.978, 0.28200000000000003, 192.0, 0.0, 0.0, 0.0, 0.0, 0.0, 0.0, 0.0, 0.0, 0.0, 1.7068832502163684E9, 0.0, 2024-02-02 15:14:10.216
72.0, 63871.137961284876, 65516.29340842884, -29487.337706963746, -7640.072124012962, 17253.736228196172, 6014.966191645407, 23918.042948012706, 4923.485806403853, 40685.96401047278, 46957.32706276501, 37501.28746048063, 49631.10978974221, 23253.41382663415, 27312.02123308435, -8772.947939985746, -2456.367308660425, -0.1, 0.978, 0.28200000000000003, 192.0, 0.0, 0.0, 0.0, 0.0, 0.0, 0.0, 0.0, 0.0, 0.0, 1.7068832502252293E9, 0.0, 2024-02-02 15:14:10.225
74.0, 63856.519920411105, 65502.0106437219, -29500.74875363693, -7655.763048620588, 17240.191071056255, 5999.945819371441, 23907.694090329896, 4910.030056241758, 40682.4547865933, 46958.22113254322, 37493.866681321466, 49627.175882718075, 23248.541146342894, 27309.003747582883, -8780.636940078371, -2461.262340696137, -0.1, 0.978, 0.28200000000000003, 192.0, 0.0, 0.0, 0.0, 0.0, 0.0, 0.0, 0.0, 0.0, 0.0, 1.7068832502323089E9, 0.0, 2024-02-02 15:14:10.232
76.0, 63855.15646399933, 65500.80364952132, -29506.850779873228, -7665.508409203102, 17236.614791943408, 5998.984694359862, 23909.25871244177, 4907.660771329495, 40674.13993765592, 46950.50978070615, 37484.65776260588, 49616.64821107963, 23239.332227627307, 27300.018346311852, -8792.617475106415, -2473.3099309575477, -0.1, 0.978, 0.28200000000000003, 192.0, 0.0, 0.0, 0.0, 0.0, 0.0, 0.0, 0.0, 0.0, 0.0, 1.7068832502402632E9, 0.0, 2024-02-02 15:14:10.240
78.0, 63864.25362399264, 65510.48195487046, -29503.632128671663, -7658.959348077697, 17237.285344277065, 6004.594982218145, 23901.703822815874, 4909.8735940305705, 40675.61515278997, 46949.4816004612, 37485.61888761746, 49616.73761805745, 23241.567402072837, 27299.325442233738, -8795.299684441052, -2474.941608302785, -0.10400000000000001, 0.982, 0.276, 192.0, 126.0, 96.0, 15.0, 88.0, 4.0, 80.0, 0.0, 0.0, 0.0, 1.7068832502485318E9, 0.0, 2024-02-02 15:14:10.248
80.0, 63857.48104542268, 65503.53056234486, -29508.258939773914, -7661.641557412334, 17236.03364658757, 5997.9118106260075, 23906.800020551687, 4904.956210250403, 40679.549059814104, 46964.97135936873, 37486.17768122884, 49625.94653677304, 23241.768567772935, 27304.801619625287, -8797.31134144203, -2473.82402108002, -0.10400000000000001, 0.982, 0.276, 192.0, 0.0, 0.0, 0.0, 0.0, 0.0, 0.0, 0.0, 0.0, 0.0, 1.7068832502562735E9, 0.0, 2024-02-02 15:14:10.256
82.0, 63862.42078094731, 65508.403242636115, -29502.961576338002, -7657.841760854932, 17243.521480980096, 6001.689255438955, 23917.037119512217, 4910.432387641953, 40678.9008592249, 46957.707042420756, 37488.345800441006, 49624.40426640562, 23241.567402072837, 27302.566445179757, -8791.477536139195, -2473.7122623577434, -0.10400000000000001, 0.982, 0.276, 192.0, 0.0, 0.0, 0.0, 0.0, 0.0, 0.0, 0.0, 0.0, 0.0, 1.706883250264475E9, 0.0, 2024-02-02 15:14:10.264
84.0, 63865.617080404416, 65513.34297816074, -29507.32016650679, -7664.27906325806, 17236.324219265487, 5994.737862913355, 23904.3413286616, 4902.475166615864, 40682.81241450458, 46964.412565757346, 37490.11158825298, 49628.60639436322, 23245.50130909697, 27304.555750436277, -8788.50475412664, -2470.851239067464, -0.10400000000000001, 0.982, 0.276, 192.0, 0.0, 0.0, 0.0, 0.0, 0.0, 0.0, 0.0, 0.0, 0.0, 1.7068832502722948E9, 0.0, 2024-02-02 15:14:10.272
86.0, 63861.37024895791, 65506.369233890684, -29511.075259575282, -7670.872827872376, 17233.016161086103, 5993.374406501581, 23899.848628026084, 4902.139890449034, 40673.827013233546, 46959.584588955, 37481.93084978233, 49619.62099309218, 23234.571306058326, 27295.88327358762, -8797.467803653217, -2478.2273147377155, -0.10400000000000001, 0.982, 0.276, 192.0, 0.0, 0.0, 0.0, 0.0, 0.0, 0.0, 0.0, 0.0, 0.0, 1.7068832502815676E9, 0.0, 2024-02-02 15:14:10.281
88.0, 63860.74440011316, 65507.352710646715, -29506.962538595504, -7673.2868162735485, 17237.195937299246, 5994.357883257614, 23903.581369350122, 4905.135024206045, 40674.877545222946, 46951.69442316228, 37484.32248643905, 49618.369295402685, 23238.393454360183, 27294.720982875944, -8791.276370439098, -2474.8298495805084, -0.10200000000000001, 0.983, 0.276, 192.0, 126.0, 112.0, 15.0, 96.0, 4.0, 80.0, 0.0, 0.0, 0.0, 1.706883250287292E9, 0.0, 2024-02-02 15:14:10.287
90.0, 63860.565586157514, 65505.542219345836, -29508.258939773914, -7675.611397696901, 17237.955896610725, 5991.116880311594, 23903.06727922765, 4900.888192759538, 40673.37997834444, 46962.82559190102, 37483.31665793856, 49620.22449019248, 23238.21464040454, 27295.346831720693, -8794.383262918385, -2477.7355763596984, -0.10200000000000001, 0.983, 0.276, 192.0, 0.0, 0.0, 0.0, 0.0, 0.0, 0.0, 0.0, 0.0, 0.0, 1.7068832502965991E9, 0.0, 2024-02-02 15:14:10.296
92.0, 63868.70162113925, 65512.40420489362, -29501.37460248168, -7664.703746402711, 17245.64489670335, 6001.890421139053, 23905.10128797308, 4908.107806218602, 40674.36345510047, 46953.12493480741, 37487.20586147378, 49621.74440881544, 23239.80161426087, 27299.571311422744, -8790.0246727496, -2474.7627943471425, -0.10200000000000001, 0.983, 0.276, 192.0, 0.0, 0.0, 0.0, 0.0, 0.0, 0.0, 0.0, 0.0, 0.0, 1.706883250304482E9, 0.0, 2024-02-02 15:14:10.304
94.0, 63854.50826341013, 65503.642321067135, -29515.344442766243, -7671.968063350686, 17231.473890718687, 5988.948761099429, 23890.840875010595, 4895.099090945612, 40674.29639986711, 46959.67399593282, 37486.49060565121, 49627.62291760718, 23241.27682939492, 27305.06984055875, -8792.461012895228, -2471.722957101221, -0.10200000000000001, 0.983, 0.276, 192.0, 0.0, 0.0, 0.0, 0.0, 0.0, 0.0, 0.0, 0.0, 0.0, 1.7068832503126323E9, 0.0, 2024-02-02 15:14:10.312
96.0, 63853.43537967627, 65501.09422219923, -29514.3162625213, -7666.08955455894, 17235.944239609747, 5994.3355315131585, 23898.59693033659, 4897.133099691046, 40660.43831830482, 46948.49812370517, 37475.22532644574, 49616.894080268634, 23229.609218789246, 27295.100962531684, -8802.899277555856, -2479.948399060774, -0.10200000000000001, 0.983, 0.276, 192.0, 0.0, 0.0, 0.0, 0.0, 0.0, 0.0, 0.0, 0.0, 0.0, 1.7068832503203535E9, 0.0, 2024-02-02 15:14:10.320
98.0, 63858.41981868981, 65505.76573679039, -29515.74677416644, -7662.647385912823, 17236.950068110236, 5996.6824646809655, 23900.25095942628, 4900.038826470235, 40664.97572242925, 46952.521437707124, 37485.03774226162, 49626.37121991769, 23237.70055028207, 27303.795791124798, -8794.986760018679, -2469.0630995110396, -0.10200000000000001, 0.9815, 0.274, 192.0, 126.0, 104.0, 15.0, 80.0, 4.0, 64.0, 0.0, 0.0, 0.0, 1.7068832503283813E9, 0.0, 2024-02-02 15:14:10.328
100.0, 63850.88728080837, 65498.23319890895, -29521.155896324624, -7669.7105371606995, 17228.746977895138, 5991.496859967335, 23891.556130833167, 4892.707454288895, 40655.67739673584, 46954.10841156345, 37474.46536713426, 49619.911565770104, 23229.92214321162, 27298.31961373325, -8806.184983990786, -2475.3439397029806, -0.10200000000000001, 0.9815, 0.274, 192.0, 0.0, 0.0, 0.0, 0.0, 0.0, 0.0, 0.0, 0.0, 0.0, 1.7068832503367E9, 0.0, 2024-02-02 15:14:10.336
102.0, 63855.178815743784, 65502.815306522294, -29512.550474709333, -7664.793153380532, 17238.291172777554, 5997.7329966703655, 23906.129468218027, 4904.889155017037, 40654.69391997981, 46948.09579230497, 37479.29334393661, 49619.01749599189, 23231.754986256958, 27296.039735798808, -8800.105309498944, -2470.717128600732, -0.10200000000000001, 0.9815, 0.274, 192.0, 0.0, 0.0, 0.0, 0.0, 0.0, 0.0, 0.0, 0.0, 0.0, 1.7068832503434243E9, 0.0, 2024-02-02 15:14:10.343
104.0, 63851.133149997375, 65502.323568144275, -29517.35609976722, -7669.487019716146, 17229.998675584637, 5991.742729156343, 23891.44437211089, 4894.361483378588, 40654.0457193906, 46953.75078365216, 37481.908498037876, 49624.29250768334, 23233.498422324472, 27299.88423584512, -8799.16653623182, -2470.560666389545, -0.10200000000000001, 0.9815, 0.274, 192.0, 0.0, 0.0, 0.0, 0.0, 0.0, 0.0, 0.0, 0.0, 0.0, 1.7068832503524408E9, 0.0, 2024-02-02 15:14:10.352
106.0, 63854.26239422112, 65506.12336470168, -29513.288082276355, -7667.117734803884, 17239.900498378338, 5996.369540258592, 23911.985625265315, 4903.816271283183, 40646.826105931534, 46956.72356566472, 37479.09217823651, 49621.47618788197, 23229.720977511523, 27299.21368351146, -8800.708806599238, -2474.427518180313, -0.10200000000000001, 0.9815, 0.274, 192.0, 0.0, 0.0, 0.0, 0.0, 0.0, 0.0, 0.0, 0.0, 0.0, 1.706883250360428E9, 0.0, 2024-02-02 15:14:10.360
108.0, 63854.843539576956, 65505.1622396901, -29510.471762474986, -7664.569635935979, 17238.849966388938, 5996.570705958689, 23907.78349730772, 4899.748253792316, 40646.066146620054, 46949.727469650206, 37485.90946029538, 49622.8619960382, 23233.677236280113, 27299.236035255915, -8794.472669896206, -2470.650073367366, -0.10200000000000001, 0.98175, 0.273, 192.0, 126.0, 104.0, 15.0, 88.0, 4.0, 64.0, 0.0, 0.0, 0.0, 1.706883250367709E9, 0.0, 2024-02-02 15:14:10.367
110.0, 63853.524786654096, 65504.08935595625, -29510.80703864182, -7663.317938246481, 17236.927716365783, 5995.207249546916, 23900.83210478212, 4896.753120035305, 40643.45099251878, 46959.80810639955, 37484.3001346946, 49622.39260940464, 23231.956151957056, 27298.811352111265, -8797.31134144203, -2472.326454201514, -0.10200000000000001, 0.98175, 0.273, 192.0, 0.0, 0.0, 0.0, 0.0, 0.0, 0.0, 0.0, 0.0, 0.0, 1.706883250375478E9, 0.0, 2024-02-02 15:14:10.375
112.0, 63857.03401053358, 65507.24095192444, -29506.26963451739, -7660.188694022739, 17245.868414147906, 6000.012874604807, 23910.130430475525, 4906.319666662177, 40642.646329718395, 46957.59528369848, 37490.37980918644, 49624.806597805815, 23235.97946595901, 27299.079573044728, -8789.599989604949, -2466.1797244763047, -0.10200000000000001, 0.98175, 0.273, 192.0, 0.0, 0.0, 0.0, 0.0, 0.0, 0.0, 0.0, 0.0, 0.0, 1.7068832503844855E9, 0.0, 2024-02-02 15:14:10.384
114.0, 63842.50537663763, 65494.94749247402, -29519.23364630147, -7678.025386098074, 17232.770291897094, 5984.299598252725, 23895.78061053522, 4891.813384510682, 40637.01369011566, 46958.310539521044, 37484.61305911697, 49620.67152508158, 23235.13009966971, 27295.21272125396, -8793.086861739977, -2467.8561053104527, -0.10200000000000001, 0.98175, 0.273, 192.0, 0.0, 0.0, 0.0, 0.0, 0.0, 0.0, 0.0, 0.0, 0.0, 1.706883250391488E9, 0.0, 2024-02-02 15:14:10.391
116.0, 63844.65114410534, 65497.11561168619, -29515.3667945107, -7675.253769785616, 17238.335876266465, 5991.049825078228, 23897.881674514018, 4895.881402001548, 40624.407306242865, 46948.81104812754, 37474.84534679, 49613.29544941133, 23225.20592513155, 27285.35560194917, -8804.240382223175, -2479.791936849587, -0.10200000000000001, 0.98175, 0.273, 192.0, 0.0, 0.0, 0.0, 0.0, 0.0, 0.0, 0.0, 0.0, 0.0, 1.7068832503998473E9, 0.0, 2024-02-02 15:14:10.399
118.0, 63846.238117961664, 65498.36730937569, -29510.3153002638, -7671.1186970613835, 17235.117225064903, 5989.149926799528, 23895.4900378573, 4894.87557350106, 40623.9379196093, 46944.72067889222, 37480.790910815114, 49616.78232154636, 23230.011550189443, 27288.21662523945, -8796.417271663819, -2473.578151891011, -0.10300000000000001, 0.981875, 0.2745, 192.0, 126.0, 96.0, 15.0, 88.0, 4.0, 80.0, 0.0, 0.0, 0.0, 1.7068832504085283E9, 0.0, 2024-02-02 15:14:10.408
120.0, 63849.34501044095, 65503.172934433576, -29499.3629454807, -7659.764010878088, 17241.465120490207, 5999.029397848773, 23906.129468218027, 4905.291486417233, 40624.16143705385, 46954.5330947081, 37484.009562016676, 49621.74440881544, 23232.7831665019, 27290.429447940525, -8794.159745473831, -2471.208866978749, -0.10300000000000001, 0.981875, 0.2745, 192.0, 0.0, 0.0, 0.0, 0.0, 0.0, 0.0, 0.0, 0.0, 0.0, 1.7068832504165747E9, 0.0, 2024-02-02 15:14:10.416
122.0, 63856.16229249982, 65512.605370593716, -29489.103494775714, -7649.057525283996, 17250.897556650347, 6009.020627620295, 23911.471535142846, 4912.153471965012, 40626.66483243285, 46954.17546679681, 37496.83946333402, 49631.48976939795, 23241.053311950363, 27299.16898002255, -8780.726347056192, -2457.976634261207, -0.10300000000000001, 0.981875, 0.2745, 192.0, 0.0, 0.0, 0.0, 0.0, 0.0, 0.0, 0.0, 0.0, 0.0, 1.7068832504235437E9, 0.0, 2024-02-02 15:14:10.423
124.0, 63855.93877505526, 65508.1126699582, -29495.339631478746, -7657.484132943647, 17248.438864760265, 6005.869031652097, 23914.980759022328, 4914.299239432721, 40632.83391390251, 46962.87029538993, 37499.745190113215, 49637.21181597851, 23248.69760855408, 27304.913378347563, -8776.457163865229, -2452.813381292031, -0.10300000000000001, 0.981875, 0.2745, 192.0, 0.0, 0.0, 0.0, 0.0, 0.0, 0.0, 0.0, 0.0, 0.0, 1.706883250431795E9, 0.0, 2024-02-02 15:14:10.431
126.0, 63853.45773142073, 65503.15058268912, -29502.380430982168, -7665.933092347753, 17247.3212775375, 6003.924429884485, 23910.599817109087, 4910.655905086506, 40617.679431161814, 46952.40967898485, 37487.71995159626, 49626.6617925956, 23241.187422417097, 27293.82691309773, -8787.521277370606, -2463.721032586221, -0.10300000000000001, 0.981875, 0.2745, 192.0, 0.0, 0.0, 0.0, 0.0, 0.0, 0.0, 0.0, 0.0, 0.0, 1.7068832504405572E9, 0.0, 2024-02-02 15:14:10.440
128.0, 63843.73472258267, 65494.232236651456, -29513.04221308735, -7677.846572142431, 17238.22411754419, 5993.374406501581, 23899.312186159157, 4901.312875904188, 40616.003050327665, 46947.91697834933, 37489.41868417486, 49624.42661815007, 23240.472166594525, 27290.87648282963, -8789.287065182574, -2468.2137332217376, -0.10250000000000001, 0.9809375, 0.27825, 192.0, 126.0, 104.0, 15.0, 80.0, 4.0, 104.0, 0.0, 0.0, 0.0, 1.7068832504485977E9, 0.0, 2024-02-02 15:14:10.448
130.0, 63841.85717604843, 65494.12047792918, -29514.74094566595, -7678.8076971540095, 17239.587573955963, 5990.625141933578, 23904.900122272986, 4900.843489270626, 40598.881614074904, 46945.324175992515, 37471.55964035507, 49609.74152204294, 23223.55189604186, 27276.50431114487, -8806.810832835536, -2484.262285740648, -0.10250000000000001, 0.9809375, 0.27825, 192.0, 0.0, 0.0, 0.0, 0.0, 0.0, 0.0, 0.0, 0.0, 0.0, 1.706883250455764E9, 0.0, 2024-02-02 15:14:10.455
132.0, 63855.93877505526, 65504.15641118961, -29502.98392808246, -7665.016670825085, 17249.77996942758, 5999.051749593228, 23908.096421730093, 4908.577192852163, 40611.19742526978, 46951.67207141782, 37491.09506500901, 49626.23710945095, 23240.047483449875, 27290.20593049597, -8785.710786069725, -2468.1243262439166, -0.10250000000000001, 0.9809375, 0.27825, 192.0, 0.0, 0.0, 0.0, 0.0, 0.0, 0.0, 0.0, 0.0, 0.0, 1.706883250463596E9, 0.0, 2024-02-02 15:14:10.463
134.0, 63851.96016454222, 65500.580132076764, -29500.50288444792, -7664.793153380532, 17248.55062348254, 5990.491031466846, 23905.72713681783, 4901.022303226269, 40609.49869269117, 46951.403850484356, 37492.79379758761, 49626.99706876243, 23241.120367183732, 27286.070857771738, -8785.777841303092, -2473.7793175911092, -0.10250000000000001, 0.9809375, 0.27825, 192.0, 0.0, 0.0, 0.0, 0.0, 0.0, 0.0, 0.0, 0.0, 0.0, 1.706883250472588E9, 0.0, 2024-02-02 15:14:10.472
136.0, 63857.861025078426, 65508.3138356583, -29494.93730007855, -7660.143990533828, 17253.736228196172, 5996.28013328077, 23915.852477056083, 4905.246782928322, 40615.98069858321, 46955.56127495304, 37498.78406510163, 49631.13214148666, 23246.641248064192, 27290.049468284782, -8779.54170460006, -2471.29827395657, -0.10250000000000001, 0.9809375, 0.27825, 192.0, 0.0, 0.0, 0.0, 0.0, 0.0, 0.0, 0.0, 0.0, 0.0, 1.7068832504796176E9, 0.0, 2024-02-02 15:14:10.479
138.0, 63857.36928670041, 65509.96786474799, -29496.501922190422, -7661.909778345797, 17252.28336480658, 5998.291790281748, 23912.455011898877, 4905.135024206045, 40611.666811903335, 46945.391231225876, 37497.08533252303, 49628.82991180777, 23244.02609396292, 27289.02128803984, -8779.407594133329, -2469.5101344001455, -0.10225000000000001, 0.98046875, 0.280125, 192.0, 126.0, 104.0, 15.0, 80.0, 4.0, 104.0, 0.0, 0.0, 0.0, 1.7068832504879248E9, 0.0, 2024-02-02 15:14:10.487
140.0, 63852.943641298254, 65509.99021649244, -29501.911044348606, -7666.827162125965, 17248.88589964937, 5995.52017396929, 23906.57650310713, 4902.564573593685, 40613.79022762659, 46959.71869942173, 37494.11255051047, 49631.310955442306, 23244.74134978549, 27293.804561353274, -8782.089803467967, -2463.586922119489, -0.10225000000000001, 0.98046875, 0.280125, 192.0, 0.0, 0.0, 0.0, 0.0, 0.0, 0.0, 0.0, 0.0, 0.0, 1.7068832504969475E9, 0.0, 2024-02-02 15:14:10.496
142.0, 63853.43537967627, 65511.04074848184, -29499.27353850288, -7661.283929501049, 17254.94322239676, 6002.04688335024, 23916.45597415638, 4910.857070786604, 40606.10122753397, 46951.35914699545, 37491.58680338703, 49625.834778050754, 23244.160204429652, 27290.92118631854, -8782.514486612617, -2467.342015187981, -0.10225000000000001, 0.98046875, 0.280125, 192.0, 0.0, 0.0, 0.0, 0.0, 0.0, 0.0, 0.0, 0.0, 0.0, 1.7068832505037048E9, 0.0, 2024-02-02 15:14:10.503
144.0, 63852.340144197966, 65510.32549265927, -29501.106381548212, -7660.769839378577, 17249.2211758162, 6000.772833916287, 23907.314110674157, 4909.314800419188, 40605.251861244666, 46958.42229824332, 37493.866681321466, 49628.27111819638, 23246.060102708354, 27297.134971277115, -8781.352195900941, -2461.0835267404946, -0.10225000000000001, 0.98046875, 0.280125, 192.0, 0.0, 0.0, 0.0, 0.0, 0.0, 0.0, 0.0, 0.0, 0.0, 1.7068832505117054E9, 0.0, 2024-02-02 15:14:10.511
146.0, 63852.40719943133, 65509.1632019476, -29501.776933881873, -7660.121638789373, 17248.84119616046, 6002.940953128452, 23911.985625265315, 4912.3993411540205, 40605.85535834496, 46962.5350192231, 37494.13490225493, 49628.7628565744, 23245.36719863024, 27295.45859044297, -8781.374547645397, -2457.887227283386, -0.10225000000000001, 0.98046875, 0.280125, 192.0, 0.0, 0.0, 0.0, 0.0, 0.0, 0.0, 0.0, 0.0, 0.0, 1.706883250519694E9, 0.0, 2024-02-02 15:14:10.519
148.0, 63851.84840581995, 65511.21956243749, -29506.180227539568, -7663.787324880043, 17242.716818179706, 6000.638723449555, 23907.269407185246, 4909.918297519481, 40602.68141063231, 46952.946120851775, 37495.85598657799, 49628.67344959658, 23245.724826541526, 27294.765686364855, -8783.095631968456, -2458.0660412390284, -0.099125, 0.979234375, 0.2800625, 192.0, 126.5, 0.0, 15.0, 72.0, 4.0, 96.0, 0.0, 0.0, 0.0, 1.706883250528757E9, 0.0, 2024-02-02 15:14:10.528
150.0, 63847.780388329076, 65506.70451005751, -29510.002375841425, -7669.352909249415, 17241.80039665704, 5999.923467626985, 23907.939959518906, 4909.761835308294, 40594.970058795225, 46960.076327333016, 37485.685942850825, 49622.43731289355, 23241.343884628284, 27291.54703516329, -8793.377434417896, -2461.6870238407882, -0.099125, 0.979234375, 0.2800625, 192.0, 0.0, 0.0, 0.0, 0.0, 0.0, 0.0, 0.0, 0.0, 0.0, 1.7068832505357127E9, 0.0, 2024-02-02 15:14:10.535
152.0, 63850.77552208609, 65511.82305953778, -29509.957672352517, -7669.844647627431, 17246.002524614636, 6003.879726395575, 23905.883599029017, 4910.678256830962, 40590.54441339307, 46954.84601913048, 37483.92015503885, 49620.24684193693, 23241.6344573062, 27289.289508973303, -8793.26567569562, -2466.5373523875896, -0.099125, 0.979234375, 0.2800625, 192.0, 0.0, 0.0, 0.0, 0.0, 0.0, 0.0, 0.0, 0.0, 0.0, 1.7068832505439508E9, 0.0, 2024-02-02 15:14:10.543
154.0, 63843.667667349306, 65505.542219345836, -29517.17728581158, -7677.712461675699, 17240.79456815655, 5993.5085169683125, 23901.413250137957, 4904.151547450012, 40593.3830849389, 46956.16477205334, 37483.67428584985, 49622.61612684919, 23245.8365852638, 27290.49650317389, -8792.706882084238, -2464.5480471310675, -0.099125, 0.979234375, 0.2800625, 192.0, 0.0, 0.0, 0.0, 0.0, 0.0, 0.0, 0.0, 0.0, 0.0, 1.7068832505517006E9, 0.0, 2024-02-02 15:14:10.551
156.0, 63840.87369929239, 65500.937759988046, -29522.295835291843, -7682.674548944778, 17236.79360589905, 5986.892400609541, 23900.340366404103, 4898.138928191534, 40580.08379698799, 46947.02290857112, 37472.85604153348, 49613.541318600335, 23236.918239226132, 27279.946479790986, -8801.826393822003, -2477.10972751495, -0.099125, 0.979234375, 0.2800625, 192.0, 0.0, 0.0, 0.0, 0.0, 0.0, 0.0, 0.0, 0.0, 0.0, 1.7068832505597298E9, 0.0, 2024-02-02 15:14:10.559
158.0, 63848.80856857402, 65507.03978622434, -29510.427058986075, -7671.56573195049, 17244.326143780487, 5995.721339669388, 23906.509447873766, 4906.342018406632, 40583.727131334206, 46944.4301062143, 37480.65680034838, 49620.78328380386, 23244.36137012975, 27284.77445659333, -8795.344387929963, -2474.0475385245727, -0.0985625, 0.9776171874999999, 0.28003125, 192.0, 126.0, 120.0, 15.0, 64.0, 4.0, 96.0, 0.0, 0.0, 0.0, 1.7068832505677693E9, 0.0, 2024-02-02 15:14:10.567
160.0, 63842.86300454891, 65504.33522514525, -29514.09274507675, -7672.61626393989, 17239.27464953359, 5993.441461734947, 23900.49682861529, 4901.49168985983, 40580.19555571026, 46958.26583603214, 37478.10870148047, 49619.218661691986, 23243.109672440252, 27290.29533747379, -8797.55721063104, -2473.48874491319, -0.0985625, 0.9776171874999999, 0.28003125, 192.0, 0.0, 0.0, 0.0, 0.0, 0.0, 0.0, 0.0, 0.0, 0.0, 1.7068832505759084E9, 0.0, 2024-02-02 15:14:10.575
162.0, 63846.05930400602, 65510.52665835937, -29513.93628286556, -7673.577388951468, 17241.710989679217, 5997.397720503535, 23902.530837360722, 4904.620934083573, 40580.68729408828, 46954.7342604082, 37482.73551258272, 49618.928089014065, 23243.355541629262, 27293.379878208623, -8799.457108909739, -2474.3604629469473, -0.0985625, 0.9776171874999999, 0.28003125, 192.0, 0.0, 0.0, 0.0, 0.0, 0.0, 0.0, 0.0, 0.0, 0.0, 1.706883250583745E9, 0.0, 2024-02-02 15:14:10.583
164.0, 63840.20314695873, 65503.7093763005, -29518.02665210088, -7680.506429732613, 17236.83830938796, 5990.133403555561, 23899.334537903615, 4898.943590991926, 40579.61441035443, 46955.941254608784, 37480.343875926, 49617.98931574694, 23241.947381728576, 27293.893968331096, -8801.64757986636, -2475.0980705139723, -0.0985625, 0.9776171874999999, 0.28003125, 192.0, 0.0, 0.0, 0.0, 0.0, 0.0, 0.0, 0.0, 0.0, 0.0, 1.7068832505917792E9, 0.0, 2024-02-02 15:14:10.591
166.0, 63841.87952779288, 65503.61996932268, -29517.37845151168, -7680.081746587962, 17238.89466987785, 5990.155755300017, 23897.21112218036, 4898.988294480836, 40577.781567309095, 46952.2308650292, 37477.08052123553, 49613.85424302271, 23240.427463105618, 27289.289508973303, -8805.179155490297, -2481.1777450058157, -0.0985625, 0.9776171874999999, 0.28003125, 192.0, 0.0, 0.0, 0.0, 0.0, 0.0, 0.0, 0.0, 0.0, 0.0, 1.7068832505997746E9, 0.0, 2024-02-02 15:14:10.599
168.0, 63842.63948710436, 65505.20694317901, -29515.657367188618, -7676.885447130853, 17241.50982397912, 5987.831173876664, 23903.581369350122, 4900.239992170334, 40572.30538991754, 46944.81008587004, 37475.24767819019, 49614.39068488964, 23238.75108227147, 27285.73558160491, -8804.329789200996, -2481.714186872743, -0.09828125, 0.97780859375, 0.282015625, 192.0, 126.0, 120.0, 15.0, 72.0, 4.0, 112.0, 0.0, 0.0, 0.0, 1.7068832506090038E9, 0.0, 2024-02-02 15:14:10.609
170.0, 63840.76194057011, 65500.021338465376, -29521.13354458017, -7680.819354154987, 17234.40196924233, 5984.165487785994, 23894.551264590176, 4896.060215957191, 40576.373407408406, 46958.66816743233, 37476.83465204652, 49617.944612258034, 23241.6344573062, 27288.551901406277, -8804.530954901094, -2481.8259455950197, -0.09828125, 0.97780859375, 0.282015625, 192.0, 0.0, 0.0, 0.0, 0.0, 0.0, 0.0, 0.0, 0.0, 0.0, 1.7068832506158593E9, 0.0, 2024-02-02 15:14:10.615
172.0, 63840.29255393655, 65502.122402444176, -29522.69816669204, -7678.47242098718, 17233.2173267862, 5987.317083754192, 23892.494904100287, 4896.954285735404, 40565.197535180756, 46943.62544341391, 37471.29141942161, 49612.714304055495, 23235.26421013644, 27281.421694925037, -8810.968257304223, -2490.9007538438746, -0.09828125, 0.97780859375, 0.282015625, 192.0, 0.0, 0.0, 0.0, 0.0, 0.0, 0.0, 0.0, 0.0, 0.0, 1.706883250623863E9, 0.0, 2024-02-02 15:14:10.623
174.0, 63842.37126617089, 65504.134059445154, -29520.64180620215, -7681.37814776637, 17235.45250123173, 5987.048862820729, 23899.11102045906, 4899.077701458657, 40567.87974451539, 46954.66720517483, 37476.90170727989, 49618.19048144704, 23238.862840993745, 27289.31186071776, -8805.64854212386, -2484.39639620738, -0.09828125, 0.97780859375, 0.282015625, 192.0, 0.0, 0.0, 0.0, 0.0, 0.0, 0.0, 0.0, 0.0, 0.0, 1.7068832506319628E9, 0.0, 2024-02-02 15:14:10.631
176.0, 63847.556870884524, 65507.978559491465, -29516.394974755643, -7681.400499510825, 17238.425283244287, 5992.23446753436, 23897.792267536195, 4900.195288681422, 40562.15769793483, 46954.48839121919, 37475.73941656821, 49613.25074592242, 23237.78995725989, 27283.388648437103, -8807.391978191374, -2487.6373991533997, -0.09828125, 0.97780859375, 0.282015625, 192.0, 0.0, 0.0, 0.0, 0.0, 0.0, 0.0, 0.0, 0.0, 0.0, 1.706883250639814E9, 0.0, 2024-02-02 15:14:10.639
178.0, 63848.94267904075, 65509.453774625516, -29513.198675298536, -7680.282912288059, 17237.821786143995, 5992.6144471901, 23898.216950680846, 4901.335227648643, 40567.276247415095, 46951.06857431753, 37484.12132073895, 49620.313897170294, 23242.12619568422, 27288.19427349499, -8802.228725222198, -2483.748195618176, -0.09814062500000001, 0.977904296875, 0.2820078125, 192.0, 126.0, 120.0, 15.0, 72.0, 4.0, 104.0, 0.0, 0.0, 0.0, 1.7068832506481028E9, 0.0, 2024-02-02 15:14:10.648
180.0, 63847.8697953069, 65512.35950140471, -29510.851742130726, -7682.0934035889395, 17238.402931499833, 5990.580438444667, 23907.045889740693, 4899.614143325584, 40568.14796544886, 46961.618597700435, 37484.0989689945, 49624.13604547215, 23245.702474797068, 27290.474151429436, -8799.479460654195, -2483.1223467734276, -0.09814062500000001, 0.977904296875, 0.2820078125, 192.0, 0.0, 0.0, 0.0, 0.0, 0.0, 0.0, 0.0, 0.0, 0.0, 1.7068832506559014E9, 0.0, 2024-02-02 15:14:10.655
182.0, 63851.17785348629, 65515.62285609518, -29512.617529942698, -7681.512258233101, 17237.84413788845, 5991.876839623075, 23901.346194904592, 4897.222506668867, 40565.28694215858, 46954.04135633008, 37485.08244575053, 49622.90669952711, 23247.043579464385, 27290.45179968498, -8798.8759635539, -2483.591733406989, -0.09814062500000001, 0.977904296875, 0.2820078125, 192.0, 0.0, 0.0, 0.0, 0.0, 0.0, 0.0, 0.0, 0.0, 0.0, 1.7068832506641479E9, 0.0, 2024-02-02 15:14:10.664
184.0, 63844.986420272166, 65508.15737344711, -29518.004300356424, -7686.742566435643, 17232.010332585614, 5983.51728719679, 23887.152837175472, 4888.438271097931, 40560.79424152306, 46953.2813970186, 37479.114529980965, 49617.76579830239, 23245.54601258588, 27288.037811283808, -8805.581486890494, -2487.0562537975616, -0.09814062500000001, 0.977904296875, 0.2820078125, 192.0, 0.0, 0.0, 0.0, 0.0, 0.0, 0.0, 0.0, 0.0, 0.0, 1.7068832506709251E9, 0.0, 2024-02-02 15:14:10.670
186.0, 63828.80375728652, 65493.449925595516, -29525.55918998232, -7694.297456061538, 17228.858736617414, 5980.4774499508685, 23889.365659876545, 4887.521849575263, 40549.97599720669, 46943.021946313616, 37472.02902698863, 49607.84162376424, 23240.85214625027, 27281.06406701375, -8809.69420787027, -2490.5431259325896, -0.09814062500000001, 0.977904296875, 0.2820078125, 192.0, 0.0, 0.0, 0.0, 0.0, 0.0, 0.0, 0.0, 0.0, 0.0, 1.7068832506800597E9, 0.0, 2024-02-02 15:14:10.680
188.0, 63833.519975366595, 65495.618044807685, -29519.680681190574, -7690.743528693143, 17233.954934353227, 5984.389005230547, 23890.438543610402, 4891.589867066129, 40542.84579072545, 46929.54384440707, 37471.44788163279, 49604.26534465139, 23240.44981485007, 27279.097113501684, -8806.676722368804, -2489.9843323212067, -0.09814062500000001, 0.977904296875, 0.2820078125, 192.0, 0.0, 0.0, 0.0, 0.0, 0.0, 0.0, 0.0, 0.0, 0.0, 1.7068832506879427E9, 0.0, 2024-02-02 15:14:10.687
190.0, 63830.234268931665, 65492.98053896196, -29522.94403588105, -7696.733796207166, 17232.30090526353, 5980.94683658443, 23892.986642478307, 4890.785204265739, 40541.32587210248, 46939.28920498958, 37468.67626532033, 49605.96407722999, 23241.232125906008, 27278.91829954604, -8808.800138092058, -2489.6043526654666, -0.098, 0.97, 0.276, 192.0, 126.0, 120.0, 15.0, 40.0, 4.0, 80.0, 0.0, 0.0, 0.0, 1.7068832506962976E9, 0.0, 2024-02-02 15:14:10.696
192.0, 63828.37907414187, 65490.14186741613, -29526.386204527167, -7692.464613016202, 17234.31256226451, 5981.907961596008, 23896.697032057888, 4891.589867066129, 40537.77194473409, 46932.91895781982, 37467.80454728658, 49603.281867895355, 23240.60627706126, 27273.956212276964, -8808.062530525032, -2490.6772363993214, -0.098, 0.97, 0.276, 192.0, 0.0, 0.0, 0.0, 0.0, 0.0, 0.0, 0.0, 0.0, 0.0, 1.7068832507029157E9, 0.0, 2024-02-02 15:14:10.702
194.0, 63832.268277677096, 65497.94262623104, -29523.41342251461, -7686.049662357529, 17236.055998332024, 5989.351092499625, 23902.39672689399, 4899.3682741365765, 40540.90118895783, 46940.96558582373, 37471.31377116606, 49611.2614406659, 23245.16603293014, 27282.047543769782, -8801.513469399628, -2481.982407806207, -0.098, 0.97, 0.276, 192.0, 0.0, 0.0, 0.0, 0.0, 0.0, 0.0, 0.0, 0.0, 0.0, 1.7068832507122424E9, 0.0, 2024-02-02 15:14:10.712
196.0, 63835.64339108985, 65498.43436460905, -29525.93916963806, -7685.870848401886, 17230.4680622182, 5989.261685521804, 23894.4395058679, 4896.35078863511, 40532.78750572056, 46943.69249864727, 37467.75984379767, 49610.09914995422, 23238.639323549192, 27283.858035070665, -8808.822489836513, -2483.748195618176, -0.098, 0.97, 0.276, 192.0, 0.0, 0.0, 0.0, 0.0, 0.0, 0.0, 0.0, 0.0, 0.0, 1.706883250719995E9, 0.0, 2024-02-02 15:14:10.719
198.0, 63842.97476327119, 65500.937759988046, -29515.45620148852, -7676.796040153032, 17234.290210520056, 5991.541563456245, 23892.137276189005, 4897.200154924411, 40539.247159868144, 46942.06082130204, 37478.28751543612, 49612.49078661094, 23247.200041675573, 27287.188444994503, -8803.770995589613, -2479.9707508052293, -0.098, 0.97, 0.276, 192.0, 0.0, 0.0, 0.0, 0.0, 0.0, 0.0, 0.0, 0.0, 0.0, 1.706883250727438E9, 0.0, 2024-02-02 15:14:10.727
200.0, 63834.570507355995, 65493.159352917595, -29516.618492200196, -7678.204200053716, 17231.853870374427, 5987.339435498648, 23894.193636678894, 4895.9037537460035, 40531.893435942344, 46943.156056780346, 37475.73941656821, 49609.406245876104, 23245.054274207865, 27286.674354872033, -8806.006170035145, -2482.272980484126, -0.098, 0.98, 0.276, 192.0, 126.0, 120.0, 15.0, 80.0, 4.0, 80.0, 0.0, 0.0, 0.0, 1.706883250735988E9, 0.0, 2024-02-02 15:14:10.735
202.0, 63844.718199338706, 65503.7093763005, -29507.901311862628, -7674.0467755850295, 17243.83440540247, 5992.189764045449, 23906.688261829408, 4903.704512560906, 40535.02268016609, 46943.42427771381, 37486.13297773993, 49616.24587967943, 23251.715094055548, 27289.915357818052, -8795.947885030257, -2479.948399060774, -0.098, 0.98, 0.276, 192.0, 0.0, 0.0, 0.0, 0.0, 0.0, 0.0, 0.0, 0.0, 0.0, 1.7068832507440195E9, 0.0, 2024-02-02 15:14:10.744
204.0, 63842.99711501564, 65500.3119111433, -29514.539779965853, -7684.1497640788275, 17236.614791943408, 5982.5338104407565, 23897.658157069465, 4893.981503722847, 40535.02268016609, 46946.10648704845, 37484.143672483406, 49618.48105412496, 23254.821986534833, 27286.093209516195, -8796.618437363915, -2484.7763758631204, -0.098, 0.98, 0.276, 192.0, 0.0, 0.0, 0.0, 0.0, 0.0, 0.0, 0.0, 0.0, 0.0, 1.706883250751235E9, 0.0, 2024-02-02 15:14:10.751
206.0, 63852.943641298254, 65507.46446936899, -29506.806076384317, -7675.298473274526, 17245.26491704761, 5992.2791710232705, 23902.374375149535, 4901.692855559928, 40536.520247044595, 46948.14049579388, 37484.97068702825, 49620.537414614846, 23257.28067842492, 27284.863863571154, -8794.919704785312, -2483.1670502623383, -0.098, 0.98, 0.276, 192.0, 0.0, 0.0, 0.0, 0.0, 0.0, 0.0, 0.0, 0.0, 0.0, 1.7068832507590504E9, 0.0, 2024-02-02 15:14:10.759
208.0, 63853.658897120826, 65510.90663801511, -29504.570901938787, -7672.906836617808, 17247.50009149314, 5989.418147732991, 23910.532761875722, 4904.173899194468, 40535.24619761064, 46940.09386778997, 37488.43520741883, 49623.30903092731, 23263.315649427852, 27285.73558160491, -8790.136431471878, -2476.595637392478, -0.098, 0.98, 0.276, 192.0, 0.0, 0.0, 0.0, 0.0, 0.0, 0.0, 0.0, 0.0, 0.0, 1.7068832507680852E9, 0.0, 2024-02-02 15:14:10.768
210.0, 63845.545213883546, 65506.458640868506, -29510.583521197263, -7675.90197037482, 17244.728475180684, 5987.831173876664, 23905.749488562287, 4901.804614282205, 40536.252026111135, 46947.76051613814, 37488.614021374466, 49625.03011525037, 23266.646059351693, 27286.11556126065, -8792.461012895228, -2475.500401914168, -0.096, 0.982, 0.28, 192.0, 126.5, 0.0, 15.0, 88.0, 4.0, 96.0, 0.0, 0.0, 0.0, 1.706883250776084E9, 0.0, 2024-02-02 15:14:10.776
212.0, 63848.69680985175, 65509.520829858884, -29508.258939773914, -7669.0623365714955, 17246.427207759287, 5995.497822224835, 23904.989529250804, 4905.112672461591, 40528.18304636276, 46943.04429805807, 37487.2505649627, 49622.61612684919, 23262.510986627458, 27286.58494789421, -8793.64565535136, -2474.3828146914025, -0.096, 0.982, 0.28, 192.0, 0.0, 0.0, 0.0, 0.0, 0.0, 0.0, 0.0, 0.0, 0.0, 1.7068832507833436E9, 0.0, 2024-02-02 15:14:10.783
214.0, 63843.511205138115, 65502.23416116645, -29515.03151834387, -7679.053566343018, 17236.65949543232, 5986.825345376175, 23896.361755891056, 4896.954285735404, 40521.79044744855, 46945.52534169261, 37484.0989689945, 49617.743446557935, 23260.36521915975, 27284.461532170957, -8797.35604493094, -2475.6121606364445, -0.096, 0.982, 0.28, 192.0, 0.0, 0.0, 0.0, 0.0, 0.0, 0.0, 0.0, 0.0, 0.0, 1.706883250792117E9, 0.0, 2024-02-02 15:14:10.792
216.0, 63855.35762969943, 65516.449870640026, -29505.64378567264, -7669.174095293773, 17248.438864760265, 5996.7942234032425, 23908.83402929712, 4905.49265211733, 40524.316194572, 46947.268777760124, 37488.07757950754, 49621.319725670786, 23264.03090525042, 27286.36143044966, -8796.685492597282, -2475.7462711031762, -0.096, 0.982, 0.28, 192.0, 0.0, 0.0, 0.0, 0.0, 0.0, 0.0, 0.0, 0.0, 0.0, 1.7068832508001053E9, 0.0, 2024-02-02 15:14:10.800
218.0, 63860.856158835435, 65523.222449209985, -29504.347384494235, -7665.687223158744, 17245.801358914538, 5998.09062458165, 23897.434639624913, 4903.056311971702, 40528.272453340585, 46953.370803996426, 37498.49349242372, 49635.088400255256, 23269.820007064343, 27295.63740439861, -8788.772975060103, -2471.074756512017, -0.096, 0.982, 0.28, 192.0, 0.0, 0.0, 0.0, 0.0, 0.0, 0.0, 0.0, 0.0, 0.0, 1.7068832508071442E9, 0.0, 2024-02-02 15:14:10.807
220.0, 63855.58114714398, 65521.43430965356, -29508.30364326282, -7663.966138835685, 17247.1201118374, 5999.655246693522, 23912.186790965414, 4910.030056241758, 40521.96926140419, 46962.82559190102, 37488.72578009675, 49634.97664153298, 23261.482806382515, 27297.202026510484, -8797.400748419852, -2475.433346680802, -0.098, 0.982, 0.278, 192.0, 126.0, 120.0, 15.0, 88.0, 4.0, 88.0, 0.0, 0.0, 0.0, 1.7068832508155231E9, 0.0, 2024-02-02 15:14:10.815
222.0, 63855.961126799724, 65519.176783463576, -29508.16953279609, -7661.619205667878, 17243.923812380293, 6001.912772883507, 23907.939959518906, 4909.918297519481, 40528.138342873855, 46960.79158315559, 37491.072713264555, 49635.51308339991, 23261.773379060436, 27299.16898002255, -8791.83516405048, -2469.666596611333, -0.098, 0.982, 0.278, 192.0, 0.0, 0.0, 0.0, 0.0, 0.0, 0.0, 0.0, 0.0, 0.0, 1.706883250824124E9, 0.0, 2024-02-02 15:14:10.824
224.0, 63852.69777210925, 65512.940646760544, -29513.153971809625, -7669.084688315951, 17236.726550665684, 5994.693159424443, 23900.63093908202, 4905.49265211733, 40537.32490984499, 46960.72452792222, 37487.0493992626, 49629.45576065252, 23258.957059259064, 27298.16315152206, -8796.484326897184, -2468.0572710105507, -0.098, 0.982, 0.278, 192.0, 0.0, 0.0, 0.0, 0.0, 0.0, 0.0, 0.0, 0.0, 0.0, 1.7068832508311632E9, 0.0, 2024-02-02 15:14:10.831
226.0, 63851.33431569747, 65513.32062641629, -29513.735117165463, -7673.555037207012, 17236.547736710043, 5993.75438615732, 23901.837933282608, 4905.336189906143, 40550.646549540346, 46960.4339552443, 37482.71316083827, 49623.823121049776, 23257.057160980363, 27294.184541009017, -8800.619399621415, -2473.6452071243775, -0.098, 0.982, 0.278, 192.0, 0.0, 0.0, 0.0, 0.0, 0.0, 0.0, 0.0, 0.0, 0.0, 1.7068832508393664E9, 0.0, 2024-02-02 15:14:10.839
228.0, 63854.8211878325, 65515.15346946162, -29511.3658322532, -7676.371357008381, 17238.64880068884, 5994.112014068605, 23899.53570360371, 4906.632591084551, 40568.01385498212, 46951.895588862375, 37483.36136142747, 49622.213795448995, 23256.565422602347, 27290.965889807452, -8802.742815344669, -2478.719053115732, -0.098, 0.982, 0.278, 192.0, 0.0, 0.0, 0.0, 0.0, 0.0, 0.0, 0.0, 0.0, 0.0, 1.706883250847176E9, 0.0, 2024-02-02 15:14:10.847
230.0, 63849.27795520759, 65516.3157601733, -29513.310434020812, -7679.56765646549, 17237.2182890437, 5990.446327977936, 23896.853494269075, 4902.899849760514, 40585.60467786845, 46958.93638836579, 37484.635410861425, 49625.834778050754, 23260.052294737376, 27293.134009019617, -8799.010074020634, -2473.48874491319, -0.098, 0.982, 0.274, 192.0, 126.0, 120.0, 15.0, 88.0, 4.0, 72.0, 0.0, 0.0, 0.0, 1.7068832508561764E9, 0.0, 2024-02-02 15:14:10.856
232.0, 63857.95043205624, 65524.429443410576, -29505.39791648363, -7673.085650573451, 17250.763446183617, 5998.314142026204, 23918.35587243508, 4914.7462743218275, 40596.646439629374, 46950.062745817035, 37484.41189341687, 49623.0631617383, 23253.659695823157, 27286.473189171935, -8797.803079820047, -2475.4780501697123, -0.098, 0.982, 0.274, 192.0, 0.0, 0.0, 0.0, 0.0, 0.0, 0.0, 0.0, 0.0, 0.0, 1.7068832508633394E9, 0.0, 2024-02-02 15:14:10.863
234.0, 63854.3741529434, 65522.73071083197, -29510.80703864182, -7675.499638974624, 17243.141501324357, 5992.793261145743, 23909.68339558642, 4907.2584399293, 40617.79118988409, 46964.837248902, 37491.25152722019, 49633.76964733239, 23257.32538191383, 27296.754991621376, -8790.0246727496, -2468.4372506662908, -0.098, 0.982, 0.274, 192.0, 0.0, 0.0, 0.0, 0.0, 0.0, 0.0, 0.0, 0.0, 0.0, 1.7068832508712387E9, 0.0, 2024-02-02 15:14:10.871
236.0, 63860.990269302165, 65522.8648212987, -29510.94114910855, -7672.571560450979, 17245.89076589236, 5998.09062458165, 23908.49875313029, 4908.197213196423, 40622.172131797335, 46961.596245955974, 37482.824919560546, 49626.59473736224, 23245.16603293014, 27289.468322928948, -8801.155841488344, -2476.9309135593076, -0.098, 0.982, 0.274, 192.0, 0.0, 0.0, 0.0, 0.0, 0.0, 0.0, 0.0, 0.0, 0.0, 1.7068832508792434E9, 0.0, 2024-02-02 15:14:10.879
238.0, 63861.83963559147, 65523.378911421176, -29514.22685554348, -7671.699842417222, 17245.13080658088, 6001.644551950044, 23911.672700842944, 4910.499442875319, 40643.04866111859, 46964.412565757346, 37494.51488191067, 49637.033002022865, 23255.55959410186, 27302.722907390944, -8787.990664004166, -2463.7657360751314, -0.098, 0.982, 0.274, 192.0, 0.0, 0.0, 0.0, 0.0, 0.0, 0.0, 0.0, 0.0, 0.0, 1.7068832508875206E9, 0.0, 2024-02-02 15:14:10.887
240.0, 63850.01556277461, 65513.47708862747, -29526.587370227266, -7683.6803774452665, 17233.664361675306, 5993.240296034849, 23896.16059019096, 4899.59179158113, 40641.6405012179, 46960.92569362232, 37478.89101253641, 49626.43827515105, 23242.662637551148, 27296.509122432366, -8803.011036278134, -2475.858029825453, -0.10200000000000001, 0.982, 0.276, 192.0, 126.0, 104.0, 15.0, 88.0, 4.0, 80.0, 0.0, 0.0, 0.0, 1.7068832508952365E9, 0.0, 2024-02-02 15:14:10.895
242.0, 63855.91642331081, 65514.974655505976, -29521.71468993601, -7675.007900596607, 17239.207594300224, 5999.878764138075, 23900.697994315386, 4902.139890449034, 40649.68712922181, 46952.76730689613, 37481.215593959765, 49626.8629582957, 23245.702474797068, 27300.465381200956, -8798.674797853804, -2471.655901867855, -0.10200000000000001, 0.982, 0.276, 192.0, 0.0, 0.0, 0.0, 0.0, 0.0, 0.0, 0.0, 0.0, 0.0, 1.7068832509032335E9, 0.0, 2024-02-02 15:14:10.903
244.0, 63848.38388542937, 65506.39158563514, -29525.38037602668, -7679.165325065294, 17233.08321631947, 5992.927371612474, 23895.78061053522, 4893.087433944635, 40655.40917580237, 46955.874199375416, 37480.14271022591, 49627.55586237382, 23246.12715794172, 27303.16994228005, -8799.79238507657, -2471.3429774454808, -0.10200000000000001, 0.982, 0.276, 192.0, 0.0, 0.0, 0.0, 0.0, 0.0, 0.0, 0.0, 0.0, 0.0, 1.706883250912264E9, 0.0, 2024-02-02 15:14:10.912
246.0, 63859.8726820794, 65520.093204986246, -29518.630149201173, -7676.170191308283, 17241.576879212487, 5998.023569348285, 23903.804886794675, 4897.893059002526, 40659.58895201552, 46959.87516163292, 37481.841442804514, 49624.71719082799, 23245.36719863024, 27298.386668966614, -8799.077129254, -2472.549971646067, -0.10200000000000001, 0.982, 0.276, 192.0, 0.0, 0.0, 0.0, 0.0, 0.0, 0.0, 0.0, 0.0, 0.0, 1.7068832509194815E9, 0.0, 2024-02-02 15:14:10.919
248.0, 63864.16421701482, 65521.59077186475, -29518.36192826771, -7673.085650573451, 17240.191071056255, 5997.576534459178, 23901.726174560332, 4898.273038658266, 40670.474251565254, 46958.310539521044, 37489.08340800803, 49627.62291760718, 23248.518794598436, 27300.890064345607, -8793.131565228889, -2469.1525064888606, -0.10200000000000001, 0.982, 0.276, 192.0, 0.0, 0.0, 0.0, 0.0, 0.0, 0.0, 0.0, 0.0, 0.0, 1.7068832509273264E9, 0.0, 2024-02-02 15:14:10.927
250.0, 63872.41201071883, 65527.02224576739, -29512.975157853984, -7667.274197015071, 17247.097760092947, 6001.8457176501415, 23906.688261829408, 4902.743387549328, 40686.45574885079, 46976.05782461856, 37496.101855766996, 49640.65398462462, 23258.666486581147, 27311.3953842396, -8784.615550591416, -2460.211808706738, -0.098, 0.982, 0.278, 192.0, 126.0, 120.0, 15.0, 88.0, 4.0, 88.0, 0.0, 0.0, 0.0, 1.7068832509353096E9, 0.0, 2024-02-02 15:14:10.935
252.0, 63862.01844954711, 65514.16999270559, -29524.50865799292, -7678.025386098074, 17240.79456815655, 5994.179069301971, 23904.25192168378, 4895.412015367987, 40686.276934895155, 46963.29497853458, 37490.08923650852, 49631.512121142405, 23254.263192923452, 27303.728735891433, -8784.973178502702, -2467.6102361214444, -0.098, 0.982, 0.278, 192.0, 0.0, 0.0, 0.0, 0.0, 0.0, 0.0, 0.0, 0.0, 0.0, 1.706883250943436E9, 0.0, 2024-02-02 15:14:10.943
254.0, 63857.81632158951, 65516.15929796211, -29528.442565017056, -7684.060357101007, 17235.541908209554, 5989.686368666455, 23892.24903491128, 4887.410090852987, 40684.71231278328, 46958.467001732235, 37481.1485387264, 49622.77258906038, 23245.07662595232, 27297.626709655135, -8795.031463507588, -2477.199134492771, -0.098, 0.982, 0.278, 192.0, 0.0, 0.0, 0.0, 0.0, 0.0, 0.0, 0.0, 0.0, 0.0, 1.706883250951296E9, 0.0, 2024-02-02 15:14:10.951
0.0, 63864.566548415016, 65524.49649864394, -29522.474649247488, -7676.684281430756, 17241.532175723576, 5997.263610036804, 23897.412287880456, 4891.992198466325, 40688.91444074088, 46960.74687966667, 37481.52851838214, 49622.45966463801, 23244.584887574303, 27296.553825921277, -8797.579562375495, -2476.439175181291, -0.098, 0.982, 0.278, 192.0, 0.0, 0.0, 0.0, 0.0, 0.0, 0.0, 0.0, 0.0, 0.0, 1.7068832509593287E9, 0.0, 2024-02-02 15:14:10.959
2.0, 63866.086467037974, 65523.982408521464, -29519.121887579193, -7673.9350168627525, 17246.047228103547, 6000.035226349262, 23908.49875313029, 4896.775471779761, 40699.129187956954, 46963.60790295695, 37489.97747778624, 49628.718153085494, 23250.0387132214, 27304.421639969547, -8788.392995404363, -2469.957169289252, -0.098, 0.982, 0.278, 192.0, 0.0, 0.0, 0.0, 0.0, 0.0, 0.0, 0.0, 0.0, 0.0, 1.7068832509683487E9, 0.0, 2024-02-02 15:14:10.968
4.0, 63853.81535933201, 65514.52762061687, -29531.99649238545, -7685.535572235057, 17232.70323666373, 5987.272380265282, 23892.40549712247, 4885.711358274384, 40706.9075950274, 46968.748804181676, 37486.71412309577, 49627.55586237382, 23248.22822192052, 27302.07470680174, -8794.36091117393, -2474.6957391137767, -0.098, 0.986, 0.28, 192.0, 126.0, 120.0, 15.0, 104.0, 4.0, 96.0, 0.0, 0.0, 0.0, 1.7068832509755995E9, 0.0, 2024-02-02 15:14:10.975
6.0, 63860.65499313534, 65521.07668174228, -29525.089803348757, -7677.623054697879, 17239.3193530225, 5994.648455935533, 23904.7436600618, 4893.422710111465, 40703.040743236634, 46959.83045814401, 37481.75203582669, 49619.66569658109, 23238.639323549192, 27294.519817175846, -8800.977027532701, -2482.272980484126, -0.098, 0.986, 0.28, 192.0, 0.0, 0.0, 0.0, 0.0, 0.0, 0.0, 0.0, 0.0, 0.0, 1.7068832509833453E9, 0.0, 2024-02-02 15:14:10.983
8.0, 63854.30709771003, 65516.33811191775, -29535.259847075922, -7689.7153484482, 17225.79654762704, 5983.316121496692, 23882.39191560649, 4879.430518082442, 40714.306022442106, 46968.65939720385, 37482.42258816035, 49621.07385648178, 23243.959038729554, 27299.861884100665, -8800.462937410228, -2479.523715916123, -0.098, 0.986, 0.28, 192.0, 0.0, 0.0, 0.0, 0.0, 0.0, 0.0, 0.0, 0.0, 0.0, 1.7068832509913757E9, 0.0, 2024-02-02 15:14:10.991
10.0, 63856.20699598873, 65515.24287643944, -29537.0703383768, -7692.062281616007, 17229.149309295335, 5981.013891817795, 23891.265558155246, 4879.162297148979, 40709.58980436204, 46968.36882452593, 37472.185489199815, 49614.34598140073, 23234.526602569415, 27293.446933441992, -8808.911896814334, -2490.811346866053, -0.098, 0.986, 0.28, 192.0, 0.0, 0.0, 0.0, 0.0, 0.0, 0.0, 0.0, 0.0, 0.0, 1.7068832509994168E9, 0.0, 2024-02-02 15:14:10.999
12.0, 63858.1739495008, 65514.46056538351, -29537.56207675482, -7692.263447316104, 17228.769329639596, 5980.298635995226, 23889.29860464318, 4877.843544226115, 40716.96588003229, 46957.01413834264, 37475.29238167911, 49613.02722847787, 23237.432329348605, 27291.68114563002, -8804.016864778623, -2489.224373009726, -0.098, 0.986, 0.28, 192.0, 0.0, 0.0, 0.0, 0.0, 0.0, 0.0, 0.0, 0.0, 0.0, 1.7068832510077069E9, 0.0, 2024-02-02 15:14:11.007
14.0, 63860.27501347959, 65513.45473688302, -29539.1714023556, -7690.028272870573, 17225.774195882583, 5977.929351082963, 23887.73398253131, 4876.390680836521, 40726.08539177005, 46968.458231503755, 37476.63348634642, 49618.12342621368, 23238.482861338005, 27296.30795673227, -8805.335617701485, -2488.106785786961, -0.098, 0.984, 0.28, 192.0, 126.0, 120.0, 15.0, 96.0, 4.0, 96.0, 0.0, 0.0, 0.0, 1.706883251015398E9, 0.0, 2024-02-02 15:14:11.015
16.0, 63861.37024895791, 65512.53831536035, -29540.51250702292, -7694.073938616984, 17224.678960404275, 5973.771926614276, 23879.01680219374, 4869.573398777652, 40723.58199639106, 46957.75174590966, 37473.90657352288, 49613.65307732261, 23230.995026945475, 27285.333250204712, -8809.873021825913, -2495.1475852903827, -0.098, 0.984, 0.28, 192.0, 0.0, 0.0, 0.0, 0.0, 0.0, 0.0, 0.0, 0.0, 0.0, 1.7068832510244315E9, 0.0, 2024-02-02 15:14:11.024
18.0, 63867.293461238565, 65518.617989852195, -29533.449355775043, -7690.207086826216, 17233.776120397582, 5979.5386766837455, 23895.6912035574, 4879.005834937791, 40730.376926705474, 46960.47865873321, 37481.10383523749, 49620.537414614846, 23236.31474212584, 27291.524683418833, -8800.664103110326, -2490.8336986105082, -0.098, 0.984, 0.28, 192.0, 0.0, 0.0, 0.0, 0.0, 0.0, 0.0, 0.0, 0.0, 0.0, 1.7068832510315883E9, 0.0, 2024-02-02 15:14:11.031
20.0, 63862.51018792513, 65515.15346946162, -29534.85751567573, -7693.023406627585, 17231.920925607792, 5980.3656912285915, 23888.225720909326, 4877.552971548196, 40732.72385987328, 46958.80227789906, 37479.874489292444, 49619.263365180894, 23234.995989202976, 27290.720020618443, -8798.74185308717, -2489.7608148766535, -0.098, 0.984, 0.28, 192.0, 0.0, 0.0, 0.0, 0.0, 0.0, 0.0, 0.0, 0.0, 0.0, 1.706883251039411E9, 0.0, 2024-02-02 15:14:11.039
22.0, 63864.208920503734, 65516.47222238449, -29530.834201673773, -7690.028272870573, 17233.776120397582, 5983.338473241148, 23888.270424398237, 4876.793012236716, 40730.667499383395, 46950.5321324506, 37480.790910815114, 49617.13994945764, 23234.01251244694, 27288.507197917366, -8799.702978098749, -2489.0679107985393, -0.098, 0.984, 0.28, 192.0, 0.0, 0.0, 0.0, 0.0, 0.0, 0.0, 0.0, 0.0, 0.0, 1.7068832510476513E9, 0.0, 2024-02-02 15:14:11.047
24.0, 63865.41591470432, 65517.992141007446, -29537.09269012126, -7691.257618815615, 17231.473890718687, 5982.265589507293, 23885.141180174494, 4875.071927913657, 40734.10966802951, 46964.613731457444, 37482.6461056049, 49623.823121049776, 23237.588791559792, 27296.173846265538, -8796.260809452631, -2480.5295444166118, -0.098, 0.978, 0.278, 192.0, 126.0, 120.0, 15.0, 72.0, 4.0, 88.0, 0.0, 0.0, 0.0, 1.7068832510554636E9, 0.0, 2024-02-02 15:14:11.055
26.0, 63868.36634497242, 65519.42265265258, -29540.490155278465, -7687.658987958311, 17228.970495339694, 5986.870048865087, 23878.145084159984, 4874.311968602177, 40727.27003422619, 46961.260969789146, 37478.51103288067, 49620.35860065921, 23226.345864098774, 27295.3915352096, -8803.323960700507, -2483.2117537512486, -0.098, 0.978, 0.278, 192.0, 0.0, 0.0, 0.0, 0.0, 0.0, 0.0, 0.0, 0.0, 0.0, 1.70688325106349E9, 0.0, 2024-02-02 15:14:11.063
28.0, 63859.47035067921, 65510.0125682369, -29539.238457588966, -7692.7775374385765, 17230.803338385027, 5980.835077862153, 23893.45602911187, 4873.172029634957, 40728.47702842677, 46958.26583603214, 37482.02025676015, 49624.09134198324, 23230.033901933897, 27296.576177665735, -8796.618437363915, -2475.9697885477294, -0.098, 0.978, 0.278, 192.0, 0.0, 0.0, 0.0, 0.0, 0.0, 0.0, 0.0, 0.0, 0.0, 1.7068832510714877E9, 0.0, 2024-02-02 15:14:11.071
30.0, 63869.327469984, 65518.50623112992, -29528.062585361313, -7684.753261179121, 17238.760559411116, 5988.009987832307, 23900.318014659646, 4878.514096559775, 40722.21853997929, 46955.33775750849, 37481.12618698194, 49623.15256871612, 23227.64226527718, 27290.049468284782, -8794.807946063036, -2480.7977653500757, -0.098, 0.978, 0.278, 192.0, 0.0, 0.0, 0.0, 0.0, 0.0, 0.0, 0.0, 0.0, 0.0, 1.706883251078519E9, 0.0, 2024-02-02 15:14:11.078
32.0, 63873.7754671306, 65525.07764399978, -29524.32984403728, -7678.405365753814, 17242.627411201884, 5992.145060556539, 23899.78157279272, 4880.793974494216, 40724.34195570254, 46959.60694069946, 37493.509053410184, 49632.74146708745, 23236.35944561475, 27300.890064345607, -8785.509620369628, -2472.4382129237906, -0.098, 0.978, 0.278, 192.0, 0.0, 0.0, 0.0, 0.0, 0.0, 0.0, 0.0, 0.0, 0.0, 1.70688325108653E9, 0.0, 2024-02-02 15:14:11.086
34.0, 63860.83380709098, 65516.40516715112, -29535.63982673166, -7690.989397882152, 17235.944239609747, 5981.058595306707, 23885.990546463796, 4868.925198188448, 40717.524673643675, 46965.2842837911, 37483.8978032944, 49626.14770247313, 23232.045558934875, 27299.705421889477, -8794.919704785312, -2479.501364171668, -0.095, 0.976, 0.276, 192.0, 126.5, 16.0, 15.0, 56.0, 4.0, 72.0, 0.0, 0.0, 0.0, 1.706883251095816E9, 0.0, 2024-02-02 15:14:11.095
36.0, 63859.671516379305, 65518.0144927519, -29530.163649340113, -7686.563752480001, 17243.677943191284, 5984.321949997181, 23900.83210478212, 4877.150640148001, 40705.65589733791, 46954.95777785275, 37478.332218925025, 49619.75510355891, 23227.821079232825, 27295.480942187423, -8795.769071074614, -2483.971713062729, -0.095, 0.976, 0.276, 192.0, 0.0, 0.0, 0.0, 0.0, 0.0, 0.0, 0.0, 0.0, 0.0, 1.7068832511035135E9, 0.0, 2024-02-02 15:14:11.103
38.0, 63867.11464728292, 65526.0164172669, -29520.28417829087, -7675.767859908088, 17247.187167070766, 5989.351092499625, 23899.267482670246, 4882.671521028462, 40707.376981660964, 46961.81976340053, 37482.78021607163, 49627.82408330728, 23232.000855445964, 27299.481904444925, -8791.611646605927, -2477.6685211263325, -0.095, 0.976, 0.276, 192.0, 0.0, 0.0, 0.0, 0.0, 0.0, 0.0, 0.0, 0.0, 0.0, 1.7068832511106033E9, 0.0, 2024-02-02 15:14:11.110
40.0, 63859.939737312765, 65518.03684449635, -29525.827410915783, -7683.479211745169, 17241.621582701395, 5983.696101152433, 23891.667889555443, 4879.2517041268, 40712.406124163404, 46968.34647278148, 37488.9492975413, 49631.69093509805, 23233.45371883556, 27300.30891898977, -8791.544591372562, -2474.7627943471425, -0.095, 0.976, 0.276, 192.0, 0.0, 0.0, 0.0, 0.0, 0.0, 0.0, 0.0, 0.0, 0.0, 1.7068832511185563E9, 0.0, 2024-02-02 15:14:11.118
42.0, 63867.427571705295, 65519.310893930306, -29523.636939959164, -7680.8640576438975, 17242.80622515753, 5985.551295942223, 23894.126581445526, 4882.850334984104, 40703.48777812574, 46951.895588862375, 37481.28264919313, 49622.23614719346, 23226.41291933214, 27289.73654386241, -8797.892486797868, -2482.697663628777, -0.095, 0.976, 0.276, 192.0, 0.0, 0.0, 0.0, 0.0, 0.0, 0.0, 0.0, 0.0, 0.0, 1.7068832511276705E9, 0.0, 2024-02-02 15:14:11.127
44.0, 63869.103952539444, 65522.328379431776, -29522.65346320313, -7678.830048898465, 17243.119149579903, 5987.272380265282, 23894.48420935681, 4885.018454196269, 40716.20592072081, 46967.02771985862, 37489.44103591931, 49632.04856300933, 23235.532431069903, 27301.44885795699, -8788.147126215354, -2468.4372506662908, -0.0955, 0.981, 0.275, 192.0, 126.5, 0.0, 15.0, 104.0, 4.0, 72.0, 0.0, 0.0, 0.0, 1.706883251134617E9, 0.0, 2024-02-02 15:14:11.134
46.0, 63875.65301366485, 65525.43527191106, -29515.009166599415, -7671.722194161677, 17253.244489818157, 5997.353017014625, 23912.36560492106, 4896.73076829085, 40709.52274912867, 46959.29401627708, 37487.004695773685, 49626.99706876243, 23229.720977511523, 27296.129142776626, -8789.711748327225, -2473.041710024084, -0.0955, 0.981, 0.275, 192.0, 0.0, 0.0, 0.0, 0.0, 0.0, 0.0, 0.0, 0.0, 0.0, 1.7068832511425982E9, 0.0, 2024-02-02 15:14:11.142
48.0, 63877.06117356553, 65529.83856556876, -29513.355137509723, -7669.218798782683, 17250.22700431669, 5997.196554803438, 23904.16251470596, 4894.87557350106, 40717.591728877036, 46969.12878383741, 37492.72674235424, 49634.19433047704, 23235.398320603173, 27302.275872501836, -8785.73313781418, -2468.5713611330225, -0.0955, 0.981, 0.275, 192.0, 0.0, 0.0, 0.0, 0.0, 0.0, 0.0, 0.0, 0.0, 0.0, 1.70688325115188E9, 0.0, 2024-02-02 15:14:11.151
50.0, 63876.50237995415, 65530.218545224496, -29514.919759621593, -7673.33151976246, 17247.343629281953, 5993.419109990491, 23900.340366404103, 4889.645265298518, 40719.603385878014, 46976.72837695222, 37496.50418716719, 49641.03396428037, 23237.141756670688, 27303.572273680245, -8784.704957569236, -2468.526657644112, -0.0955, 0.981, 0.275, 192.0, 0.0, 0.0, 0.0, 0.0, 0.0, 0.0, 0.0, 0.0, 0.0, 1.7068832511597369E9, 0.0, 2024-02-02 15:14:11.159
52.0, 63881.21859803422, 65530.218545224496, -29510.73998340845, -7671.90100811732, 17255.144388096858, 5997.978865859373, 23902.4414303829, 4895.233201412345, 40720.1621794894, 46960.2327895442, 37498.47114067926, 49637.86001656771, 23238.79578576038, 27298.25255849988, -8785.64373083636, -2474.0922420134834, -0.0955, 0.981, 0.275, 192.0, 0.0, 0.0, 0.0, 0.0, 0.0, 0.0, 0.0, 0.0, 0.0, 1.7068832511668127E9, 0.0, 2024-02-02 15:14:11.166
54.0, 63877.843484621466, 65527.46928065649, -29521.55822772482, -7680.551133221524, 17243.78970191356, 5988.278208765771, 23891.15379943297, 4883.565590806674, 40722.53146440166, 46973.77794668412, 37497.71118136778, 49642.64328988115, 23239.064006693843, 27302.5440934353, -8786.515448870117, -2472.818192579531, -0.09575, 0.9864999999999999, 0.2775, 192.0, 126.5, 0.0, 15.5, 0.0, 4.0, 96.0, 0.0, 0.0, 0.0, 1.7068832511747277E9, 0.0, 2024-02-02 15:14:11.174
56.0, 63882.15737130134, 65533.21367898151, -29513.824524143285, -7667.967101093185, 17253.17743458479, 6000.705778682921, 23901.368546649046, 4893.892096745026, 40714.82011256458, 46967.273589047625, 37494.76075109968, 49637.815313078805, 23233.967808958034, 27297.894930588598, -8791.633998350382, -2476.886210070397, -0.09575, 0.9864999999999999, 0.2775, 192.0, 0.0, 0.0, 0.0, 0.0, 0.0, 0.0, 0.0, 0.0, 0.0, 1.7068832511837745E9, 0.0, 2024-02-02 15:14:11.183
58.0, 63881.01743233412, 65531.87257431419, -29514.87505613268, -7670.246979027627, 17250.539928739065, 5995.587229202656, 23903.11198271656, 4889.309989131688, 40720.56451088959, 46974.87318216243, 37502.181530258844, 49646.68895562756, 23243.0873206958, 27307.10384930418, -8782.782707546081, -2466.269131454126, -0.09575, 0.9864999999999999, 0.2775, 192.0, 0.0, 0.0, 0.0, 0.0, 0.0, 0.0, 0.0, 0.0, 0.0, 1.706883251190701E9, 0.0, 2024-02-02 15:14:11.190
60.0, 63875.2283305202, 65527.31281844531, -29519.85949514622, -7678.09244133144, 17246.337800781464, 5991.921543111986, 23894.752430290275, 4884.638474540529, 40713.814284064094, 46972.48154550571, 37494.60428888849, 49637.92707180108, 23235.755948514456, 27299.392497467103, -8789.063547738022, -2476.6850443702992, -0.09575, 0.9864999999999999, 0.2775, 192.0, 0.0, 0.0, 0.0, 0.0, 0.0, 0.0, 0.0, 0.0, 0.0, 1.7068832511987145E9, 0.0, 2024-02-02 15:14:11.198
62.0, 63875.20597877574, 65530.33030394677, -29522.89933239214, -7677.9806826091635, 17244.147329824846, 5993.70968266841, 23893.97011923434, 4885.130212918546, 40710.12624622897, 46963.496144234676, 37494.51488191067, 49638.28469971236, 23234.59365780278, 27300.465381200956, -8790.650521594349, -2478.6072943934555, -0.09575, 0.9864999999999999, 0.2775, 192.0, 0.0, 0.0, 0.0, 0.0, 0.0, 0.0, 0.0, 0.0, 0.0, 1.7068832512078824E9, 0.0, 2024-02-02 15:14:11.207
64.0, 63880.279824767094, 65535.9182400606, -29521.982910869472, -7674.829086640965, 17243.096797835446, 5994.112014068605, 23889.879749999018, 4882.5821140506405, 40710.2603566957, 46974.604961228964, 37493.48670166572, 49641.369240447195, 23236.046521192377, 27304.82397136974, -8791.946922772757, -2476.0591955255504, -0.096875, 0.98825, 0.27875000000000005, 192.0, 126.0, 120.0, 15.0, 120.0, 4.0, 96.0, 0.0, 0.0, 0.0, 1.7068832512156973E9, 0.0, 2024-02-02 15:14:11.215
66.0, 63880.95037710076, 65539.11453951772, -29516.79730615584, -7667.967101093185, 17252.08219910648, 6001.823365905687, 23902.664947827452, 4891.455756599397, 40709.52274912867, 46969.95579838226, 37498.73936161272, 49648.61120565071, 23237.32057062633, 27309.20491328298, -8789.55528611604, -2472.1476402458716, -0.096875, 0.98825, 0.27875000000000005, 192.0, 0.0, 0.0, 0.0, 0.0, 0.0, 0.0, 0.0, 0.0, 0.0, 1.7068832512227268E9, 0.0, 2024-02-02 15:14:11.222
68.0, 63869.41687696182, 65530.12913824667, -29523.592236470253, -7676.840743641943, 17248.729437438185, 5995.319008269193, 23897.501694858278, 4885.309026874188, 40709.23217645075, 46971.29690304958, 37500.147521513405, 49646.55484516083, 23242.014436961945, 27310.97070109495, -8784.772012802603, -2466.8949802988745, -0.096875, 0.98825, 0.27875000000000005, 192.0, 0.0, 0.0, 0.0, 0.0, 0.0, 0.0, 0.0, 0.0, 0.0, 1.7068832512307284E9, 0.0, 2024-02-02 15:14:11.230
70.0, 63871.607347918434, 65532.185498736566, -29521.84880040274, -7678.897104131831, 17253.69152470726, 5998.649418193033, 23899.669814070443, 4887.141869919524, 40699.687981568335, 46967.966493125736, 37491.45269292029, 49639.31287995731, 23237.432329348605, 27303.952253335985, -8789.26471343812, -2468.973692533218, -0.096875, 0.98825, 0.27875000000000005, 192.0, 0.0, 0.0, 0.0, 0.0, 0.0, 0.0, 0.0, 0.0, 0.0, 1.7068832512400317E9, 0.0, 2024-02-02 15:14:11.240
72.0, 63873.73076364169, 65534.37596969319, -29521.93820738056, -7679.075918087473, 17250.718742694706, 5997.062444336706, 23894.126581445526, 4884.526715818252, 40696.87166176697, 46958.64581568787, 37495.94539355581, 49641.77157184739, 23238.97459971602, 27303.192294024506, -8787.45422213724, -2468.5043058996566, -0.096875, 0.98825, 0.27875000000000005, 192.0, 0.0, 0.0, 0.0, 0.0, 0.0, 0.0, 0.0, 0.0, 0.0, 1.7068832512467875E9, 0.0, 2024-02-02 15:14:11.246
74.0, 63868.45575195024, 65526.57521087828, -29526.18503882707, -7681.221685555182, 17246.583669970474, 5992.6144471901, 23892.5396075892, 4882.224486139356, 40694.97176348827, 46968.90526639286, 37493.46434992127, 49641.659813125116, 23236.292390381383, 27304.153419036084, -8789.97996926069, -2469.8007070780645, -0.09743750000000001, 0.9861249999999999, 0.28137500000000004, 192.0, 126.0, 120.0, 15.0, 96.0, 4.0, 112.0, 0.0, 0.0, 0.0, 1.7068832512547765E9, 0.0, 2024-02-02 15:14:11.254
76.0, 63876.01064157613, 65530.710283602515, -29519.74773642394, -7670.179923794261, 17256.105513108436, 6003.946781628941, 23905.861247284563, 4894.987332223336, 40687.43922560683, 46956.4329929868, 37491.475044664745, 49641.12337125819, 23233.096090924275, 27302.007651568372, -8789.935265771779, -2471.3876809343915, -0.09743750000000001, 0.9861249999999999, 0.28137500000000004, 192.0, 0.0, 0.0, 0.0, 0.0, 0.0, 0.0, 0.0, 0.0, 0.0, 1.7068832512627902E9, 0.0, 2024-02-02 15:14:11.262
78.0, 63873.17197003031, 65531.961981292014, -29517.60196895623, -7670.291682516538, 17255.591422985963, 6004.4832234958685, 23900.720346059843, 4895.344960134621, 40696.42462687786, 46965.15017332437, 37501.75684711419, 49652.29924348584, 23245.903640497167, 27317.430355242534, -8776.92655049879, -2456.657881338344, -0.09743750000000001, 0.9861249999999999, 0.28137500000000004, 192.0, 0.0, 0.0, 0.0, 0.0, 0.0, 0.0, 0.0, 0.0, 0.0, 1.7068832512718012E9, 0.0, 2024-02-02 15:14:11.271
80.0, 63865.90765308234, 65524.138870732655, -29523.3687190257, -7683.479211745169, 17246.181338570277, 5995.743691413843, 23883.844778996085, 4882.135079161534, 40686.18752791733, 46967.966493125736, 37493.75492259919, 49646.621900394195, 23238.12523342672, 27310.367203994658, -8786.291931425563, -2464.436288408791, -0.09743750000000001, 0.9861249999999999, 0.28137500000000004, 192.0, 0.0, 0.0, 0.0, 0.0, 0.0, 0.0, 0.0, 0.0, 0.0, 1.706883251278826E9, 0.0, 2024-02-02 15:14:11.278
82.0, 63867.76284787212, 65521.18844046455, -29522.74287018095, -7685.2002960682275, 17247.008353115125, 5993.75438615732, 23889.72328778783, 4884.079680929146, 40682.94652497131, 46953.214341785235, 37491.40798943138, 49635.557786888814, 23236.180631659106, 27300.443029456503, -8792.863344295423, -2474.1145937579386, -0.09743750000000001, 0.9861249999999999, 0.28137500000000004, 192.0, 0.0, 0.0, 0.0, 0.0, 0.0, 0.0, 0.0, 0.0, 0.0, 1.7068832512868247E9, 0.0, 2024-02-02 15:14:11.286
84.0, 63868.0757722945, 65520.74140557545, -29524.97804462648, -7685.334406534959, 17247.678905448785, 5990.446327977936, 23895.892369257497, 4883.453832084398, 40681.650123792904, 46964.278455290616, 37492.01148653168, 49640.117542757696, 23237.36527411524, 27298.25255849988, -8791.298722183552, -2473.935779802296, -0.09871875000000001, 0.9860625, 0.28268750000000004, 192.0, 126.0, 112.0, 15.0, 104.0, 4.0, 112.0, 0.0, 0.0, 0.0, 1.7068832512960055E9, 0.0, 2024-02-02 15:14:11.296
86.0, 63870.422705462304, 65527.96101903451, -29524.73217543747, -7680.841705899443, 17253.870338662906, 5999.945819371441, 23902.419078638446, 4890.896962988015, 40677.02331269065, 46963.20557155676, 37491.87737606494, 49640.38576369116, 23238.080529937808, 27301.225340512436, -8790.471707638706, -2473.10876525745, -0.09871875000000001, 0.9860625, 0.28268750000000004, 192.0, 0.0, 0.0, 0.0, 0.0, 0.0, 0.0, 0.0, 0.0, 0.0, 1.7068832513028507E9, 0.0, 2024-02-02 15:14:11.302
88.0, 63859.2244814902, 65518.37212066318, -29533.35994879722, -7690.676473459777, 17249.310582794024, 5993.75438615732, 23899.53570360371, 4887.857125742094, 40669.24490562021, 46963.40673725685, 37484.99303877271, 49639.11171425721, 23236.69472178158, 27300.420677712045, -8792.617475106415, -2472.1029367569613, -0.09871875000000001, 0.9860625, 0.28268750000000004, 192.0, 0.0, 0.0, 0.0, 0.0, 0.0, 0.0, 0.0, 0.0, 0.0, 1.7068832513108883E9, 0.0, 2024-02-02 15:14:11.310
90.0, 63849.85910056342, 65507.553876346814, -29539.886658178173, -7700.243020086649, 17242.78387341307, 5986.825345376175, 23883.643613295986, 4877.776488992749, 40659.767765971155, 46963.25027504567, 37477.34874216899, 49631.89210079815, 23233.610181046748, 27291.234110740916, -8799.971199032212, -2478.9872740491955, -0.09871875000000001, 0.9860625, 0.28268750000000004, 192.0, 0.0, 0.0, 0.0, 0.0, 0.0, 0.0, 0.0, 0.0, 0.0, 1.7068832513188674E9, 0.0, 2024-02-02 15:14:11.318
92.0, 63855.49174016616, 65510.68312057056, -29534.052852875335, -7695.549153751034, 17246.13663508137, 5989.932237855463, 23888.449238353878, 4882.917390217471, 40654.179829857334, 46947.22407427122, 37473.571297356044, 49624.29250768334, 23231.35265485676, 27288.909529317563, -8805.670893868315, -2485.245762496682, -0.09871875000000001, 0.9860625, 0.28268750000000004, 192.0, 0.0, 0.0, 0.0, 0.0, 0.0, 0.0, 0.0, 0.0, 0.0, 1.7068832513270571E9, 0.0, 2024-02-02 15:14:11.327
94.0, 63852.742475598156, 65506.19041993504, -29540.84778318975, -7700.846517186942, 17236.927716365783, 5985.663054664499, 23879.150912660472, 4877.865895970571, 40651.78819320061, 46953.2813970186, 37472.7442828112, 49623.57725186077, 23229.519811811428, 27289.222453739938, -8807.436681680285, -2481.7365386171987, -0.100359375, 0.98703125, 0.28234375, 192.0, 126.0, 104.0, 15.0, 112.0, 4.0, 104.0, 0.0, 0.0, 0.0, 1.7068832513349247E9, 0.0, 2024-02-02 15:14:11.334
96.0, 63857.704562867235, 65512.314797915795, -29534.499887764443, -7692.844592671942, 17242.873280390893, 5995.5648774582005, 23887.06343019765, 4885.666654785473, 40648.83776293251, 46950.88976036188, 37474.82299504554, 49624.53837687235, 23228.11165191074, 27291.435276441014, -8806.475556668705, -2480.104861271961, -0.100359375, 0.98703125, 0.28234375, 192.0, 0.0, 0.0, 0.0, 0.0, 0.0, 0.0, 0.0, 0.0, 0.0, 1.706883251342913E9, 0.0, 2024-02-02 15:14:11.342
98.0, 63865.10299028194, 65519.60146660823, -29529.202524328535, -7689.067147858996, 17246.74013218166, 5996.481298980868, 23897.30052915818, 4892.305122888699, 40655.76680371366, 46961.99857735617, 37483.94250678331, 49634.41784792159, 23234.951285714065, 27300.890064345607, -8796.64078910837, -2470.9629977897403, -0.100359375, 0.98703125, 0.28234375, 192.0, 0.0, 0.0, 0.0, 0.0, 0.0, 0.0, 0.0, 0.0, 0.0, 1.706883251351951E9, 0.0, 2024-02-02 15:14:11.351
100.0, 63859.13507451238, 65514.75113806142, -29532.644692974653, -7692.554019994023, 17240.951030367738, 5991.206287289416, 23886.661098797453, 4883.677349528951, 40646.982568142725, 46963.429089001314, 37480.5450416261, 49632.24972870943, 23229.11748041123, 27294.944500320496, -8801.334655443985, -2479.2778467271146, -0.100359375, 0.98703125, 0.28234375, 192.0, 0.0, 0.0, 0.0, 0.0, 0.0, 0.0, 0.0, 0.0, 0.0, 1.7068832513589296E9, 0.0, 2024-02-02 15:14:11.358
102.0, 63873.440190963775, 65527.53633588986, -29515.232684043967, -7675.633749441356, 17255.74788519715, 6002.248049050338, 23902.419078638446, 4895.68023630145, 40650.64825423339, 46961.93152212281, 37492.70439060979, 49639.15641774612, 23235.26421013644, 27300.55478817878, -8789.890562282868, -2472.1029367569613, -0.100359375, 0.98703125, 0.28234375, 192.0, 0.0, 0.0, 0.0, 0.0, 0.0, 0.0, 0.0, 0.0, 0.0, 1.7068832513671403E9, 0.0, 2024-02-02 15:14:11.367
104.0, 63863.53836817007, 65520.13790847515, -29522.07231784729, -7686.295531546537, 17246.427207759287, 5989.999293088829, 23893.746601789786, 4884.526715818252, 40655.69974848029, 46977.73420545271, 37496.90651856739, 49648.38768820616, 23240.561573572348, 27303.21464576896, -8784.459088380228, -2468.4819541552015, -0.0991796875, 0.984515625, 0.282171875, 192.0, 126.0, 120.0, 15.0, 88.0, 4.0, 104.0, 0.0, 0.0, 0.0, 1.7068832513749816E9, 0.0, 2024-02-02 15:14:11.374
106.0, 63857.52574891159, 65511.84541128224, -29528.93430339507, -7691.436432771258, 17242.135672823868, 5986.244200020337, 23886.705802286364, 4879.765794249272, 40639.9417686393, 46959.24931278817, 37483.67428584985, 49635.0660485108, 23228.625742033215, 27288.663660128554, -8796.64078910837, -2482.2282769952153, -0.0991796875, 0.984515625, 0.282171875, 192.0, 0.0, 0.0, 0.0, 0.0, 0.0, 0.0, 0.0, 0.0, 0.0, 1.7068832513829978E9, 0.0, 2024-02-02 15:14:11.382
108.0, 63859.33624021248, 65515.68991132855, -29528.911951650614, -7690.207086826216, 17245.488434492163, 5988.658188421511, 23886.571691819634, 4882.515058817275, 40642.713384951756, 46963.987882612695, 37488.90459405239, 49641.41394393611, 23236.828832248313, 27294.92214857604, -8792.818640806514, -2474.2487042246707, -0.0991796875, 0.984515625, 0.282171875, 192.0, 0.0, 0.0, 0.0, 0.0, 0.0, 0.0, 0.0, 0.0, 0.0, 1.706883251391012E9, 0.0, 2024-02-02 15:14:11.391
110.0, 63863.717182125714, 65516.47222238449, -29530.27540806239, -7689.894162403842, 17248.55062348254, 5989.418147732991, 23890.706764543866, 4883.878515229048, 40636.09726859299, 46962.91499887884, 37482.89197479391, 49636.831836322766, 23233.65488453566, 27288.864825828652, -8799.524164143106, -2481.8706490839304, -0.0991796875, 0.984515625, 0.282171875, 192.0, 0.0, 0.0, 0.0, 0.0, 0.0, 0.0, 0.0, 0.0, 0.0, 1.70688325139902E9, 0.0, 2024-02-02 15:14:11.399
112.0, 63865.192397259765, 65522.57424862078, -29530.208352829024, -7688.977740881174, 17247.611850215417, 5991.742729156343, 23882.034287695205, 4882.8726867285595, 40636.767820926645, 46960.411603499844, 37486.13297773993, 49638.06118226781, 23239.131061927208, 27294.743334620398, -8793.466841395717, -2476.8638583259417, -0.0991796875, 0.984515625, 0.282171875, 192.0, 0.0, 0.0, 0.0, 0.0, 0.0, 0.0, 0.0, 0.0, 0.0, 1.7068832514080293E9, 0.0, 2024-02-02 15:14:11.408
114.0, 63864.34303097046, 65521.43430965356, -29530.186001084567, -7689.80475542602, 17249.310582794024, 5988.367615743592, 23900.00509023727, 4885.487840829831, 40634.97968137022, 46969.19583907078, 37482.534346882625, 49637.63649912316, 23237.812309004345, 27296.39736371009, -8798.45128040925, -2476.819154837031, -0.09658984375, 0.9822578125, 0.2820859375, 192.0, 126.5, 8.0, 15.0, 80.0, 4.0, 104.0, 0.0, 0.0, 0.0, 1.7068832514151535E9, 0.0, 2024-02-02 15:14:11.415
116.0, 63868.23223450569, 65524.3176846883, -29530.051890617837, -7684.730909434666, 17251.769274684106, 5996.078967580673, 23902.26261642726, 4891.276942643755, 40632.25276854668, 46964.4349175018, 37484.7471695837, 49637.390629934154, 23240.047483449875, 27295.03390729832, -8790.762280316625, -2473.198172235271, -0.09658984375, 0.9822578125, 0.2820859375, 192.0, 0.0, 0.0, 0.0, 0.0, 0.0, 0.0, 0.0, 0.0, 0.0, 1.7068832514230635E9, 0.0, 2024-02-02 15:14:11.423
118.0, 63867.002888560644, 65522.28367594286, -29536.4221377876, -7685.870848401886, 17244.773178669595, 5992.882668123564, 23889.365659876545, 4885.6890065299285, 40632.67745169133, 46965.2842837911, 37486.28943995112, 49639.84932182424, 23240.047483449875, 27301.873541101642, -8793.489193140173, -2470.851239067464, -0.09658984375, 0.9822578125, 0.2820859375, 192.0, 0.0, 0.0, 0.0, 0.0, 0.0, 0.0, 0.0, 0.0, 0.0, 1.706883251431032E9, 0.0, 2024-02-02 15:14:11.431
120.0, 63868.43340020578, 65525.27880969988, -29535.505716264932, -7685.2002960682275, 17249.914079894315, 5994.670807679989, 23894.126581445526, 4886.918352474971, 40625.48018997672, 46959.80810639955, 37479.58391661452, 49633.3673159322, 23234.01251244694, 27293.804561353274, -8802.40753917784, -2478.9202188158297, -0.09658984375, 0.9822578125, 0.2820859375, 192.0, 0.0, 0.0, 0.0, 0.0, 0.0, 0.0, 0.0, 0.0, 0.0, 1.706883251439042E9, 0.0, 2024-02-02 15:14:11.439
122.0, 63863.225443747695, 65519.802632308325, -29539.75254771144, -7691.391729282347, 17243.58853621346, 5986.2889035092485, 23890.505598843767, 4882.448003583909, 40623.982623098214, 46954.51074296364, 37482.22142246025, 49636.340097944754, 23234.41484384714, 27290.83177934072, -8801.245248466164, -2480.8871723278967, -0.09658984375, 0.9822578125, 0.2820859375, 192.0, 0.0, 0.0, 0.0, 0.0, 0.0, 0.0, 0.0, 0.0, 0.0, 1.7068832514474003E9, 0.0, 2024-02-02 15:14:11.447
124.0, 63865.55002517105, 65521.99310326495, -29539.014940144414, -7690.967046137696, 17243.722646680195, 5983.740804641343, 23891.60083432208, 4882.492707072819, 40621.79215214159, 46963.5855512125, 37480.63444860392, 49638.016478778896, 23234.437195591592, 27290.787075851807, -8799.59121937647, -2477.042672281584, -0.098294921875, 0.9811289062499999, 0.28204296875, 192.0, 126.0, 112.0, 15.0, 80.0, 4.0, 104.0, 0.0, 0.0, 0.0, 1.7068832514550877E9, 0.0, 2024-02-02 15:14:11.455
126.0, 63874.82599912, 65529.12330974619, -29533.114079608215, -7683.322749533982, 17247.768312426604, 5991.586266945156, 23891.712593044354, 4884.817288496171, 40618.81937012904, 46955.00248134166, 37482.33318118253, 49634.239033965954, 23232.470242079526, 27285.82498858273, -8802.295780455564, -2480.9095240723523, -0.098294921875, 0.9811289062499999, 0.28204296875, 192.0, 0.0, 0.0, 0.0, 0.0, 0.0, 0.0, 0.0, 0.0, 0.0, 1.7068832514630873E9, 0.0, 2024-02-02 15:14:11.463
128.0, 63869.70744963973, 65524.74236783295, -29537.852649432738, -7685.401461768325, 17244.974344369693, 5990.803955889221, 23889.96915697684, 4885.554896063197, 40623.200312042274, 46961.41743200034, 37487.67524810735, 49643.15738000362, 23237.834660748802, 27294.765686364855, -8800.731158343693, -2475.075718769517, -0.098294921875, 0.9811289062499999, 0.28204296875, 192.0, 0.0, 0.0, 0.0, 0.0, 0.0, 0.0, 0.0, 0.0, 0.0, 1.706883251470108E9, 0.0, 2024-02-02 15:14:11.470
130.0, 63874.557778186536, 65533.39249293715, -29532.22000983, -7679.813525654498, 17251.992792128658, 5998.537659470757, 23894.506561101265, 4892.372178122066, 40621.14395155239, 46972.101565849975, 37487.85406206299, 49645.8172375938, 23239.488689838494, 27300.6441951566, -8796.417271663819, -2471.074756512017, -0.098294921875, 0.9811289062499999, 0.28204296875, 192.0, 0.0, 0.0, 0.0, 0.0, 0.0, 0.0, 0.0, 0.0, 0.0, 1.706883251479406E9, 0.0, 2024-02-02 15:14:11.479
132.0, 63870.06507755102, 65529.793862079845, -29538.65731223313, -7684.172115823283, 17245.197861814246, 5992.055653578717, 23887.555168575665, 4882.939741961925, 40617.99235558419, 46962.78088841211, 37488.88224230793, 49643.894987570646, 23236.02416944792, 27299.057221300274, -8799.41240542083, -2472.952303046263, -0.098294921875, 0.9811289062499999, 0.28204296875, 192.0, 0.0, 0.0, 0.0, 0.0, 0.0, 0.0, 0.0, 0.0, 0.0, 1.7068832514871318E9, 0.0, 2024-02-02 15:14:11.487
134.0, 63869.21571126172, 65529.43623416856, -29537.852649432738, -7683.345101278437, 17242.78387341307, 5990.356921000114, 23880.62612779452, 4880.548105305208, 40611.7338671367, 46967.58651347, 37482.4449399048, 49645.280795726874, 23233.900753724665, 27295.81621835425, -8803.815699078525, -2476.9756170482183, -0.098294921875, 0.9811289062499999, 0.28204296875, 192.0, 0.0, 0.0, 0.0, 0.0, 0.0, 0.0, 0.0, 0.0, 0.0, 1.706883251495138E9, 0.0, 2024-02-02 15:14:11.495
136.0, 63874.08839155298, 65531.64905686964, -29529.046062117348, -7672.839781384442, 17250.048190361045, 5999.476432737879, 23901.50265711578, 4893.757986278294, 40607.46468394574, 46963.496144234676, 37486.08827425102, 49643.604414892725, 23232.35848335725, 27292.016421796852, -8799.188887976276, -2475.567457147534, -0.1, 0.978, 0.28, 192.0, 126.0, 112.0, 15.0, 72.0, 4.0, 96.0, 0.0, 0.0, 0.0, 1.706883251502149E9, 0.0, 2024-02-02 15:14:11.502
138.0, 63872.83669386348, 65533.236030725966, -29525.31332079331, -7670.045813327529, 17250.115245594414, 6002.158642072516, 23898.52987510322, 4895.389663623531, 40611.242128758684, 46970.335778038, 37495.29719296661, 49651.13695277416, 23239.019303204932, 27306.008613825874, -8789.599989604949, -2463.0281285081064, -0.1, 0.978, 0.28, 192.0, 0.0, 0.0, 0.0, 0.0, 0.0, 0.0, 0.0, 0.0, 0.0, 1.7068832515112648E9, 0.0, 2024-02-02 15:14:11.511
140.0, 63873.35078398595, 65534.0183417819, -29524.463954504008, -7677.466592486691, 17254.675001463296, 5999.655246693522, 23901.346194904592, 4897.088396202135, 40606.72707637872, 46970.87221990493, 37492.547928398606, 49646.17486550508, 23238.34875087127, 27302.96877657995, -8791.633998350382, -2464.5703988755226, -0.1, 0.978, 0.28, 192.0, 0.0, 0.0, 0.0, 0.0, 0.0, 0.0, 0.0, 0.0, 0.0, 1.706883251519192E9, 0.0, 2024-02-02 15:14:11.519
142.0, 63877.30704275454, 65537.59462089474, -29524.75452718193, -7680.61818845489, 17254.65264971884, 5997.4424239924465, 23891.802000022173, 4892.461585099886, 40606.66002114535, 46960.277493033114, 37495.31954471106, 49645.079630026776, 23243.377893373716, 27297.179674766026, -8789.73410007168, -2466.693814598777, -0.1, 0.978, 0.28, 192.0, 0.0, 0.0, 0.0, 0.0, 0.0, 0.0, 0.0, 0.0, 0.0, 1.7068832515261848E9, 0.0, 2024-02-02 15:14:11.526
144.0, 63862.51018792513, 65525.79289982234, -29538.210277344024, -7693.7163107056995, 17240.213422800713, 5984.165487785994, 23878.703877771364, 4881.173954149956, 40601.92145132082, 46966.17835356932, 37486.8482335625, 49644.789057348855, 23239.533393327405, 27293.379878208623, -8800.798213577058, -2476.796803092576, -0.1, 0.978, 0.28, 192.0, 0.0, 0.0, 0.0, 0.0, 0.0, 0.0, 0.0, 0.0, 0.0, 1.7068832515353413E9, 0.0, 2024-02-02 15:14:11.535
146.0, 63869.953318828746, 65531.98433303647, -29530.878905162685, -7684.261522801105, 17252.395123528855, 5995.3860635025585, 23896.406459379967, 4893.959151978392, 40589.158605236844, 46951.85088537346, 37478.77925381414, 49638.39645843464, 23230.011550189443, 27283.343944948192, -8808.196640991764, -2489.202021265271, -0.098, 0.982, 0.276, 192.0, 126.0, 120.0, 15.0, 88.0, 4.0, 80.0, 0.0, 0.0, 0.0, 1.7068832515432024E9, 0.0, 2024-02-02 15:14:11.543
148.0, 63865.192397259765, 65526.57521087828, -29535.438661031567, -7685.580275723967, 17245.84606240345, 5994.112014068605, 23891.19850292188, 4891.053425199202, 40600.46858793123, 46966.55833322505, 37489.21751847476, 49649.482923684474, 23245.233088163506, 27299.057221300274, -8794.539725129573, -2473.578151891011, -0.098, 0.982, 0.276, 192.0, 0.0, 0.0, 0.0, 0.0, 0.0, 0.0, 0.0, 0.0, 0.0, 1.7068832515503008E9, 0.0, 2024-02-02 15:14:11.550
150.0, 63865.17004551531, 65526.39639692264, -29536.444489532056, -7688.240133314149, 17247.99182987116, 5995.0954908246395, 23893.567787834145, 4893.668579300473, 40589.47152965922, 46960.970397111225, 37477.929887524835, 49636.54126364485, 23236.761777014945, 27292.888139830608, -8804.843879323469, -2480.2166199942376, -0.098, 0.982, 0.276, 192.0, 0.0, 0.0, 0.0, 0.0, 0.0, 0.0, 0.0, 0.0, 0.0, 1.7068832515582352E9, 0.0, 2024-02-02 15:14:11.558
152.0, 63869.953318828746, 65534.8677080712, -29530.610684229217, -7686.697862946733, 17253.423303773798, 5999.3199705266925, 23895.24416866829, 4897.44602411342, 40593.427788427805, 46956.231827286705, 37485.28361145063, 49638.59762413474, 23244.160204429652, 27295.682107887522, -8800.753510088147, -2476.9309135593076, -0.098, 0.982, 0.276, 192.0, 0.0, 0.0, 0.0, 0.0, 0.0, 0.0, 0.0, 0.0, 0.0, 1.7068832515674915E9, 0.0, 2024-02-02 15:14:11.567
154.0, 63850.10496975243, 65529.70445510202, -29538.478498277487, -7693.291627561049, 17245.46608274771, 5989.932237855463, 23881.47549408382, 4886.49366933032, 40597.92048906333, 46968.39117627039, 37487.09410275151, 49644.49848467094, 23248.83171902081, 27301.58296842372, -8798.227762964698, -2476.148602503372, -0.098, 0.982, 0.276, 192.0, 0.0, 0.0, 0.0, 0.0, 0.0, 0.0, 0.0, 0.0, 0.0, 1.706883251574237E9, 0.0, 2024-02-02 15:14:11.574
156.0, 63857.21282448922, 65533.14662374814, -29537.65148373264, -7690.609418226411, 17247.813015915515, 5990.826307633675, 23892.62901456702, 4888.72884377585, 40588.80097732556, 46961.73035642271, 37483.11549223847, 49640.676336369084, 23240.539221827894, 27293.223415997436, -8804.732120601193, -2483.815250851542, -0.10200000000000001, 0.982, 0.27, 192.0, 126.0, 104.0, 15.0, 88.0, 4.0, 56.0, 0.0, 0.0, 0.0, 1.7068832515822904E9, 0.0, 2024-02-02 15:14:11.582
158.0, 63846.32752493949, 65525.748196333436, -29548.022693159903, -7703.461671288213, 17234.424320986785, 5976.096508037628, 23871.86424396804, 4872.009738923281, 40581.201384210755, 46959.47283023272, 37478.4439776473, 49639.49169391295, 23235.755948514456, 27286.070857771738, -8809.716559614726, -2488.9561520762627, -0.10200000000000001, 0.982, 0.27, 192.0, 0.0, 0.0, 0.0, 0.0, 0.0, 0.0, 0.0, 0.0, 0.0, 1.7068832515912871E9, 0.0, 2024-02-02 15:14:11.591
160.0, 63850.73081859718, 65527.24576321194, -29549.140280382668, -7707.99907541264, 17238.73820766666, 5973.70487138091, 23875.77579924772, 4872.747346490306, 40569.667884071816, 46954.71190866374, 37468.51980310915, 49632.3167839428, 23227.977541444012, 27273.665639599043, -8819.864251597435, -2499.0814923145167, -0.10200000000000001, 0.982, 0.27, 192.0, 0.0, 0.0, 0.0, 0.0, 0.0, 0.0, 0.0, 0.0, 0.0, 1.7068832515993435E9, 0.0, 2024-02-02 15:14:11.599
162.0, 63854.19533898775, 65525.54703063334, -29541.697149479052, -7704.0428166440515, 17247.36598102641, 5979.695138894933, 23891.15379943297, 4881.553933805697, 40573.04299748457, 46945.99472832617, 37479.85213754799, 49635.0660485108, 23237.834660748802, 27274.984392521907, -8807.816661336024, -2490.1184427879384, -0.10200000000000001, 0.982, 0.27, 192.0, 0.0, 0.0, 0.0, 0.0, 0.0, 0.0, 0.0, 0.0, 0.0, 1.7068832516062963E9, 0.0, 2024-02-02 15:14:11.606
164.0, 63848.629754618385, 65521.85899279821, -29553.36476008472, -7706.903839934331, 17235.631315187373, 5975.872990593075, 23873.697087013377, 4871.070965656158, 40573.06534922902, 46954.95777785275, 37477.25933519117, 49632.04856300933, 23238.438157849094, 27278.314802445748, -8809.873021825913, -2489.7608148766535, -0.10200000000000001, 0.982, 0.27, 192.0, 0.0, 0.0, 0.0, 0.0, 0.0, 0.0, 0.0, 0.0, 0.0, 1.7068832516143358E9, 0.0, 2024-02-02 15:14:11.614
166.0, 63852.608365131426, 65521.83664105376, -29551.218992617014, -7699.393653797348, 17239.185242555766, 5983.003197074318, 23881.810770250653, 4879.318759360166, 40565.37634913639, 46945.950024837264, 37471.17966069933, 49628.3158216853, 23230.436233334094, 27274.738523332897, -8818.567850419027, -2493.5159079451455, -0.106, 0.978, 0.276, 192.0, 126.0, 88.0, 15.0, 72.0, 4.0, 80.0, 0.0, 0.0, 0.0, 1.7068832516235096E9, 0.0, 2024-02-02 15:14:11.623
168.0, 63858.486873923175, 65527.37987367867, -29546.70394023704, -7696.5326305070685, 17244.773178669595, 5988.367615743592, 23892.472552355834, 4887.231276897344, 40564.86225901393, 46947.626405671406, 37474.17479445634, 49632.16032173161, 23236.65001829267, 27283.947442048484, -8811.258829982142, -2487.257419497659, -0.106, 0.978, 0.276, 192.0, 0.0, 0.0, 0.0, 0.0, 0.0, 0.0, 0.0, 0.0, 0.0, 1.7068832516304026E9, 0.0, 2024-02-02 15:14:11.630
170.0, 63856.40816168883, 65531.93962954756, -29544.401710558144, -7698.18665959676, 17246.203690314735, 5989.529906455267, 23894.283043656713, 4889.309989131688, 40569.51142186063, 46961.14921106687, 37477.907535780374, 49640.16224624661, 23242.796748017878, 27292.26229098586, -8804.240382223175, -2481.021282794629, -0.106, 0.978, 0.276, 192.0, 0.0, 0.0, 0.0, 0.0, 0.0, 0.0, 0.0, 0.0, 0.0, 1.7068832516383753E9, 0.0, 2024-02-02 15:14:11.638
172.0, 63855.93877505526, 65532.23020222547, -29543.194716357557, -7700.041854386552, 17241.263954790113, 5983.13730754105, 23882.749543517773, 4882.827983239649, 40562.381215379384, 46948.118144049426, 37478.4439776473, 49635.51308339991, 23240.69568403908, 27286.719058360944, -8810.253001481653, -2489.4031869653686, -0.106, 0.978, 0.276, 192.0, 0.0, 0.0, 0.0, 0.0, 0.0, 0.0, 0.0, 0.0, 0.0, 1.706883251646636E9, 0.0, 2024-02-02 15:14:11.646
174.0, 63859.179778001286, 65535.62766738268, -29539.75254771144, -7695.437395028758, 17241.93450712377, 5983.249066263326, 23886.30347088617, 4885.152564663001, 40564.974017736204, 46953.16963829633, 37483.65193410539, 49643.738525359455, 23245.680123052614, 27287.83664558371, -8808.911896814334, -2484.39639620738, -0.106, 0.978, 0.276, 192.0, 0.0, 0.0, 0.0, 0.0, 0.0, 0.0, 0.0, 0.0, 0.0, 1.706883251655364E9, 0.0, 2024-02-02 15:14:11.655
176.0, 63858.68803962327, 65534.130100504175, -29543.08295763528, -7697.069072373995, 17239.900498378338, 5982.690272651944, 23885.43175285241, 4884.817288496171, 40558.8719914999, 46946.88879810439, 37480.88031779293, 49639.894025313144, 23240.986256717, 27282.7404478479, -8812.532879416094, -2488.3750067204246, -0.098, 0.976, 0.276, 192.0, 126.0, 120.0, 15.0, 64.0, 4.0, 80.0, 0.0, 0.0, 0.0, 1.7068832516626923E9, 0.0, 2024-02-02 15:14:11.662
178.0, 63862.73370536968, 65536.81230983882, -29542.635922746173, -7696.644389229345, 17241.018085601103, 5981.706795895911, 23885.76702901924, 4885.085509429635, 40559.02845371109, 46946.777039382105, 37481.640277104416, 49639.93872880206, 23243.9366869851, 27281.01936352484, -8808.9789520477, -2485.7375008746985, -0.098, 0.976, 0.276, 192.0, 0.0, 0.0, 0.0, 0.0, 0.0, 0.0, 0.0, 0.0, 0.0, 1.7068832516704237E9, 0.0, 2024-02-02 15:14:11.670
180.0, 63853.50243490964, 65527.692798101045, -29553.007132173436, -7702.187621854261, 17235.69837042074, 5975.738880126343, 23874.948784702872, 4875.921294202959, 40552.34528211895, 46952.11910630693, 37476.49937587969, 49639.20112123503, 23242.64028580669, 27281.354639691668, -8813.248135238664, -2487.9950270646846, -0.098, 0.976, 0.276, 192.0, 0.0, 0.0, 0.0, 0.0, 0.0, 0.0, 0.0, 0.0, 0.0, 1.7068832516784341E9, 0.0, 2024-02-02 15:14:11.678
182.0, 63855.15646399933, 65529.793862079845, -29547.776823970897, -7696.867906673898, 17242.40389375733, 5983.204362774416, 23883.19657840688, 4884.504364073797, 40544.81274423751, 46938.7304113782, 37471.358474654975, 49631.13214148666, 23241.679160795113, 27279.678258857522, -8815.639771895381, -2491.437195710802, -0.098, 0.976, 0.276, 192.0, 0.0, 0.0, 0.0, 0.0, 0.0, 0.0, 0.0, 0.0, 0.0, 1.7068832516864643E9, 0.0, 2024-02-02 15:14:11.686
184.0, 63852.76482734262, 65530.419710924594, -29549.520260038407, -7701.248848587138, 17243.521480980096, 5981.192705773438, 23887.801037764675, 4885.085509429635, 40548.38902335036, 46951.22503652871, 37475.29238167911, 49637.50238865643, 23249.681085310112, 27287.45666592797, -8811.12471951541, -2485.245762496682, -0.098, 0.976, 0.276, 192.0, 0.0, 0.0, 0.0, 0.0, 0.0, 0.0, 0.0, 0.0, 0.0, 1.7068832516944716E9, 0.0, 2024-02-02 15:14:11.694
186.0, 63853.05540002053, 65528.69862660154, -29552.113062395223, -7708.468462046202, 17238.89466987785, 5976.856467349108, 23879.6873545274, 4878.603503537596, 40541.415279080305, 46938.01515555563, 37471.29141942161, 49628.3158216853, 23244.56253582985, 27278.672430357034, -8818.009056807645, -2494.365274234447, -0.10400000000000001, 0.982, 0.28, 192.0, 126.0, 96.0, 15.0, 88.0, 4.0, 96.0, 0.0, 0.0, 0.0, 1.7068832517024825E9, 0.0, 2024-02-02 15:14:11.702
188.0, 63858.57628090099, 65534.35361794873, -29545.876925692195, -7703.662836988311, 17242.538004224065, 5982.310292996203, 23885.25293889677, 4884.124384418057, 40548.36667160591, 46940.47384744571, 37479.78508231462, 49633.92610954358, 23250.910431255154, 27283.433351926014, -8814.902164328358, -2490.8336986105082, -0.10400000000000001, 0.982, 0.28, 192.0, 0.0, 0.0, 0.0, 0.0, 0.0, 0.0, 0.0, 0.0, 0.0, 1.7068832517114954E9, 0.0, 2024-02-02 15:14:11.711
190.0, 63864.34303097046, 65536.18646099407, -29547.061568148325, -7700.421834042291, 17242.40389375733, 5981.5950371736335, 23884.135351674006, 4884.146736162512, 40547.293787872055, 46944.07247830302, 37478.77925381414, 49633.50142639893, 23251.625687077725, 27283.031020525817, -8816.22091725122, -2492.8900591003967, -0.10400000000000001, 0.982, 0.28, 192.0, 0.0, 0.0, 0.0, 0.0, 0.0, 0.0, 0.0, 0.0, 0.0, 1.7068832517185078E9, 0.0, 2024-02-02 15:14:11.718
192.0, 63865.25945249313, 65540.20977499602, -29545.407539058633, -7692.308150805015, 17239.341704766954, 5984.210191274905, 23881.520197572732, 4886.091337930124, 40544.41041283732, 46945.458286459245, 37485.21655621726, 49642.15155150313, 23252.340942900293, 27286.227319982925, -8812.64463813837, -2488.6655793983437, -0.10400000000000001, 0.982, 0.28, 192.0, 0.0, 0.0, 0.0, 0.0, 0.0, 0.0, 0.0, 0.0, 0.0, 1.7068832517266576E9, 0.0, 2024-02-02 15:14:11.726
194.0, 63862.15256001384, 65539.27100172889, -29545.429890803087, -7691.324674048981, 17236.45832973222, 5980.410394717503, 23879.62029929403, 4884.102032673602, 40539.738898246156, 46960.38925175539, 37479.65097184789, 49645.32549921578, 23244.473128852027, 27287.680183372522, -8821.473577198218, -2490.453718954768, -0.10400000000000001, 0.982, 0.28, 192.0, 0.0, 0.0, 0.0, 0.0, 0.0, 0.0, 0.0, 0.0, 0.0, 1.7068832517345247E9, 0.0, 2024-02-02 15:14:11.734
196.0, 63864.45478969274, 65539.76274010692, -29541.205411101033, -7688.061319358507, 17243.58853621346, 5986.065386064695, 23888.471590098336, 4891.29929438821, 40549.372500106394, 46949.52630395011, 37486.13297773993, 49644.99022304895, 23248.429387620617, 27286.316726960747, -8812.354065460451, -2484.7987276075755, -0.10400000000000001, 0.984, 0.278, 192.0, 126.0, 96.0, 15.0, 96.0, 4.0, 88.0, 0.0, 0.0, 0.0, 1.7068832517425354E9, 0.0, 2024-02-02 15:14:11.742
198.0, 63872.9261008413, 65549.10576928924, -29531.99649238545, -7682.920418133786, 17250.02583861659, 5990.826307633675, 23901.92734026043, 4900.441157870431, 40563.297636902054, 46960.52336222212, 37493.48670166572, 49653.59564466425, 23255.35842840176, 27297.000860810385, -8803.055739767044, -2478.562590904545, -0.10400000000000001, 0.984, 0.278, 192.0, 0.0, 0.0, 0.0, 0.0, 0.0, 0.0, 0.0, 0.0, 0.0, 1.7068832517505503E9, 0.0, 2024-02-02 15:14:11.750
200.0, 63875.049516564555, 65553.64317341366, -29532.309416807824, -7686.988435624652, 17251.299888050544, 5989.529906455267, 23902.799058294186, 4899.748253792316, 40574.339398662974, 46969.55346698206, 37491.51974815366, 49651.24871149644, 23251.849204522277, 27292.26229098586, -8805.69324561277, -2482.340035717492, -0.10400000000000001, 0.984, 0.278, 192.0, 0.0, 0.0, 0.0, 0.0, 0.0, 0.0, 0.0, 0.0, 0.0, 1.706883251758844E9, 0.0, 2024-02-02 15:14:11.758
202.0, 63874.758943886634, 65552.3244204908, -29532.242361574456, -7687.860153658409, 17250.78579792807, 5994.1567175575165, 23901.413250137957, 4903.525698605264, 40596.73584660719, 46965.39604251338, 37498.6499546349, 49654.71323188701, 23257.168919702643, 27295.749163120887, -8798.764204831625, -2477.8026315930642, -0.10400000000000001, 0.984, 0.278, 192.0, 0.0, 0.0, 0.0, 0.0, 0.0, 0.0, 0.0, 0.0, 0.0, 1.7068832517675664E9, 0.0, 2024-02-02 15:14:11.767
204.0, 63857.48104542268, 65537.46051042802, -29547.93328618208, -7706.0991771339395, 17235.60896344292, 5980.030415061762, 23883.375392362523, 4888.460622842386, 40605.65419264486, 46969.77698442662, 37486.71412309577, 49647.314804472306, 23246.753006786468, 27290.07182002924, -8809.627152636904, -2481.4459659392796, -0.10400000000000001, 0.984, 0.278, 192.0, 0.0, 0.0, 0.0, 0.0, 0.0, 0.0, 0.0, 0.0, 0.0, 1.7068832517745972E9, 0.0, 2024-02-02 15:14:11.774
206.0, 63866.444094949264, 65545.1718622651, -29540.825431445293, -7696.845554929442, 17244.03557110257, 5989.641665177544, 23891.265558155246, 4894.6744078009615, 40616.293623005586, 46959.942216866286, 37480.5450416261, 49638.28469971236, 23239.39928286067, 27285.512064160357, -8814.343370716973, -2487.1009572864723, -0.10400000000000001, 0.984, 0.278, 192.0, 126.0, 96.0, 15.0, 96.0, 4.0, 88.0, 0.0, 0.0, 0.0, 1.706883251782586E9, 0.0, 2024-02-02 15:14:11.782
208.0, 63875.27303400911, 65552.54793793535, -29541.22776284549, -7690.698825204233, 17238.55939371102, 5989.060519821706, 23876.982793448307, 4886.203096652401, 40645.306187308575, 46972.32508329453, 37492.525576654145, 49649.3711649622, 23247.02122771993, 27300.375974223134, -8807.257867724642, -2475.545105403078, -0.10400000000000001, 0.984, 0.278, 192.0, 0.0, 0.0, 0.0, 0.0, 0.0, 0.0, 0.0, 0.0, 0.0, 1.7068832517906115E9, 0.0, 2024-02-02 15:14:11.790
210.0, 63870.19918801775, 65548.25640299993, -29546.480422792487, -7691.548191493534, 17235.720722165195, 5988.054691321217, 23869.897290455974, 4879.944608204914, 40656.95144616979, 46975.11905135144, 37488.45755916328, 49649.19235100655, 23242.8861549957, 27301.58296842372, -8815.84093759548, -2482.5412014175895, -0.10400000000000001, 0.984, 0.278, 192.0, 0.0, 0.0, 0.0, 0.0, 0.0, 0.0, 0.0, 0.0, 0.0, 1.7068832517977688E9, 0.0, 2024-02-02 15:14:11.797
212.0, 63865.9747083157, 65542.467301186, -29551.26369610592, -7696.599685740434, 17236.41362624331, 5986.512420953801, 23881.699011528377, 4883.699701273406, 40666.629751518936, 46966.15600182486, 37487.0493992626, 49646.82306609429, 23241.947381728576, 27301.493561445903, -8812.108196271443, -2479.456660682757, -0.10400000000000001, 0.984, 0.278, 192.0, 0.0, 0.0, 0.0, 0.0, 0.0, 0.0, 0.0, 0.0, 0.0, 1.7068832518066728E9, 0.0, 2024-02-02 15:14:11.806
214.0, 63857.279879722584, 65532.051388269836, -29558.550364798353, -7704.489851533157, 17231.89857386334, 5982.399699974025, 23892.718421544843, 4886.672483285962, 40664.21576311776, 46962.15503956736, 37473.25837293368, 49635.46837991099, 23230.771509500923, 27291.25646248537, -8817.98670506319, -2484.3516927184696, -0.10400000000000001, 0.984, 0.278, 192.0, 0.0, 0.0, 0.0, 0.0, 0.0, 0.0, 0.0, 0.0, 0.0, 1.706883251814894E9, 0.0, 2024-02-02 15:14:11.814
216.0, 63867.11464728292, 65540.18742325157, -29549.2743908494, -7696.778499696076, 17239.98990535616, 5992.323874512181, 23895.78061053522, 4893.333303133643, 40675.7492632567, 46964.52432447962, 37478.4439776473, 49636.67537411158, 23233.900753724665, 27295.25742474287, -8812.130548015899, -2482.2059252507597, -0.108, 0.978, 0.28, 192.0, 126.0, 80.0, 15.0, 72.0, 4.0, 96.0, 0.0, 0.0, 0.0, 1.7068832518226469E9, 0.0, 2024-02-02 15:14:11.822
218.0, 63863.11368502542, 65535.02417028239, -29555.309361852334, -7707.19441261225, 17233.17262329729, 5980.209229017405, 23881.430790594914, 4879.4081663379875, 40680.599591803504, 46961.86446688944, 37480.07565499254, 49638.77643809038, 23235.55478281436, 27297.11261953266, -8807.101405513455, -2480.77541360562, -0.108, 0.978, 0.28, 192.0, 0.0, 0.0, 0.0, 0.0, 0.0, 0.0, 0.0, 0.0, 0.0, 1.7068832518299866E9, 0.0, 2024-02-02 15:14:11.829
220.0, 63867.11464728292, 65537.08053077228, -29547.150975126147, -7701.986456154163, 17242.917983879805, 5984.768984886287, 23889.812694765653, 4884.4596605848865, 40687.97566747376, 46966.31246403605, 37481.28264919313, 49636.85418806722, 23236.158279914653, 27295.100962531684, -8805.872059568414, -2481.8706490839304, -0.108, 0.978, 0.28, 192.0, 0.0, 0.0, 0.0, 0.0, 0.0, 0.0, 0.0, 0.0, 0.0, 1.706883251838734E9, 0.0, 2024-02-02 15:14:11.838
222.0, 63874.26720550862, 65544.09897853124, -29544.535821024874, -7697.784328196565, 17243.812053658017, 5986.490069209346, 23887.30929938666, 4881.7550995057945, 40690.00967621919, 46956.924731364816, 37486.22238471775, 49636.45185666703, 23234.370140358227, 27291.949366563484, -8803.41336767833, -2483.0552915400617, -0.108, 0.978, 0.28, 192.0, 0.0, 0.0, 0.0, 0.0, 0.0, 0.0, 0.0, 0.0, 0.0, 1.7068832518472292E9, 0.0, 2024-02-02 15:14:11.847
224.0, 63873.61900491941, 65545.0154000539, -29547.285085592877, -7694.342159550448, 17239.3193530225, 5987.4064907320135, 23876.267537625736, 4875.943645947415, 40700.38088564645, 46974.15792633986, 37490.916251053364, 49647.40421145013, 23239.39928286067, 27302.387631224112, -8799.345350187463, -2476.528582159112, -0.108, 0.978, 0.28, 192.0, 0.0, 0.0, 0.0, 0.0, 0.0, 0.0, 0.0, 0.0, 0.0, 1.70688325185371E9, 0.0, 2024-02-02 15:14:11.853
226.0, 63874.35661248644, 65544.94834482054, -29546.458071048033, -7690.452956015224, 17243.074446090992, 5995.408415247013, 23884.87295924103, 4884.124384418057, 40703.37601940346, 46971.810993172054, 37490.98330628673, 49647.024231794385, 23236.44885259257, 27306.522703948343, -8801.669931610815, -2477.847335081975, -0.10200000000000001, 0.978, 0.28, 192.0, 126.0, 104.0, 15.0, 72.0, 4.0, 96.0, 0.0, 0.0, 0.0, 1.706883251863E9, 0.0, 2024-02-02 15:14:11.863
228.0, 63875.56360668703, 65542.2661354859, -29548.55913502683, -7695.750319451132, 17240.70516117873, 5991.966246600896, 23892.02551746673, 4885.5772478076515, 40710.08154274005, 46973.77794668412, 37492.547928398606, 49649.68408938457, 23238.818137504833, 27310.88129411713, -8794.159745473831, -2472.9970065351736, -0.10200000000000001, 0.978, 0.28, 192.0, 0.0, 0.0, 0.0, 0.0, 0.0, 0.0, 0.0, 0.0, 0.0, 1.7068832518707275E9, 0.0, 2024-02-02 15:14:11.870
230.0, 63869.327469984, 65538.48869067297, -29553.14124264017, -7700.7571102091215, 17235.966591354205, 5985.551295942223, 23881.788418506196, 4878.245875626311, 40704.42655139286, 46969.26289430415, 37482.02025676015, 49639.87167356869, 23228.31281761084, 27299.571311422744, -8806.587315390983, -2483.099995028972, -0.10200000000000001, 0.978, 0.28, 192.0, 0.0, 0.0, 0.0, 0.0, 0.0, 0.0, 0.0, 0.0, 0.0, 1.7068832518780184E9, 0.0, 2024-02-02 15:14:11.878
232.0, 63871.607347918434, 65542.51200467492, -29545.966332670014, -7692.218743827194, 17240.74986466764, 5990.915714611497, 23888.71745928734, 4884.660826284984, 40713.92604278637, 46963.3843855124, 37491.072713264555, 49646.264272482906, 23235.0853961808, 27302.767610879855, -8797.55721063104, -2475.9697885477294, -0.10200000000000001, 0.978, 0.28, 192.0, 0.0, 0.0, 0.0, 0.0, 0.0, 0.0, 0.0, 0.0, 0.0, 1.7068832518857408E9, 0.0, 2024-02-02 15:14:11.885
234.0, 63866.75701937164, 65537.25934472792, -29552.783614728884, -7694.364511294903, 17232.54677445254, 5985.975979086874, 23879.352078360567, 4878.558800048685, 40711.9590892743, 46966.91596113634, 37483.42841666084, 49643.22443523699, 23227.64226527718, 27297.78317186632, -8805.112100256933, -2478.20496299326, -0.10200000000000001, 0.978, 0.28, 192.0, 0.0, 0.0, 0.0, 0.0, 0.0, 0.0, 0.0, 0.0, 0.0, 1.7068832518947356E9, 0.0, 2024-02-02 15:14:11.894
236.0, 63872.054382807546, 65542.06496978582, -29552.157765884134, -7692.933999649764, 17237.4194547438, 5993.195592545938, 23882.30250862867, 4885.040805940725, 40713.05432475261, 46968.05590010356, 37484.68011435033, 49643.760877103916, 23224.445965820072, 27299.16898002255, -8803.703940356248, -2476.39447169238, -0.10200000000000001, 0.98, 0.281, 192.0, 126.0, 104.0, 15.0, 88.0, 4.0, 104.0, 0.0, 0.0, 0.0, 1.7068832519027624E9, 0.0, 2024-02-02 15:14:11.902
238.0, 63878.35757474394, 65548.05523729984, -29545.69811173655, -7691.391729282347, 17246.44955950374, 5998.180031559472, 23901.949692004884, 4895.769643279272, 40727.60531039302, 46975.20845832926, 37493.866681321466, 49652.45570569703, 23234.325436869316, 27307.416773726556, -8791.723405328203, -2469.1972099777713, -0.10200000000000001, 0.98, 0.281, 192.0, 0.0, 0.0, 0.0, 0.0, 0.0, 0.0, 0.0, 0.0, 0.0, 1.7068832519100487E9, 0.0, 2024-02-02 15:14:11.910
240.0, 63878.80460963304, 65544.23308899798, -29547.575658270798, -7692.732833949666, 17248.014181615614, 5998.269438537292, 23903.938997261408, 4896.976637479858, 40726.21950223679, 46970.58164722701, 37486.78117832913, 49648.231225994976, 23232.067910679332, 27301.02417481234, -8793.243323951165, -2472.527619901612, -0.10200000000000001, 0.98, 0.281, 192.0, 0.0, 0.0, 0.0, 0.0, 0.0, 0.0, 0.0, 0.0, 0.0, 1.7068832519187992E9, 0.0, 2024-02-02 15:14:11.918
242.0, 63887.2312172927, 65553.7772838804, -29537.98675989947, -7679.522952976579, 17254.227966574188, 6008.148909586538, 23910.35394792008, 4903.391588138532, 40736.99304306424, 46974.29203680659, 37498.0017540457, 49659.78707787837, 23239.622800305224, 27310.948349350496, -8784.459088380228, -2462.6705005968215, -0.10200000000000001, 0.98, 0.281, 192.0, 0.0, 0.0, 0.0, 0.0, 0.0, 0.0, 0.0, 0.0, 0.0, 1.7068832519267907E9, 0.0, 2024-02-02 15:14:11.926
244.0, 63882.671461423815, 65549.23987975596, -29546.70394023704, -7689.268313559093, 17244.728475180684, 5999.52113622679, 23888.87392149853, 4889.958189720892, 40740.591673921546, 46982.31631306605, 37497.219442989765, 49663.85509536923, 23238.79578576038, 27315.530456963836, -8787.87890528189, -2460.882361040397, -0.10200000000000001, 0.98, 0.281, 192.0, 0.0, 0.0, 0.0, 0.0, 0.0, 0.0, 0.0, 0.0, 0.0, 1.7068832519338362E9, 0.0, 2024-02-02 15:14:11.933
246.0, 63879.653975922345, 65541.50617617443, -29554.348236840757, -7697.158479351817, 17243.61088795792, 5997.084796081162, 23891.243206410792, 4888.035939697736, 40735.3166622301, 46970.089908849, 37490.62567837544, 49652.902740586134, 23232.090262423786, 27306.88033185963, -8793.623303606904, -2468.9289890443074, -0.10400000000000001, 0.981, 0.28150000000000003, 192.0, 126.0, 88.0, 15.0, 88.0, 4.0, 104.0, 0.0, 0.0, 0.0, 1.706883251942208E9, 0.0, 2024-02-02 15:14:11.942
248.0, 63877.19528403226, 65538.48869067297, -29558.90799270964, -7705.38392131137, 17241.88980363486, 5992.636798934555, 23885.655270296964, 4882.291541372721, 40736.21073200831, 46965.6866151913, 37486.98234402923, 49648.65590913963, 23230.436233334094, 27303.773439380344, -8791.79046056157, -2470.1806867338046, -0.10400000000000001, 0.981, 0.28150000000000003, 192.0, 0.0, 0.0, 0.0, 0.0, 0.0, 0.0, 0.0, 0.0, 0.0, 1.706883251950846E9, 0.0, 2024-02-02 15:14:11.950
250.0, 63875.65301366485, 65538.28752497287, -29558.66212352063, -7705.652142244833, 17246.360152525922, 5995.073139080184, 23892.5396075892, 4886.359558863587, 40732.85797034001, 46971.72158619423, 37479.56156487007, 49643.69382187055, 23225.317683853827, 27298.67724164453, -8797.288989697576, -2475.0533670250616, -0.10400000000000001, 0.981, 0.28150000000000003, 192.0, 0.0, 0.0, 0.0, 0.0, 0.0, 0.0, 0.0, 0.0, 0.0, 1.706883251958924E9, 0.0, 2024-02-02 15:14:11.958
252.0, 63877.06117356553, 65537.12523426118, -29561.299629366356, -7706.210935856216, 17244.862585647417, 5993.910848368508, 23887.86809299804, 4879.29640761571, 40733.327356973576, 46963.3843855124, 37483.450768405295, 49646.621900394195, 23227.01641643243, 27298.31961373325, -8796.238457708176, -2475.9921402921846, -0.10400000000000001, 0.981, 0.28150000000000003, 192.0, 0.0, 0.0, 0.0, 0.0, 0.0, 0.0, 0.0, 0.0, 0.0, 1.7068832519658587E9, 0.0, 2024-02-02 15:14:11.965
254.0, 63874.80364737555, 65532.40901618112, -29566.395827102166, -7711.19537486975, 17239.408760000322, 5991.608618689611, 23875.39581959198, 4873.261436612777, 40735.36136571901, 46973.93440889531, 37481.640277104416, 49646.97952830548, 23227.64226527718, 27302.365279479658, -8799.859440309936, -2476.193305992282, -0.10400000000000001, 0.981, 0.28150000000000003, 192.0, 0.0, 0.0, 0.0, 0.0, 0.0, 0.0, 0.0, 0.0, 0.0, 1.7068832519738743E9, 0.0, 2024-02-02 15:14:11.973
0.0, 63881.44211547877, 65537.86284182822, -29561.836071233283, -7706.322694578493, 17245.779007170084, 5998.068272837195, 23889.522122087732, 4881.285712872233, 40731.718031372795, 46966.40187101387, 37483.093140494006, 49645.6160718937, 23223.753061741958, 27299.951291078483, -8800.865268810425, -2479.2107914937487, -0.10600000000000001, 0.9795, 0.27975000000000005, 192.0, 126.0, 80.0, 15.0, 72.0, 4.0, 88.0, 0.0, 0.0, 0.0, 1.7068832519828737E9, 0.0, 2024-02-02 15:14:11.982
2.0, 63883.096144568466, 65543.94251632005, -29558.61742003172, -7704.2216305996935, 17245.913117636814, 5998.023569348285, 23891.35496513307, 4884.169087906967, 40732.52269417318, 46970.46988850473, 37491.78796908712, 49653.93092083108, 23227.06111992134, 27303.482866702423, -8793.176268717798, -2472.7734890906204, -0.10600000000000001, 0.9795, 0.27975000000000005, 192.0, 0.0, 0.0, 0.0, 0.0, 0.0, 0.0, 0.0, 0.0, 0.0, 1.7068832519899294E9, 0.0, 2024-02-02 15:14:11.989
