%OpenBCI Raw EXG Data
%Number of channels = 16
%Sample Rate = 125 Hz
%Board = OpenBCI_GUI$BoardCytonSerialDaisy
Sample Index, EXG Channel 0, EXG Channel 1, EXG Channel 2, EXG Channel 3, EXG Channel 4, EXG Channel 5, EXG Channel 6, EXG Channel 7, EXG Channel 8, EXG Channel 9, EXG Channel 10, EXG Channel 11, EXG Channel 12, EXG Channel 13, EXG Channel 14, EXG Channel 15, Accel Channel 0, Accel Channel 1, Accel Channel 2, Other, Other, Other, Other, Other, Other, Other, Analog Channel 0, Analog Channel 1, Analog Channel 2, Timestamp, Other, Timestamp (Formatted)
0.0, 59903.3903960455, 63238.29302052176, -31553.443557434508, -2629.772142144697, 17608.39135746853, 8948.00680255971, 28556.096977722285, 4307.538784448956, 0.0, 0.0, 0.0, 0.0, 0.0, 0.0, 0.0, 0.0, 0.0, 0.0, 0.0, 192.0, 0.0, 0.0, 0.0, 0.0, 0.0, 0.0, 0.0, 0.0, 0.0, 1.7068826140773177E9, 0.0, 2024-02-02 15:03:34.077
150.0, 59877.88705562199, 63209.995712041346, -31594.749581187916, -2724.1635589794587, 17582.23981645582, 8901.939857237323, 28534.751061767467, 4280.94020854714, 34514.37914542903, 45910.97484957872, 35747.90486668407, 44230.03425956181, 24499.300062572966, 24509.60421676686, -2389.1332613388613, 21.256508976997015, 0.0, 0.0, 0.0, 192.0, 0.0, 0.0, 0.0, 0.0, 0.0, 0.0, 0.0, 0.0, 0.0, 1.7068826140773575E9, 0.0, 2024-02-02 15:03:34.077
0.0, 29956.657285291825, 31568.888612853127, -15789.160524506633, -1347.676080188284, 8753.747791498638, 4402.287829195003, 14239.469377931284, 2172.4330988446595, 17254.56324274102, 22967.73618075087, 17850.14782549713, 22085.244606166438, 12240.508167804262, 12291.604255629094, -1206.9942005865814, -15.333296696340645, -0.1, 0.994, 0.25, 192.0, 126.0, 112.0, 15.5, 8.0, 3.5, 104.0, 0.0, 0.0, 0.0, 1.7068826141835785E9, 0.0, 2024-02-02 15:03:34.183
2.0, 59908.64305599249, 63149.5565950342, -31583.48430198244, -2689.2501341402694, 17502.868771895024, 8779.720518555703, 28483.274994286898, 4344.285052333481, 34316.901483166395, 46145.86933205955, 35880.67422874859, 44368.458612973525, 24407.836724261848, 24536.247496157586, -2497.673332413832, -2.9727820125558395, -0.1, 0.994, 0.25, 192.0, 0.0, 0.0, 0.0, 0.0, 0.0, 0.0, 0.0, 0.0, 0.0, 1.7068826141895955E9, 0.0, 2024-02-02 15:03:34.189
4.0, 59906.07260538013, 63143.92395543146, -31607.646537738627, -2728.4103904259673, 17507.80850741965, 8744.293003594043, 28466.600592923238, 4316.010095597518, 34236.30109266056, 46101.50111931576, 35857.964856382, 44363.65298791564, 24352.896136390704, 24473.640259938275, -2502.1213295604384, -8.761883826480368, -0.1, 0.994, 0.25, 192.0, 0.0, 0.0, 0.0, 0.0, 0.0, 0.0, 0.0, 0.0, 0.0, 1.7068826141968932E9, 0.0, 2024-02-02 15:03:34.196
6.0, 59911.392320560495, 63162.654717285004, -31579.63980193613, -2678.5436485461773, 17513.95523714486, 8810.476518926205, 28473.21670928201, 4323.90026139024, 33979.72541805809, 46150.585550139614, 35873.54402226735, 44349.34787146424, 24360.048694616402, 24534.369949623342, -2498.8356231255084, -8.873642548756903, -0.1, 0.994, 0.25, 192.0, 0.0, 0.0, 0.0, 0.0, 0.0, 0.0, 0.0, 0.0, 0.0, 1.706882614205592E9, 0.0, 2024-02-02 15:03:34.205
8.0, 59928.51375681326, 63181.49723786083, -31545.642798619607, -2656.6612907244316, 17536.686961255906, 8811.594106148972, 28502.810418940833, 4359.573645540911, 33861.6411521007, 46129.59726209608, 35918.00164198895, 44418.526520553416, 24391.743468254026, 24484.927890888204, -2459.138924972883, 42.44596272062811, -0.10400000000000001, 0.988, 0.252, 192.0, 126.0, 96.0, 15.0, 112.0, 3.5, 112.0, 0.0, 0.0, 0.0, 1.7068826142126143E9, 0.0, 2024-02-02 15:03:34.212
10.0, 59904.552686757175, 63156.03860092624, -31582.411418248586, -2709.4337593834116, 17515.899838912468, 8788.862382037923, 28494.0261833699, 4366.837962488886, 33604.97607052041, 46128.54673010668, 35902.4224761036, 44387.971685883014, 24376.991316913525, 24533.1406036783, -2475.2768844696147, 21.994116544022148, -0.10400000000000001, 0.988, 0.252, 192.0, 0.0, 0.0, 0.0, 0.0, 0.0, 0.0, 0.0, 0.0, 0.0, 1.7068826142206423E9, 0.0, 2024-02-02 15:03:34.220
12.0, 59907.74898621428, 63152.3058596022, -31578.63397343564, -2677.4037095789563, 17527.299228584674, 8785.777841303092, 28503.749192207957, 4378.147945183271, 33427.391460823, 46093.72271224531, 35853.62861795767, 44355.62871165618, 24387.29547110742, 24511.191190623187, -2510.2797162866254, -17.94845079761157, -0.10400000000000001, 0.988, 0.252, 192.0, 0.0, 0.0, 0.0, 0.0, 0.0, 0.0, 0.0, 0.0, 0.0, 1.7068826142296429E9, 0.0, 2024-02-02 15:03:34.229
14.0, 59916.846146207594, 63164.755781263804, -31570.810862876282, -2676.5766950341103, 17521.33131281511, 8791.969274517212, 28499.68117471709, 4378.527924839011, 33327.72503229678, 46101.21054663784, 35877.05324614683, 44374.09125257627, 24339.216868784057, 24504.351556819864, -2492.085396300006, -5.923212280656371, -0.10400000000000001, 0.988, 0.252, 192.0, 0.0, 0.0, 0.0, 0.0, 0.0, 0.0, 0.0, 0.0, 0.0, 1.7068826142377045E9, 0.0, 2024-02-02 15:03:34.237
16.0, 59920.17655613143, 63160.084266672646, -31578.14223505762, -2687.9984364507723, 17524.61701925004, 8788.683568082282, 28496.998965382456, 4367.9108462227405, 33248.51044994718, 46111.76057002075, 35896.47691207849, 44380.03681660138, 24341.38498799622, 24518.209638382155, -2495.8404893684974, -6.839633803323961, -0.10400000000000001, 0.988, 0.252, 192.0, 0.0, 0.0, 0.0, 0.0, 0.0, 0.0, 0.0, 0.0, 0.0, 1.706882614244699E9, 0.0, 2024-02-02 15:03:34.244
18.0, 59927.977314946336, 63166.6109760536, -31555.611676646673, -2691.4853085858, 17523.1865076049, 8792.103384983944, 28502.11751486272, 4368.424936345213, 33210.40072565088, 46081.29514232816, 35893.90646146613, 44372.54898220885, 24345.318895020355, 24523.059966928955, -2479.3449019604805, 0.11175872227653531, -0.1, 0.99, 0.246, 192.0, 126.0, 112.0, 15.0, 120.0, 3.5, 88.0, 0.0, 0.0, 0.0, 1.7068826142530172E9, 0.0, 2024-02-02 15:03:34.253
20.0, 59927.01618993476, 63173.45060985692, -31551.25308647789, -2664.2161803503254, 17532.59659202058, 8797.423100164307, 28502.050459629354, 4371.978863713606, 33172.13453914339, 46119.829549769114, 35917.30873791084, 44407.2835930924, 24340.66973217365, 24525.451603585676, -2464.8386198089866, 15.44505541861718, -0.1, 0.99, 0.246, 192.0, 0.0, 0.0, 0.0, 0.0, 0.0, 0.0, 0.0, 0.0, 0.0, 1.7068826142621863E9, 0.0, 2024-02-02 15:03:34.262
22.0, 59919.46130030887, 63165.202816152916, -31567.05576980779, -2674.8556107110517, 17529.847327452582, 8798.78655657608, 28509.337128321786, 4374.10227943686, 33146.22886731969, 46096.44962506886, 35899.33793536877, 44390.631543473195, 24335.14885129319, 24524.24460938509, -2474.226352480215, 7.934869281634008, -0.1, 0.99, 0.246, 192.0, 0.0, 0.0, 0.0, 0.0, 0.0, 0.0, 0.0, 0.0, 0.0, 1.7068826142687335E9, 0.0, 2024-02-02 15:03:34.268
24.0, 59910.408843804464, 63159.4584178279, -31574.029514077847, -2680.8458782250736, 17520.52665001472, 8793.35508267344, 28500.217616584017, 4365.139229910282, 33129.95679735622, 46074.09788061355, 35889.05613291933, 44383.09900559176, 24332.734862892015, 24517.986120937603, -2478.562590904545, 4.313886679874263, -0.1, 0.99, 0.246, 192.0, 0.0, 0.0, 0.0, 0.0, 0.0, 0.0, 0.0, 0.0, 0.0, 1.706882614276737E9, 0.0, 2024-02-02 15:03:34.276
26.0, 59907.61487574755, 63153.78107473625, -31580.422112992062, -2687.0596631836493, 17510.401309776462, 8783.185038946276, 28484.906671632132, 4347.660165746232, 33128.32512001099, 46074.50021201375, 35885.63631601767, 44385.60240097075, 24331.572572180343, 24522.210600639653, -2487.547992175578, 1.6987325786033367, -0.1, 0.99, 0.246, 192.0, 0.0, 0.0, 0.0, 0.0, 0.0, 0.0, 0.0, 0.0, 0.0, 1.7068826142849991E9, 0.0, 2024-02-02 15:03:34.284
28.0, 59914.409806061965, 63160.24072888384, -31573.49307221092, -2683.8633637265402, 17517.956199402357, 8789.73410007168, 28490.69577344606, 4353.896302449262, 33136.1705823148, 46066.699453198846, 35890.19607188655, 44385.02125561491, 24332.91367684766, 24521.56240005045, -2487.7491578756762, 0.022351744455307063, -0.10400000000000001, 0.99, 0.248, 192.0, 126.0, 96.0, 15.0, 120.0, 3.5, 96.0, 0.0, 0.0, 0.0, 1.7068826142927456E9, 0.0, 2024-02-02 15:03:34.292
30.0, 59911.414672304956, 63157.714981760386, -31573.82834837775, -2684.645674782476, 17518.64910348047, 8786.314283170019, 28491.67925020209, 4349.671822747209, 33142.138498084365, 46079.574058005106, 35888.96672594151, 44384.618924214716, 24332.578400680828, 24532.22418215563, -2488.1514892758714, 1.8998982787011003, -0.10400000000000001, 0.99, 0.248, 192.0, 0.0, 0.0, 0.0, 0.0, 0.0, 0.0, 0.0, 0.0, 0.0, 1.7068826143007665E9, 0.0, 2024-02-02 15:03:34.300
32.0, 59908.48659378131, 63155.14453114803, -31576.30939201229, -2687.774919006219, 17511.161269087945, 8781.575713345494, 28482.537386719872, 4340.23938658707, 33147.70408245374, 46096.85195646906, 35886.48568230697, 44377.98045611149, 24339.90977286217, 24530.346635621387, -2493.6276666674216, -3.173947712653603, -0.10400000000000001, 0.99, 0.248, 192.0, 0.0, 0.0, 0.0, 0.0, 0.0, 0.0, 0.0, 0.0, 0.0, 1.7068826143087883E9, 0.0, 2024-02-02 15:03:34.308
34.0, 59913.26986709474, 63158.899624216516, -31574.565955944774, -2679.8847532134955, 17508.36730103103, 8784.816716291514, 28476.413008739117, 4334.830264428886, 33155.1248616129, 46117.14734043447, 35887.424455574095, 44377.80164215585, 24336.981694338527, 24533.498231589587, -2497.785091136109, -2.7045610790921546, -0.10400000000000001, 0.99, 0.248, 192.0, 0.0, 0.0, 0.0, 0.0, 0.0, 0.0, 0.0, 0.0, 0.0, 1.7068826143177824E9, 0.0, 2024-02-02 15:03:34.317
36.0, 59913.38162581702, 63157.983202693846, -31573.58247918874, -2674.76620373323, 17508.56846673113, 8788.750623315647, 28471.853252870234, 4325.3531247798355, 33197.593176077986, 46167.729338136836, 35894.77817949989, 44389.6257149727, 24350.59390671181, 24551.849013787392, -2493.761777134154, 10.080636749343485, -0.10400000000000001, 0.99, 0.248, 192.0, 0.0, 0.0, 0.0, 0.0, 0.0, 0.0, 0.0, 0.0, 0.0, 1.7068826143248284E9, 0.0, 2024-02-02 15:03:34.324
38.0, 59916.19794561839, 63159.48076957236, -31571.01202857638, -2672.128697887504, 17512.860001666548, 8786.381338403386, 28481.375096008196, 4321.866252644808, 33249.09159530301, 46183.867297633566, 35894.44290333306, 44383.74720618096, 24356.807691670383, 24564.231880215633, -2494.4993847011788, 6.884337292234576, -0.098, 0.974, 0.248, 192.0, 126.0, 120.0, 15.0, 56.0, 3.5, 96.0, 0.0, 0.0, 0.0, 1.7068826143328135E9, 0.0, 2024-02-02 15:03:34.332
40.0, 59919.349541586584, 63164.24169114133, -31567.748673885904, -2666.2725408402134, 17515.788080190192, 8794.383262918385, 28485.77838966589, 4330.695191704654, 33325.869837506994, 46203.648591476514, 35900.567281313815, 44396.35359005375, 24371.58219475534, 24584.147284525312, -2482.1612217618494, 16.58499438583784, -0.098, 0.974, 0.248, 192.0, 0.0, 0.0, 0.0, 0.0, 0.0, 0.0, 0.0, 0.0, 0.0, 1.7068826143410563E9, 0.0, 2024-02-02 15:03:34.341
42.0, 59915.34857932909, 63159.92780446146, -31567.972191330457, -2667.904218185451, 17508.99314987578, 8791.924571028301, 28475.340125005263, 4332.349220794346, 33405.10677160106, 46216.52319628277, 35895.739304511466, 44394.65485747515, 24369.43642728763, 24586.807142115493, -2490.3866637214023, 13.120473995265245, -0.098, 0.974, 0.248, 192.0, 0.0, 0.0, 0.0, 0.0, 0.0, 0.0, 0.0, 0.0, 0.0, 1.7068826143488615E9, 0.0, 2024-02-02 15:03:34.348
44.0, 59916.2426491073, 63162.0065166958, -31559.769101115362, -2663.5679797611215, 17511.720062699325, 8792.773937317603, 28482.62679369769, 4343.14511336626, 33506.47193270587, 46225.82152197618, 35894.84523473326, 44393.31375280783, 24382.06516290488, 24593.691479407727, -2495.6393236683994, 12.718142595069718, -0.098, 0.974, 0.248, 192.0, 0.0, 0.0, 0.0, 0.0, 0.0, 0.0, 0.0, 0.0, 0.0, 1.706882614356822E9, 0.0, 2024-02-02 15:03:34.356
46.0, 59924.535146300215, 63167.97443246537, -31552.638894634118, -2655.7001657128535, 17517.0844813686, 8796.819603064014, 28484.05730534283, 4346.676688990198, 33659.2461060579, 46251.83895252216, 35899.18147315759, 44401.56154651184, 24400.0583171914, 24608.600092959416, -2487.4362334533016, 22.709372366591975, -0.098, 0.974, 0.248, 192.0, 0.0, 0.0, 0.0, 0.0, 0.0, 0.0, 0.0, 0.0, 0.0, 1.7068826143648574E9, 0.0, 2024-02-02 15:03:34.364
48.0, 59925.518623056254, 63170.299013888725, -31552.504784167384, -2656.594235491066, 17513.105870855557, 8795.277332696598, 28475.407180238628, 4341.66989823221, 33823.21850338203, 46261.897237527046, 35900.902557480644, 44403.43909304609, 24406.182695172156, 24609.58356971545, -2488.4197102093353, 18.998982787011002, -0.10400000000000001, 0.988, 0.256, 192.0, 126.0, 96.0, 15.0, 112.0, 4.0, 0.0, 0.0, 0.0, 0.0, 1.7068826143742385E9, 0.0, 2024-02-02 15:03:34.374
50.0, 59919.05896890867, 63164.46520858589, -31561.266667993867, -2665.5125815287333, 17505.66273995194, 8785.084937224978, 28470.10981680272, 4330.337563793369, 33982.809958792925, 46270.279141697785, 35903.852987748745, 44401.60625000075, 24412.709404553105, 24604.06268883499, -2492.3759689779245, 17.233194975041744, -0.10400000000000001, 0.988, 0.256, 192.0, 0.0, 0.0, 0.0, 0.0, 0.0, 0.0, 0.0, 0.0, 0.0, 1.7068826143811553E9, 0.0, 2024-02-02 15:03:34.381
52.0, 59905.13383211301, 63145.77915022125, -31568.843909364216, -2677.224895623314, 17501.706481183348, 8773.26086440812, 28467.338200490263, 4316.032447341972, 34115.26639643507, 46260.93611251547, 35894.84523473326, 44390.340970795274, 24414.050509220426, 24600.9557963557, -2497.338056247003, 11.891128050223358, -0.10400000000000001, 0.988, 0.256, 192.0, 0.0, 0.0, 0.0, 0.0, 0.0, 0.0, 0.0, 0.0, 0.0, 1.706882614388882E9, 0.0, 2024-02-02 15:03:34.388
54.0, 59910.274733337734, 63147.991972922326, -31566.318162240765, -2675.682625255898, 17503.98635911779, 8775.004300475633, 28464.901860344635, 4313.797272896441, 34231.96485423623, 46243.993490218345, 35889.48081606398, 44381.668493946614, 24424.287608180955, 24590.45047646171, -2496.9580765912624, 8.873642548756903, -0.10400000000000001, 0.988, 0.256, 192.0, 0.0, 0.0, 0.0, 0.0, 0.0, 0.0, 0.0, 0.0, 0.0, 1.7068826143969047E9, 0.0, 2024-02-02 15:03:34.396
56.0, 59913.851012450585, 63149.936574689935, -31566.899307596603, -2670.1170408865264, 17506.668568452427, 8780.860457522924, 28468.165215035107, 4314.825453141386, 34338.001529932204, 46268.71451958591, 35888.13971139666, 44385.04360735937, 24437.564544387405, 24610.432936004752, -2495.7957858795867, 11.80172107240213, -0.10400000000000001, 0.988, 0.256, 192.0, 0.0, 0.0, 0.0, 0.0, 0.0, 0.0, 0.0, 0.0, 0.0, 1.7068826144052343E9, 0.0, 2024-02-02 15:03:34.405
58.0, 59916.354407829574, 63153.3563915916, -31566.541679685317, -2696.4473958548783, 17506.08742309659, 8767.605873060927, 28467.02527606789, 4309.595144938844, 34423.96633910732, 46262.098403227144, 35892.654763776634, 44382.54021198037, 24454.015428306513, 24602.453363234206, -2490.9901608216956, 15.802683329902093, -0.106, 0.988, 0.256, 192.0, 126.0, 88.0, 15.0, 112.0, 4.0, 0.0, 0.0, 0.0, 0.0, 1.7068826144129417E9, 0.0, 2024-02-02 15:03:34.412
60.0, 59906.96667515835, 63144.46039729839, -31574.275383266853, -2660.2152180928256, 17493.302225268155, 8779.720518555703, 28449.76972934839, 4302.42023496869, 34489.367543383545, 46282.34908370365, 35891.00073468694, 44388.61988647222, 24454.88714634027, 24640.630142763872, -2500.176727792827, 1.8328430453351792, -0.106, 0.988, 0.256, 192.0, 0.0, 0.0, 0.0, 0.0, 0.0, 0.0, 0.0, 0.0, 0.0, 1.70688261442095E9, 0.0, 2024-02-02 15:03:34.420
62.0, 59909.71593972635, 63148.327249089154, -31568.508633197383, -2687.171421905926, 17505.46157425184, 8786.582504103482, 28471.227404025485, 4321.195700311148, 34550.119584813074, 46255.34817640164, 35886.351571840234, 44383.23311605849, 24465.392466234265, 24573.977240798147, -2502.858937127464, 20.16127349868697, -0.106, 0.988, 0.256, 192.0, 0.0, 0.0, 0.0, 0.0, 0.0, 0.0, 0.0, 0.0, 0.0, 1.7068826144289813E9, 0.0, 2024-02-02 15:03:34.428
64.0, 59907.36900655854, 63147.723751988866, -31568.754502386393, -2662.71861347182, 17506.735623685792, 8787.431870392784, 28475.16131104962, 4329.488197504067, 34600.90274821553, 46262.67954858298, 35890.77721724239, 44373.06307233132, 24479.138789074277, 24606.990767358635, -2490.878402099419, 19.915404309678593, -0.106, 0.988, 0.256, 192.0, 0.0, 0.0, 0.0, 0.0, 0.0, 0.0, 0.0, 0.0, 0.0, 1.7068826144363437E9, 0.0, 2024-02-02 15:03:34.436
66.0, 59905.78203270221, 63145.91326068798, -31576.756426901393, -2695.3745121210236, 17500.588893960583, 8781.441602878762, 28460.744435875946, 4325.598993968844, 34651.30593196225, 46289.859269840636, 35887.8714904632, 44390.94446789557, 24506.094992887378, 24604.085040579444, -2499.5061754591675, 23.849311333812636, -0.106, 0.988, 0.256, 192.0, 0.0, 0.0, 0.0, 0.0, 0.0, 0.0, 0.0, 0.0, 0.0, 1.7068826144452856E9, 0.0, 2024-02-02 15:03:34.445
68.0, 59902.22810533382, 63143.856900198094, -31592.71557244248, -2711.8253960401294, 17489.971815344314, 8762.68848928076, 28467.896994101644, 4319.787540410464, 34681.413731743545, 46289.144014018064, 35874.39338855665, 44346.06216502931, 24513.113440646346, 24650.509613813116, -2515.8005971670864, -13.500453651005467, -0.096, 0.99, 0.254, 192.0, 126.5, 0.0, 15.0, 120.0, 3.5, 120.0, 0.0, 0.0, 0.0, 1.7068826144530056E9, 0.0, 2024-02-02 15:03:34.453
70.0, 59890.82871566161, 63128.32243780165, -31595.174264332567, -2722.353067678579, 17505.439222507386, 8743.153064626822, 28462.398464965638, 4314.154900807726, 34704.23486283241, 46297.43651121098, 35854.67914994707, 44353.862923844215, 24494.315623559432, 24608.3095202815, -2517.7675506791534, -1.7434360675139509, -0.096, 0.99, 0.254, 192.0, 0.0, 0.0, 0.0, 0.0, 0.0, 0.0, 0.0, 0.0, 0.0, 1.7068826144613113E9, 0.0, 2024-02-02 15:03:34.461
72.0, 59896.170782586436, 63143.83454845364, -31565.80407211829, -2650.2016365768477, 17510.535420243195, 8804.061568267532, 28475.20601453853, 4336.551348751945, 34739.26004639388, 46297.0788832997, 35884.20580437253, 44351.001900553936, 24490.784047935493, 24568.63517387333, -2494.812309123553, -0.13411046673184238, -0.096, 0.99, 0.254, 192.0, 0.0, 0.0, 0.0, 0.0, 0.0, 0.0, 0.0, 0.0, 0.0, 1.7068826144693444E9, 0.0, 2024-02-02 15:03:34.469
74.0, 59912.599314761086, 63146.76262697728, -31577.181110046044, -2640.635089949976, 17506.780327174703, 8791.142259972365, 28483.386753009174, 4349.224787858104, 34790.78081736336, 46245.37929837457, 35882.88705144967, 44398.678171477106, 24524.982216952114, 24524.959865207657, -2507.2398790407037, 20.675363621159033, -0.096, 0.99, 0.254, 192.0, 0.0, 0.0, 0.0, 0.0, 0.0, 0.0, 0.0, 0.0, 0.0, 1.70688261447704E9, 0.0, 2024-02-02 15:03:34.477
76.0, 59918.56723053065, 63149.3554293341, -31534.310464180766, -2674.453279310856, 17533.535365287706, 8790.382300660885, 28501.290500317875, 4355.751497239054, 34840.13346912068, 46280.2256679804, 35892.36419109871, 44378.516897978414, 24522.1882488952, 24570.73623785213, -2486.944495075285, 25.27982297895229, -0.096, 0.99, 0.254, 192.0, 0.0, 0.0, 0.0, 0.0, 0.0, 0.0, 0.0, 0.0, 0.0, 1.7068826144840276E9, 0.0, 2024-02-02 15:03:34.484
78.0, 59890.85106740607, 63122.55568773219, -31615.693165742538, -2757.6241204290536, 17500.164210815932, 8731.664267976794, 28472.30028775934, 4323.766150923509, 34760.337741415235, 46278.21401097942, 35884.719894495, 44348.20793249702, 24512.353481334863, 24560.67795284724, -2495.8628411129525, 8.605421615293219, -0.092, 0.99, 0.25, 192.0, 126.5, 16.0, 15.0, 120.0, 3.5, 104.0, 0.0, 0.0, 0.0, 1.7068826144923377E9, 0.0, 2024-02-02 15:03:34.492
80.0, 59906.20671584686, 63140.39237980752, -31570.78851113183, -2681.963465447839, 17500.633597449494, 8797.132527486388, 28471.026238325387, 4334.2714708175035, 34875.56098408234, 46249.40261237653, 35872.82876644478, 44342.28472021636, 24526.77035650854, 24575.072476276455, -2508.0892453300057, -12.85225306180156, -0.092, 0.99, 0.25, 192.0, 0.0, 0.0, 0.0, 0.0, 0.0, 0.0, 0.0, 0.0, 0.0, 1.706882614501093E9, 0.0, 2024-02-02 15:03:34.501
82.0, 59886.581884215106, 63119.78407141973, -31611.40163080712, -2722.733047334319, 17475.55494017064, 8765.840085248958, 28456.385845707162, 4322.782674167475, 34753.274590167355, 46179.75457665379, 35856.7131586925, 44327.53256887586, 24449.433320693177, 24445.834689835872, -2525.680068216332, 6.057322747388214, -0.092, 0.99, 0.25, 192.0, 0.0, 0.0, 0.0, 0.0, 0.0, 0.0, 0.0, 0.0, 0.0, 1.7068826145090857E9, 0.0, 2024-02-02 15:03:34.509
84.0, 59899.61295123255, 63140.81706295217, -31612.139238374144, -2707.667971571442, 17503.42756550641, 8783.900294768846, 28478.268203528907, 4344.217997100115, 34796.50286394392, 46156.821686842646, 35869.49835652093, 44373.53245896488, 24537.94622873619, 24551.82666204294, -2511.710227931765, 0.29057267791899183, -0.092, 0.99, 0.25, 192.0, 0.0, 0.0, 0.0, 0.0, 0.0, 0.0, 0.0, 0.0, 0.0, 1.706882614516092E9, 0.0, 2024-02-02 15:03:34.516
86.0, 59889.55466622766, 63133.32922855965, -31598.01293587839, -2690.792404507685, 17505.930960885402, 8762.68848928076, 28480.41397099662, 4347.570758768411, 34645.338016192676, 46199.155890841, 35865.63150473017, 44357.68507214607, 24432.915381540704, 24500.104725373356, -2510.0561988420727, 3.6656860906703583, -0.092, 0.99, 0.25, 192.0, 0.0, 0.0, 0.0, 0.0, 0.0, 0.0, 0.0, 0.0, 0.0, 1.7068826145250971E9, 0.0, 2024-02-02 15:03:34.525
88.0, 59906.631398991514, 63148.52841478925, -31550.38136844413, -2709.545518105688, 17525.913420428446, 8792.908047784334, 28501.53636950688, 4367.240293889081, 34521.33053795464, 46189.34347502512, 35872.00175189993, 44331.891159044644, 24463.760788889027, 24454.328352728888, -2502.97069584974, 11.80172107240213, -0.094, 0.993, 0.25, 192.0, 126.5, 0.0, 15.5, 16.0, 3.5, 104.0, 0.0, 0.0, 0.0, 1.7068826145331168E9, 0.0, 2024-02-02 15:03:34.533
90.0, 59879.20580854486, 63136.72669371685, -31609.658194739604, -2735.6300038850313, 17490.664719422428, 8774.154934186332, 28471.048590069844, 4327.543595736456, 34250.91913353433, 46202.97803914286, 35884.3175630948, 44358.98147332448, 24466.26418426802, 24539.2426299146, -2503.0824545720166, -1.5646221118714945, -0.094, 0.993, 0.25, 192.0, 0.0, 0.0, 0.0, 0.0, 0.0, 0.0, 0.0, 0.0, 0.0, 1.7068826145401175E9, 0.0, 2024-02-02 15:03:34.540
92.0, 59921.607067776575, 63166.18629290895, -31573.49307221092, -2648.078220853594, 17519.85609768106, 8797.601914119949, 28492.707430447037, 4351.012927414528, 33991.3706769193, 46082.94917141786, 35849.42649000007, 44372.7724996534, 24434.03296876347, 24457.189376019167, -2514.1242163329384, 3.3304099238407523, -0.094, 0.993, 0.25, 192.0, 0.0, 0.0, 0.0, 0.0, 0.0, 0.0, 0.0, 0.0, 0.0, 1.7068826145484147E9, 0.0, 2024-02-02 15:03:34.548
94.0, 59919.5954107756, 63161.73829576234, -31560.86433659367, -2666.697223984864, 17525.80166170617, 8801.26760021062, 28511.237026600484, 4382.931218496707, 33708.77757177086, 46132.30182317518, 35926.67411883761, 44413.98911642899, 24421.001901746025, 24460.36332373182, -2459.585959861989, 53.554779714915725, -0.094, 0.993, 0.25, 192.0, 0.0, 0.0, 0.0, 0.0, 0.0, 0.0, 0.0, 0.0, 0.0, 1.7068826145571198E9, 0.0, 2024-02-02 15:03:34.557
96.0, 59891.834544162106, 63143.63338275354, -31612.87684594117, -2743.386059211023, 17508.344949286577, 8786.962483759224, 28495.25552931494, 4385.00993073105, 33451.643103557006, 46109.905375230956, 35864.75978669641, 44357.26038900142, 24396.68320377865, 24490.113495601832, -2506.4128644958573, 11.913479794678665, -0.094, 0.993, 0.25, 192.0, 0.0, 0.0, 0.0, 0.0, 0.0, 0.0, 0.0, 0.0, 0.0, 1.7068826145651643E9, 0.0, 2024-02-02 15:03:34.565
98.0, 59907.1901926029, 63151.009458423796, -31614.55322677532, -2705.3657418925454, 17503.204048061856, 8769.036384706067, 28485.644279199158, 4385.524020853522, 33286.106084121, 46084.33497957409, 35826.49360018892, 44305.8066732653, 24398.02430844597, 24537.1415659358, -2534.8666351874635, -32.767657371480155, -0.099, 0.9995, 0.248, 192.0, 126.0, 96.0, 15.5, 56.0, 3.5, 88.0, 0.0, 0.0, 0.0, 1.7068826145721824E9, 0.0, 2024-02-02 15:03:34.572
100.0, 59912.442852549895, 63160.35248760611, -31535.964493270458, -2721.2801839447243, 17532.395426320487, 8785.375509902897, 28507.75015446546, 4392.698930823676, 33204.61162383695, 46088.31359008713, 35905.64112730517, 44370.82789788579, 24370.665773232675, 24512.778164479514, -2508.9386116193073, -3.2857064349301384, -0.099, 0.9995, 0.248, 192.0, 0.0, 0.0, 0.0, 0.0, 0.0, 0.0, 0.0, 0.0, 0.0, 1.7068826145804462E9, 0.0, 2024-02-02 15:03:34.580
102.0, 59908.79951820368, 63156.41858058198, -31581.45029323701, -2661.735136715786, 17505.66273995194, 8812.89050732738, 28503.59272999677, 4382.394776629779, 33104.69932612173, 46091.085206399584, 35879.95897292602, 44340.295414959844, 24343.53075546393, 24519.32722560492, -2499.953210348274, 6.0126192584776, -0.099, 0.9995, 0.248, 192.0, 0.0, 0.0, 0.0, 0.0, 0.0, 0.0, 0.0, 0.0, 0.0, 1.7068826145891654E9, 0.0, 2024-02-02 15:03:34.589
104.0, 59911.52643102723, 63156.64209802653, -31582.2549560374, -2681.8517067255625, 17516.458632523852, 8791.522239628106, 28502.318680562817, 4372.291788135981, 33138.60692246043, 46079.81992719411, 35885.68101950658, 44382.11552883572, 24343.933086864126, 24461.525614443497, -2501.0931493154944, 6.23613670303067, -0.099, 0.9995, 0.248, 192.0, 0.0, 0.0, 0.0, 0.0, 0.0, 0.0, 0.0, 0.0, 0.0, 1.7068826145962071E9, 0.0, 2024-02-02 15:03:34.596
106.0, 59914.29804733969, 63158.13966490504, -31587.798188662317, -2696.000360965772, 17515.430452278906, 8796.752547830647, 28500.35172705075, 4374.884590492796, 33075.46324437419, 46046.11349655551, 35887.73737999647, 44377.466365989014, 24353.63374395773, 24484.212635065633, -2492.3089137445586, 13.209880973086474, -0.099, 0.9995, 0.248, 192.0, 0.0, 0.0, 0.0, 0.0, 0.0, 0.0, 0.0, 0.0, 0.0, 1.7068826146043684E9, 0.0, 2024-02-02 15:03:34.604
108.0, 59912.39814906099, 63157.73733350484, -31580.288002525333, -2698.839032511596, 17517.84444068008, 8790.941094272268, 28498.138904349675, 4371.710642780143, 33062.67804654575, 46057.4234792499, 35881.054208404326, 44354.51112443342, 24352.896136390704, 24490.538178746487, -2495.68402715731, 10.460616405083705, -0.1015, 0.99875, 0.25, 192.0, 126.0, 96.0, 15.5, 24.0, 3.5, 112.0, 0.0, 0.0, 0.0, 1.7068826146132193E9, 0.0, 2024-02-02 15:03:34.613
110.0, 59897.824811676124, 63149.22131886737, -31597.185921333545, -2708.2491169272803, 17499.583065460094, 8778.155896443832, 28483.49851173145, 4355.9973664280615, 33069.852956515904, 46016.653897363416, 35886.798606729346, 44365.55288619434, 24364.20611908509, 24504.619777753327, -2492.3759689779245, 12.40521817269542, -0.1015, 0.99875, 0.25, 192.0, 0.0, 0.0, 0.0, 0.0, 0.0, 0.0, 0.0, 0.0, 0.0, 1.7068826146212704E9, 0.0, 2024-02-02 15:03:34.621
112.0, 59901.2893320667, 63152.328211346656, -31599.465799267986, -2719.1791199659256, 17499.13603057099, 8778.155896443832, 28478.71523841801, 4350.9458721811625, 33042.27090385806, 46037.910406340416, 35852.48867899045, 44350.420755198094, 24317.24510398449, 24500.99879515157, -2518.3710477794466, -9.544194882416116, -0.1015, 0.99875, 0.25, 192.0, 0.0, 0.0, 0.0, 0.0, 0.0, 0.0, 0.0, 0.0, 0.0, 1.7068826146282384E9, 0.0, 2024-02-02 15:03:34.628
114.0, 59916.712035740864, 63164.129932419055, -31565.02176106236, -2676.2190671228254, 17523.208859349354, 8794.718539085216, 28507.727802721, 4370.749517768564, 33084.71686657868, 46041.956072086825, 35900.9249092251, 44374.337121765275, 24368.095322620313, 24519.349577349374, -2487.30212298657, 6.280840191941285, -0.1015, 0.99875, 0.25, 192.0, 0.0, 0.0, 0.0, 0.0, 0.0, 0.0, 0.0, 0.0, 0.0, 1.7068826146364639E9, 0.0, 2024-02-02 15:03:34.636
116.0, 59912.06287289416, 63160.46424632839, -31572.64370592162, -2684.600971293565, 17515.050472623167, 8790.78463206108, 28496.26135781543, 4366.0332996884945, 33088.29314569153, 46033.48476093826, 35897.415685345615, 44382.45080500255, 24355.86891840326, 24502.56341726344, -2480.663654883344, 23.89401482272325, -0.1015, 0.99875, 0.25, 192.0, 0.0, 0.0, 0.0, 0.0, 0.0, 0.0, 0.0, 0.0, 0.0, 1.706882614645292E9, 0.0, 2024-02-02 15:03:34.645
118.0, 59917.02496016324, 63164.9569469639, -31566.944011085514, -2679.7953462356745, 17519.766690703236, 8797.758376331136, 28495.54610199286, 4369.833096245897, 33083.778093311565, 46020.45369392082, 35893.16885389911, 44375.87939213269, 24348.09051133281, 24514.029862169013, -2483.4352711958018, 17.456712419594815, -0.10275000000000001, 0.997375, 0.252, 192.0, 126.0, 96.0, 15.5, 16.0, 3.5, 120.0, 0.0, 0.0, 0.0, 1.7068826146523137E9, 0.0, 2024-02-02 15:03:34.652
120.0, 59921.36119858756, 63172.042449956236, -31562.51836568336, -2678.320131101624, 17519.90080116997, 8786.180172703287, 28497.088372360275, 4366.614445044333, 33095.535110895056, 46024.78993234515, 35909.39622037366, 44392.95612489655, 24367.4024185422, 24534.258190901066, -2471.0300530231066, 27.78321835794668, -0.10275000000000001, 0.997375, 0.252, 192.0, 0.0, 0.0, 0.0, 0.0, 0.0, 0.0, 0.0, 0.0, 0.0, 1.706882614660324E9, 0.0, 2024-02-02 15:03:34.660
122.0, 59910.74411997129, 63161.917109717986, -31570.810862876282, -2688.780747506708, 17515.251638323265, 8796.193754219265, 28490.44990425705, 4356.533808294989, 33087.98022126916, 46011.15536822741, 35901.64016504767, 44382.83078465829, 24360.29456380541, 24520.9365512057, -2478.6519978823662, 17.546119397416046, -0.10275000000000001, 0.997375, 0.252, 192.0, 0.0, 0.0, 0.0, 0.0, 0.0, 0.0, 0.0, 0.0, 0.0, 1.706882614669326E9, 0.0, 2024-02-02 15:03:34.669
124.0, 59913.51573628375, 63165.73925801984, -31569.73797914243, -2680.57765729161, 17509.261370809243, 8786.403690147841, 28477.418837239606, 4348.5989390133545, 33086.37089566838, 45997.67726632086, 35895.53813881137, 44376.438185744075, 24352.42674975714, 24533.744100778593, -2487.1903642642933, 8.381904170740148, -0.10275000000000001, 0.997375, 0.252, 192.0, 0.0, 0.0, 0.0, 0.0, 0.0, 0.0, 0.0, 0.0, 0.0, 1.7068826146773646E9, 0.0, 2024-02-02 15:03:34.677
126.0, 59906.3408263136, 63156.46328407089, -31578.879842624647, -2687.841974239585, 17504.791021918183, 8781.240437178665, 28472.188529037063, 4339.926462164696, 33114.332927981966, 46005.54508036913, 35895.62754578919, 44382.96489512502, 24362.3509242953, 24521.47299307263, -2489.7161113877432, 10.371209427262476, -0.10275000000000001, 0.997375, 0.252, 192.0, 0.0, 0.0, 0.0, 0.0, 0.0, 0.0, 0.0, 0.0, 0.0, 1.7068826146843348E9, 0.0, 2024-02-02 15:03:34.684
128.0, 59909.447718792886, 63157.3573538491, -31575.325915256253, -2680.0859189135936, 17515.899838912468, 8786.44839363675, 28497.110724104732, 4350.454133803146, 33147.92759989829, 46011.66945834988, 35891.17954864258, 44380.10387183474, 24363.379104540243, 24522.85880122886, -2488.1291375314163, 10.57237512736024, -0.101375, 0.9966875, 0.254, 192.0, 126.0, 112.0, 15.5, 16.0, 4.0, 0.0, 0.0, 0.0, 0.0, 1.706882614692475E9, 0.0, 2024-02-02 15:03:34.692
130.0, 59913.40397756147, 63162.677069029465, -31575.594136189717, -2672.508677543244, 17509.17196383142, 8785.330806413986, 28483.565566964815, 4335.612575484822, 33206.84679828248, 46039.00564181872, 35890.79956898684, 44380.282685790386, 24367.715342964573, 24529.56432456545, -2487.4362334533016, 15.243889718519418, -0.101375, 0.9966875, 0.254, 192.0, 0.0, 0.0, 0.0, 0.0, 0.0, 0.0, 0.0, 0.0, 0.0, 1.7068826147013896E9, 0.0, 2024-02-02 15:03:34.701
132.0, 59906.45258503588, 63153.93753694744, -31586.054752594802, -2681.2482096252693, 17500.208914304843, 8778.40176563284, 28468.031104568377, 4313.484348474068, 33275.42195027137, 46081.518659772715, 35890.24077537546, 44382.20493581354, 24368.654116231697, 24533.967618223145, -2493.8958876008855, 17.076732763854597, -0.101375, 0.9966875, 0.254, 192.0, 0.0, 0.0, 0.0, 0.0, 0.0, 0.0, 0.0, 0.0, 0.0, 1.7068826147083807E9, 0.0, 2024-02-02 15:03:34.708
134.0, 59910.364140315556, 63158.966679449884, -31581.316182770275, -2675.548514789166, 17503.449917250862, 8783.117983712911, 28465.415950467104, 4304.834223369864, 33366.147681015456, 46089.006494165245, 35885.189281128565, 44379.18745031208, 24369.86111043228, 24532.91708623375, -2496.421634724335, 16.227366474552927, -0.101375, 0.9966875, 0.254, 192.0, 0.0, 0.0, 0.0, 0.0, 0.0, 0.0, 0.0, 0.0, 0.0, 1.706882614716386E9, 0.0, 2024-02-02 15:03:34.716
136.0, 59911.36996881604, 63159.99485969482, -31576.219985034466, -2690.9935702077833, 17507.674396952916, 8781.821582534503, 28474.513110460415, 4307.225860026581, 33503.11917103758, 46121.4835788588, 35888.65380151913, 44380.08152009029, 24383.763895483484, 24554.978258011135, -2488.173841020327, 25.168064256675752, -0.101375, 0.9966875, 0.254, 192.0, 0.0, 0.0, 0.0, 0.0, 0.0, 0.0, 0.0, 0.0, 0.0, 1.7068826147244265E9, 0.0, 2024-02-02 15:03:34.724
138.0, 59921.472957309845, 63171.50600808931, -31562.16073777208, -2666.9877966627832, 17514.89401041198, 8791.969274517212, 28478.201148295542, 4320.256927044025, 33665.906925905576, 46163.21428575686, 35893.30296436584, 44374.98532235448, 24389.128314152757, 24586.225996759655, -2485.7375008746985, 13.902785051200993, -0.10268750000000001, 1.00134375, 0.256, 192.0, 126.0, 96.0, 15.5, 56.0, 4.0, 8.0, 0.0, 0.0, 0.0, 1.7068826147328084E9, 0.0, 2024-02-02 15:03:34.732
140.0, 59915.21446886235, 63167.81797025418, -31563.52419418385, -2697.900259244473, 17503.740489928783, 8773.014995219111, 28463.11372078821, 4314.400769996735, 33836.473087844024, 46172.80318412819, 35891.6712870206, 44378.29338053386, 24395.722078767074, 24569.1492639958, -2491.884230599908, 18.730761853547317, -0.10268750000000001, 1.00134375, 0.256, 192.0, 0.0, 0.0, 0.0, 0.0, 0.0, 0.0, 0.0, 0.0, 0.0, 1.7068826147405188E9, 0.0, 2024-02-02 15:03:34.740
142.0, 59921.85293696558, 63173.45060985692, -31546.67097886455, -2632.767275901708, 17512.502373755262, 8797.087823997477, 28474.960145349523, 4326.716581191609, 34003.999412536556, 46233.55522555771, 35894.44290333306, 44397.40412204315, 24408.887256251248, 24569.641002373817, -2495.2816957571144, 14.61804087377082, -0.10268750000000001, 1.00134375, 0.256, 192.0, 0.0, 0.0, 0.0, 0.0, 0.0, 0.0, 0.0, 0.0, 0.0, 1.70688261474851E9, 0.0, 2024-02-02 15:03:34.748
144.0, 59922.590544532606, 63175.59637732463, -31554.002351045892, -2670.0946891420713, 17505.729795185303, 8782.290969168063, 28463.985438821965, 4314.154900807726, 34159.14287080084, 46228.615490033095, 35898.44386559056, 44390.54213649537, 24412.128259197267, 24563.874252304347, -2491.437195710802, 15.959145541089242, -0.10268750000000001, 1.00134375, 0.256, 192.0, 0.0, 0.0, 0.0, 0.0, 0.0, 0.0, 0.0, 0.0, 0.0, 1.7068826147569432E9, 0.0, 2024-02-02 15:03:34.756
146.0, 59913.04634965019, 63167.639156298545, -31569.067426808768, -2704.5834308366098, 17497.146725314466, 8765.460105593218, 28458.35279921923, 4295.692359887643, 34285.7431513957, 46239.54549307174, 35887.44680731855, 44378.78511891188, 24401.757049770004, 24537.76741478055, -2499.7296929037207, 10.19239547162002, -0.10268750000000001, 1.00134375, 0.256, 192.0, 0.0, 0.0, 0.0, 0.0, 0.0, 0.0, 0.0, 0.0, 0.0, 1.7068826147635517E9, 0.0, 2024-02-02 15:03:34.763
148.0, 59919.014265419755, 63174.85876975761, -31566.184051774035, -2672.4416223098783, 17494.93390261339, 8778.468820866206, 28445.47819441297, 4283.5106591595, 34398.19477775035, 46233.44346683544, 35882.305906093825, 44347.9173598191, 24410.60834057431, 24573.887833820325, -2501.6072394379667, 0.715255822569826, -0.10434375000000001, 0.995671875, 0.254, 192.0, 126.0, 88.0, 15.0, 120.0, 3.5, 112.0, 0.0, 0.0, 0.0, 1.7068826147725391E9, 0.0, 2024-02-02 15:03:34.772
150.0, 59926.90443121248, 63182.79363903924, -31558.67386563705, -2649.128752842993, 17501.0806323386, 8782.603893590438, 28451.87079332719, 4283.778880092965, 34512.568654128154, 46255.6163973351, 35911.43022911909, 44412.73741873949, 24426.053395992923, 24564.187176726722, -2488.2855997426036, 28.185549758142205, -0.10434375000000001, 0.995671875, 0.254, 192.0, 0.0, 0.0, 0.0, 0.0, 0.0, 0.0, 0.0, 0.0, 0.0, 1.7068826147805147E9, 0.0, 2024-02-02 15:03:34.780
152.0, 59922.791710232705, 63178.189179681445, -31564.351208728698, -2669.1782676194034, 17501.639425949983, 8780.413422633817, 28453.43541543906, 4279.867324813285, 34587.02231490878, 46256.979853746874, 35906.19992091655, 44398.14172961018, 24429.808489061415, 24554.1959469552, -2484.552858418567, 34.287575994441035, -0.10434375000000001, 0.995671875, 0.254, 192.0, 0.0, 0.0, 0.0, 0.0, 0.0, 0.0, 0.0, 0.0, 0.0, 1.7068826147888095E9, 0.0, 2024-02-02 15:03:34.788
154.0, 59891.23104706181, 63151.0541619127, -31635.094479929747, -2761.3121582641793, 17458.65702136243, 8745.902329194823, 28438.951485032023, 4259.616644336777, 34603.96493720591, 46220.010068417796, 35881.5682985268, 44368.10098506224, 24423.080613980368, 24567.606993628382, -2498.4779952142235, 19.423665931661837, -0.10434375000000001, 0.995671875, 0.254, 192.0, 0.0, 0.0, 0.0, 0.0, 0.0, 0.0, 0.0, 0.0, 0.0, 1.7068826147968156E9, 0.0, 2024-02-02 15:03:34.796
156.0, 59920.93651544291, 63179.19500818194, -31569.447406464507, -2713.3453146630904, 17515.899838912468, 8760.050983435034, 28458.44220619705, 4277.542743389934, 34668.09209204818, 46269.56388587521, 35819.810428596786, 44325.38680140815, 24437.1175094983, 24617.741956441638, -2533.190254353315, -22.754075855502588, -0.10434375000000001, 0.995671875, 0.254, 192.0, 0.0, 0.0, 0.0, 0.0, 0.0, 0.0, 0.0, 0.0, 0.0, 1.706882614804546E9, 0.0, 2024-02-02 15:03:34.804
158.0, 59924.691608511406, 63181.74310704984, -31559.43382494853, -2644.2113690628257, 17501.37120501652, 8787.186001203776, 28458.10693003022, 4293.256019742014, 34775.648686367116, 46254.29764441224, 35937.179438731604, 44411.70923849455, 24440.805547333428, 24543.243592172097, -2468.4148989218356, 40.1884365306421, -0.109171875, 1.0008359375, 0.253, 192.0, 126.0, 56.0, 15.5, 56.0, 3.5, 112.0, 0.0, 0.0, 0.0, 1.706882614812528E9, 0.0, 2024-02-02 15:03:34.812
160.0, 59896.304893053166, 63164.97929870836, -31611.468686040487, -2687.193773650381, 17470.92812906839, 8758.531064812072, 28440.58316237726, 4284.874115571274, 34708.21347334546, 46327.052572614266, 35864.78213844087, 44349.504333675424, 24446.617000891805, 24572.81495008647, -2519.3545245354803, -0.6034971002932907, -0.109171875, 1.0008359375, 0.253, 192.0, 0.0, 0.0, 0.0, 0.0, 0.0, 0.0, 0.0, 0.0, 0.0, 1.7068826148197007E9, 0.0, 2024-02-02 15:03:34.819
162.0, 59908.66540773695, 63165.29222313073, -31581.360886259186, -2702.214145924347, 17508.65787370895, 8783.050928479544, 28462.510223687917, 4311.226822284081, 34837.317149319315, 46223.854568464114, 35871.889993177654, 44369.12916530719, 24435.709349597615, 24542.595391582894, -2513.0960360879944, 15.243889718519418, -0.109171875, 1.0008359375, 0.253, 192.0, 0.0, 0.0, 0.0, 0.0, 0.0, 0.0, 0.0, 0.0, 0.0, 1.7068826148287337E9, 0.0, 2024-02-02 15:03:34.828
164.0, 59932.26884988175, 63192.33783392166, -31526.979091999423, -2678.6554072684535, 17518.380882547008, 8762.532027069572, 28460.81149110931, 4315.674819430687, 34789.88674758515, 46226.91675745449, 35847.72775742147, 44343.13408650566, 24410.49658185203, 24580.369839712363, -2521.4108850253683, -11.80172107240213, -0.109171875, 1.0008359375, 0.253, 192.0, 0.0, 0.0, 0.0, 0.0, 0.0, 0.0, 0.0, 0.0, 0.0, 1.7068826148365853E9, 0.0, 2024-02-02 15:03:34.836
166.0, 59928.98314344682, 63190.214418198404, -31519.111277951157, -2622.038438563161, 17527.992132662792, 8811.080016026499, 28489.466427501015, 4343.882720933285, 34815.65830894212, 46246.18396117496, 35933.46904915202, 44428.3389363693, 24456.004733563037, 24516.04151916999, -2474.874553069419, 41.417782475683985, -0.109171875, 1.0008359375, 0.253, 192.0, 0.0, 0.0, 0.0, 0.0, 0.0, 0.0, 0.0, 0.0, 0.0, 1.7068826148446257E9, 0.0, 2024-02-02 15:03:34.844
168.0, 59904.4409280349, 63166.43216209795, -31591.754447430903, -2718.0838844876153, 17492.899893867958, 8765.840085248958, 28466.19826152304, 4318.424083998691, 34717.623557761144, 46210.018838646276, 35905.462313349526, 44388.35166553875, 24421.963026757603, 24516.980292437114, -2487.257419497659, 27.939680569133827, -0.1065859375, 0.99941796875, 0.2505, 192.0, 126.0, 96.0, 15.5, 24.0, 3.5, 96.0, 0.0, 0.0, 0.0, 1.706882614851843E9, 0.0, 2024-02-02 15:03:34.851
170.0, 59886.69364293738, 63143.74514147582, -31645.0186544679, -2759.16639079647, 17450.185710213867, 8736.894576179335, 28428.62497909367, 4288.070415028384, 34520.25765422078, 46130.55838710766, 35818.64813788511, 44310.12055994518, 24411.770631285985, 24555.09001673341, -2549.5293795501448, -34.44403820562818, -0.1065859375, 0.99941796875, 0.2505, 192.0, 0.0, 0.0, 0.0, 0.0, 0.0, 0.0, 0.0, 0.0, 0.0, 1.706882614860634E9, 0.0, 2024-02-02 15:03:34.860
172.0, 59934.57107956065, 63190.12501122058, -31523.67103382004, -2646.424191763901, 17535.792891477693, 8797.512507142128, 28480.525729718895, 4334.696153962154, 34491.4909591068, 46216.94787942742, 35902.28836563687, 44376.39348225516, 24389.977680442058, 24501.401126551766, -2507.5080999741676, 3.4198169016619806, -0.1065859375, 0.99941796875, 0.2505, 192.0, 0.0, 0.0, 0.0, 0.0, 0.0, 0.0, 0.0, 0.0, 0.0, 1.7068826148686512E9, 0.0, 2024-02-02 15:03:34.868
174.0, 59920.556535787175, 63183.777115795274, -31567.90513609709, -2686.255000383258, 17515.38574879, 8764.744849770648, 28482.671497186602, 4328.638831214766, 34242.62663634141, 46141.60014886858, 35901.52840632539, 44400.37690405571, 24377.460703547087, 24534.99579846809, -2478.406128693358, 10.371209427262476, -0.1065859375, 0.99941796875, 0.2505, 192.0, 0.0, 0.0, 0.0, 0.0, 0.0, 0.0, 0.0, 0.0, 0.0, 1.706882614875815E9, 0.0, 2024-02-02 15:03:34.875
176.0, 59916.6896839964, 63181.69840356093, -31591.642688708627, -2692.4911370862887, 17498.152553814954, 8779.921684255802, 28453.34600846124, 4302.442586713146, 34060.50462251957, 46162.27551248974, 35882.12709213819, 44387.70346494955, 24393.3080903659, 24501.535237018496, -2494.789957379098, 13.053418761899325, -0.1065859375, 0.99941796875, 0.2505, 192.0, 0.0, 0.0, 0.0, 0.0, 0.0, 0.0, 0.0, 0.0, 0.0, 1.706882614884648E9, 0.0, 2024-02-02 15:03:34.884
178.0, 59926.144471901, 63187.71102281941, -31557.600981903197, -2673.6039130215545, 17514.044644122678, 8784.034405235578, 28483.140883820164, 4320.413389255213, 33856.07556773133, 46154.295939719195, 35919.96859550102, 44413.85500596226, 24378.980622170046, 24506.22910335411, -2484.619913651933, 20.63066013224842, -0.10329296875, 1.001708984375, 0.25025, 192.0, 126.0, 112.0, 15.5, 48.0, 3.5, 104.0, 0.0, 0.0, 0.0, 1.7068826148926578E9, 0.0, 2024-02-02 15:03:34.892
180.0, 59913.00164616128, 63181.29607216073, -31576.77877864585, -2698.4367011114005, 17503.964007373335, 8769.572826572994, 28477.91057561762, 4331.768075438509, 33646.70677741847, 46143.880026803025, 35904.94822322705, 44395.43716853108, 24370.218738343567, 24507.0337661545, -2485.1563555188604, 11.734665839036207, -0.10329296875, 1.001708984375, 0.25025, 192.0, 0.0, 0.0, 0.0, 0.0, 0.0, 0.0, 0.0, 0.0, 0.0, 1.7068826148996856E9, 0.0, 2024-02-02 15:03:34.899
182.0, 59915.594448518095, 63179.12795294857, -31577.449330979507, -2702.214145924347, 17502.309978283643, 8767.36000387192, 28478.804645395834, 4346.341412823369, 33481.92971729395, 46129.17257895143, 35866.14559485264, 44361.909551848126, 24337.026397827434, 24504.99975740907, -2518.616916968455, -13.791026328924458, -0.10329296875, 1.001708984375, 0.25025, 192.0, 0.0, 0.0, 0.0, 0.0, 0.0, 0.0, 0.0, 0.0, 0.0, 1.706882614907914E9, 0.0, 2024-02-02 15:03:34.907
184.0, 59917.963733430355, 63180.916092504995, -31591.97796487546, -2678.5436485461773, 17517.263295324243, 8777.150067943343, 28481.240985541463, 4354.768020483019, 33404.726791945315, 46127.20562543936, 35879.53428978137, 44370.15734555213, 24377.281889591442, 24515.4380220697, -2509.4974052306898, -12.94166003962279, -0.10329296875, 1.001708984375, 0.25025, 192.0, 0.0, 0.0, 0.0, 0.0, 0.0, 0.0, 0.0, 0.0, 0.0, 1.7068826149167054E9, 0.0, 2024-02-02 15:03:34.916
186.0, 59913.04634965019, 63177.67508955897, -31543.67584510754, -2674.38622407749, 17522.203030848865, 8779.83227727798, 28487.141846077666, 4353.1810466266925, 33358.03399777818, 46138.9402912784, 35909.03859246238, 44383.88131664769, 24360.227508572043, 24524.959865207657, -2496.2428207686926, 3.1515959681982957, -0.10329296875, 1.001708984375, 0.25025, 192.0, 0.0, 0.0, 0.0, 0.0, 0.0, 0.0, 0.0, 0.0, 0.0, 1.7068826149237337E9, 0.0, 2024-02-02 15:03:34.923
188.0, 59917.36023633007, 63183.151266950525, -31561.803109860793, -2679.4600700688447, 17523.79000470519, 8784.772012802603, 28492.416857769116, 4348.688345991176, 33313.710488523306, 46129.79842779618, 35905.037630204875, 44384.30599979234, 24339.48508971752, 24505.491495787086, -2482.6082566509554, 14.416875173673056, -0.10329296875, 1.001708984375, 0.25025, 192.0, 0.0, 0.0, 0.0, 0.0, 0.0, 0.0, 0.0, 0.0, 0.0, 1.7068826149319513E9, 0.0, 2024-02-02 15:03:34.931
190.0, 59906.96667515835, 63175.037583713245, -31576.53290945684, -2687.931381217406, 17512.994112133278, 8772.50090509664, 28480.615136696713, 4334.472636517601, 33291.135226623446, 46116.14151193399, 35896.566319056314, 44381.959066624535, 24349.453967744586, 24514.879228458314, -2483.7034921292657, 8.381904170740148, -0.108, 0.986, 0.252, 192.0, 126.0, 80.0, 15.0, 104.0, 3.5, 112.0, 0.0, 0.0, 0.0, 1.7068826149397333E9, 0.0, 2024-02-02 15:03:34.939
192.0, 59901.892829166994, 63170.299013888725, -31585.898290383615, -2694.547497576177, 17506.26623705223, 8771.092745195954, 28470.802720880834, 4326.224842813593, 33281.59103174103, 46108.34075311908, 35887.066827662806, 44377.66753168911, 24348.71636017756, 24514.94628369168, -2497.0251318246287, -2.6822093346368474, -0.108, 0.986, 0.252, 192.0, 0.0, 0.0, 0.0, 0.0, 0.0, 0.0, 0.0, 0.0, 0.0, 1.7068826149487834E9, 0.0, 2024-02-02 15:03:34.948
194.0, 59896.75192794227, 63169.40494411051, -31588.20052006251, -2693.4299103534117, 17506.84738240807, 8771.11509694041, 28469.171043535596, 4323.609688712321, 33284.25088933121, 46103.91510771694, 35888.54204279686, 44377.66753168911, 24348.11286307727, 24519.50603956056, -2497.986256836207, 2.101063978798864, -0.108, 0.986, 0.252, 192.0, 0.0, 0.0, 0.0, 0.0, 0.0, 0.0, 0.0, 0.0, 0.0, 1.7068826149559927E9, 0.0, 2024-02-02 15:03:34.955
196.0, 59890.73930868379, 63164.04052544124, -31591.68739219754, -2697.1179481885374, 17503.539324228685, 8765.25893989312, 28466.421778967593, 4315.160729308215, 33280.495796262716, 46105.010343195245, 35879.26606884791, 44372.996017097954, 24341.72026416305, 24511.32530108992, -2505.8987743733855, -3.3751134127513667, -0.108, 0.986, 0.252, 192.0, 0.0, 0.0, 0.0, 0.0, 0.0, 0.0, 0.0, 0.0, 0.0, 1.706882614963777E9, 0.0, 2024-02-02 15:03:34.963
198.0, 59891.968654628836, 63164.37580160807, -31586.72530492846, -2689.786576007197, 17507.853210908557, 8770.086916695467, 28466.06415105631, 4310.511566461511, 33294.17506386937, 46119.38251488001, 35886.12805439568, 44375.96879911051, 24343.86603163076, 24524.937513463203, -2499.4614719702568, 2.481043634539084, -0.108, 0.986, 0.252, 192.0, 0.0, 0.0, 0.0, 0.0, 0.0, 0.0, 0.0, 0.0, 0.0, 1.7068826149728298E9, 0.0, 2024-02-02 15:03:34.972
200.0, 59890.918122639436, 63166.49921733132, -31588.87107239617, -2687.193773650381, 17503.94165562888, 8771.003338218134, 28455.625886395683, 4304.029560569473, 33322.3159101386, 46147.47865766033, 35883.915231694606, 44376.68405493308, 24350.05746484488, 24525.85393498587, -2500.489652215201, 8.001924514999928, -0.10400000000000001, 0.976, 0.246, 192.0, 126.0, 96.0, 15.0, 64.0, 3.5, 88.0, 0.0, 0.0, 0.0, 1.7068826149800007E9, 0.0, 2024-02-02 15:03:34.980
202.0, 59887.94534062688, 63162.252385884814, -31590.368639274675, -2687.573753306121, 17503.315806784132, 8766.82356200499, 28467.58406967927, 4305.325961747881, 33363.15254725845, 46177.40764348598, 35878.50610953642, 44372.370168253205, 24356.49476724801, 24540.51667934855, -2505.362332506458, 6.638468103226198, -0.10400000000000001, 0.976, 0.246, 192.0, 0.0, 0.0, 0.0, 0.0, 0.0, 0.0, 0.0, 0.0, 0.0, 1.7068826149878416E9, 0.0, 2024-02-02 15:03:34.987
204.0, 59891.20869531736, 63165.31457487519, -31583.551357215805, -2688.289009128691, 17507.98732137529, 8769.394012617351, 28469.68513365807, 4309.081054816372, 33422.89876018748, 46200.89932690851, 35881.5682985268, 44371.319636263805, 24364.384933040732, 24547.736292807615, -2498.8356231255084, 7.2643169479747955, -0.10400000000000001, 0.976, 0.246, 192.0, 0.0, 0.0, 0.0, 0.0, 0.0, 0.0, 0.0, 0.0, 0.0, 1.706882614995838E9, 0.0, 2024-02-02 15:03:34.995
206.0, 59883.56439871364, 63157.24559512682, -31589.988659618935, -2695.352160376568, 17494.9786061023, 8756.899387466836, 28447.780424091867, 4295.602952909822, 33495.0054878003, 46217.48432129435, 35875.62273450169, 44365.374072238694, 24371.805712199894, 24555.626458600338, -2508.759797663665, -0.5140901224720624, -0.10400000000000001, 0.976, 0.246, 192.0, 0.0, 0.0, 0.0, 0.0, 0.0, 0.0, 0.0, 0.0, 0.0, 1.7068826150048468E9, 0.0, 2024-02-02 15:03:35.004
208.0, 59890.89577089498, 63164.82283649717, -31578.991601346923, -2681.583485792099, 17499.69482418237, 8768.902274239335, 28448.026293280876, 4303.247249513537, 33588.30166915675, 46222.669926007984, 35878.30494383633, 44365.68699666107, 24372.92329942266, 24560.0968074914, -2512.4701872432456, -3.8221483018575078, -0.10400000000000001, 0.976, 0.246, 192.0, 0.0, 0.0, 0.0, 0.0, 0.0, 0.0, 0.0, 0.0, 0.0, 1.706882615011989E9, 0.0, 2024-02-02 15:03:35.011
210.0, 59902.742195456296, 63173.562368579194, -31566.094644796212, -2674.5873897775878, 17510.289551054186, 8777.753565043637, 28471.517976703406, 4319.5416712214555, 33713.583196828746, 46253.224760678386, 35891.96185969852, 44379.18745031208, 24392.905758965702, 24581.040392046023, -2500.489652215201, 9.767712326969187, -0.106, 0.988, 0.256, 192.0, 126.0, 88.0, 15.0, 112.0, 4.0, 0.0, 0.0, 0.0, 0.0, 1.7068826150199003E9, 0.0, 2024-02-02 15:03:35.019
212.0, 59901.0881663666, 63177.38451688106, -31566.474624451952, -2682.8798869705065, 17509.75310918726, 8773.976120230689, 28469.64043016916, 4317.485310731568, 33859.98712301101, 46276.559981889724, 35896.61102254522, 44377.689883433566, 24401.131200925258, 24593.73618289664, -2493.2700387561367, 17.94845079761157, -0.106, 0.988, 0.256, 192.0, 0.0, 0.0, 0.0, 0.0, 0.0, 0.0, 0.0, 0.0, 0.0, 1.706882615028083E9, 0.0, 2024-02-02 15:03:35.028
214.0, 59888.70529993836, 63163.369973107576, -31572.174319288057, -2682.991645692783, 17501.75118467226, 8763.359041614418, 28459.40333120863, 4303.917801847196, 34004.401743936745, 46267.21695270741, 35891.38071434268, 44378.8745258897, 24406.67443355017, 24578.984031556134, -2498.008608580662, 8.560718126382605, -0.106, 0.988, 0.256, 192.0, 0.0, 0.0, 0.0, 0.0, 0.0, 0.0, 0.0, 0.0, 0.0, 1.7068826150359526E9, 0.0, 2024-02-02 15:03:35.035
216.0, 59886.514828981744, 63161.85005448462, -31581.87497638166, -2723.716524090353, 17493.592797946072, 8743.287175093554, 28447.24398222494, 4287.690435372643, 34145.64241714984, 46267.1722492185, 35883.11056889422, 44365.26231351642, 24404.81923876038, 24586.047182804014, -2506.144643562394, -4.827976802346326, -0.106, 0.988, 0.256, 192.0, 0.0, 0.0, 0.0, 0.0, 0.0, 0.0, 0.0, 0.0, 0.0, 1.706882615044154E9, 0.0, 2024-02-02 15:03:35.044
218.0, 59897.15425934247, 63174.478790101864, -31575.214156533977, -2717.8827187875177, 17501.058280594145, 8773.283216152575, 28445.098214757232, 4293.032502297461, 34270.87924133292, 46272.17903997649, 35879.33312408127, 44356.61218841222, 24413.938750498146, 24655.941087715757, -2510.592640709, -14.573337384860205, -0.106, 0.988, 0.256, 192.0, 0.0, 0.0, 0.0, 0.0, 0.0, 0.0, 0.0, 0.0, 0.0, 1.7068826150519898E9, 0.0, 2024-02-02 15:03:35.051
220.0, 59884.19024755839, 63158.94432770542, -31586.524139228364, -2660.706956470842, 17486.864922865025, 8759.760410757115, 28436.090461741744, 4285.209391738104, 34379.106387985514, 46303.22561302491, 35888.78791198586, 44381.176755568595, 24425.874582037282, 24551.13375796482, -2505.2505737841816, 23.4246281891618, -0.10200000000000001, 0.982, 0.26, 192.0, 126.0, 104.0, 15.0, 88.0, 4.0, 16.0, 0.0, 0.0, 0.0, 1.7068826150613008E9, 0.0, 2024-02-02 15:03:35.061
222.0, 59887.16302957095, 63162.811179496195, -31586.2559182949, -2683.4386805818895, 17486.529646698196, 8755.40182058833, 28442.81833682279, 4286.684606872154, 34461.62902851451, 46277.56581039022, 35873.00758040042, 44363.83180187128, 24430.277875694977, 24540.829603770926, -2521.2767745586366, 9.343029182318352, -0.10200000000000001, 0.982, 0.26, 192.0, 0.0, 0.0, 0.0, 0.0, 0.0, 0.0, 0.0, 0.0, 0.0, 1.706882615068153E9, 0.0, 2024-02-02 15:03:35.068
224.0, 59888.30296853816, 63162.36414460709, -31583.886633382637, -2708.807910538663, 17499.493658482275, 8759.671003779293, 28453.368360205695, 4293.837165097852, 34537.200276517906, 46271.73200508738, 35882.55177528284, 44371.20787754153, 24440.962009544615, 24566.511758150074, -2508.5809837080224, 10.28180244944125, -0.10200000000000001, 0.982, 0.26, 192.0, 0.0, 0.0, 0.0, 0.0, 0.0, 0.0, 0.0, 0.0, 0.0, 1.7068826150759635E9, 0.0, 2024-02-02 15:03:35.075
226.0, 59878.80347714466, 63153.28933635823, -31608.49590402793, -2782.6580742189976, 17480.047640806155, 8724.444654517729, 28436.313979186296, 4271.910103787196, 34575.287649069745, 46280.560944147226, 35864.46921401849, 44327.73373457596, 24425.494602381543, 24614.657415706806, -2518.3039925460807, -13.522805395460773, -0.10200000000000001, 0.982, 0.26, 192.0, 0.0, 0.0, 0.0, 0.0, 0.0, 0.0, 0.0, 0.0, 0.0, 1.7068826150839727E9, 0.0, 2024-02-02 15:03:35.083
228.0, 59905.96084665786, 63181.31842390519, -31557.332760969733, -2613.589479159055, 17511.51889699923, 8788.21418144872, 28460.744435875946, 4305.057740814417, 34676.47399621892, 46312.859214885146, 35882.931754938574, 44382.04847360236, 24468.387599991274, 24623.598113488926, -2517.946364634796, -19.915404309678593, -0.10200000000000001, 0.982, 0.26, 192.0, 0.0, 0.0, 0.0, 0.0, 0.0, 0.0, 0.0, 0.0, 0.0, 1.7068826150919704E9, 0.0, 2024-02-02 15:03:35.091
230.0, 59897.9365703984, 63168.332060376655, -31575.392970489618, -2667.8818664409955, 17500.32067302712, 8771.53978008506, 28450.037950281854, 4301.369702979291, 34714.762534470865, 46283.846650582156, 35899.89672898015, 44400.53336626689, 24460.60919292083, 24527.32915011992, -2497.919201602841, 37.43917196263933, -0.098, 0.988, 0.252, 192.0, 126.0, 120.0, 15.0, 112.0, 3.5, 112.0, 0.0, 0.0, 0.0, 1.7068826150999975E9, 0.0, 2024-02-02 15:03:35.099
232.0, 59886.581884215106, 63161.38066785105, -31601.54451150233, -2717.6592013429645, 17481.858132107038, 8753.97130894319, 28442.281894955864, 4292.473708686079, 34729.20176138899, 46279.286894713274, 35873.83459494526, 44352.99120581045, 24449.41096894872, 24571.16092099678, -2527.423504283846, -0.6482005892039048, -0.098, 0.988, 0.252, 192.0, 0.0, 0.0, 0.0, 0.0, 0.0, 0.0, 0.0, 0.0, 0.0, 1.7068826151080077E9, 0.0, 2024-02-02 15:03:35.108
234.0, 59844.44884591685, 63130.15528084699, -31737.532524768416, -2822.086551438159, 17420.860221488503, 8678.444764428707, 28403.72513577046, 4252.017051221973, 34648.08728076068, 46261.0702229822, 35788.58504159273, 44316.35669664821, 24451.69084688316, 24591.09867705091, -2568.975397226262, -38.512055696494066, -0.098, 0.988, 0.252, 192.0, 0.0, 0.0, 0.0, 0.0, 0.0, 0.0, 0.0, 0.0, 0.0, 1.706882615117044E9, 0.0, 2024-02-02 15:03:35.117
236.0, 59919.52835554223, 63185.5652553517, -31488.08705664719, -2656.3707180465126, 17541.939621202902, 8811.191774748775, 28473.73079940448, 4324.324944534891, 34874.55515558185, 46322.04578185628, 35899.91908072461, 44350.24194124245, 24480.636355952785, 24596.887778864835, -2525.233033327226, -21.167101999175788, -0.098, 0.988, 0.252, 192.0, 0.0, 0.0, 0.0, 0.0, 0.0, 0.0, 0.0, 0.0, 0.0, 1.7068826151240604E9, 0.0, 2024-02-02 15:03:35.124
238.0, 59900.216448332845, 63178.390345381544, -31573.157796044088, -2633.840159635563, 17498.26431253723, 8775.87601850939, 28455.78234860687, 4315.160729308215, 34822.54264623435, 46303.8291101252, 35905.05998194933, 44378.27102878941, 24473.237928538078, 24554.575926610938, -2494.5664399345446, 32.700602138114235, -0.098, 0.988, 0.252, 192.0, 0.0, 0.0, 0.0, 0.0, 0.0, 0.0, 0.0, 0.0, 0.0, 1.7068826151320665E9, 0.0, 2024-02-02 15:03:35.132
240.0, 59864.967747326824, 63143.387513564536, -31647.611456824718, -2761.781544897741, 17471.79984710215, 8714.34166602393, 28430.25665643891, 4287.668083628188, 34780.476663169466, 46215.450312548914, 35831.14276303563, 44353.147668021644, 24449.299210226443, 24549.85970853087, -2536.4983125327008, -6.526709380949662, -0.094, 0.998, 0.252, 192.0, 126.5, 8.0, 15.5, 24.0, 3.5, 112.0, 0.0, 0.0, 0.0, 1.7068826151401193E9, 0.0, 2024-02-02 15:03:35.140
242.0, 59908.57600075913, 63185.967586751896, -31540.993635772902, -2668.686529241387, 17516.972722646326, 8794.763242574125, 28471.808549381323, 4329.9352323931735, 34876.18683292709, 46254.18588568996, 35890.01725793091, 44348.00676679692, 24472.813245393427, 24592.81976137397, -2525.7024199607877, -17.009677530488673, -0.094, 0.998, 0.252, 192.0, 0.0, 0.0, 0.0, 0.0, 0.0, 0.0, 0.0, 0.0, 0.0, 1.7068826151481116E9, 0.0, 2024-02-02 15:03:35.148
244.0, 59879.67519517842, 63161.87240622907, -31605.456066782008, -2701.968276735339, 17491.98347234529, 8749.791532730047, 28458.509261430416, 4314.736046163564, 34800.36971573469, 46245.938091985954, 35874.52749902338, 44374.135956065176, 24460.095102798357, 24507.81607721044, -2510.4808819867235, 25.86096833479027, -0.094, 0.998, 0.252, 192.0, 0.0, 0.0, 0.0, 0.0, 0.0, 0.0, 0.0, 0.0, 0.0, 1.7068826151560729E9, 0.0, 2024-02-02 15:03:35.156
246.0, 59875.383660242995, 63157.73733350484, -31601.432752780052, -2726.1305124915257, 17484.629748419495, 8752.585500786961, 28441.656046111115, 4301.772034379486, 34742.70221503999, 46271.10615624263, 35859.37301628268, 44330.55005437733, 24434.21178271911, 24515.683891258705, -2525.88123391643, -5.342066924818388, -0.094, 0.998, 0.252, 192.0, 0.0, 0.0, 0.0, 0.0, 0.0, 0.0, 0.0, 0.0, 0.0, 1.7068826151630652E9, 0.0, 2024-02-02 15:03:35.163
248.0, 59896.170782586436, 63176.512798847296, -31566.29581049631, -2691.6641225414423, 17515.542211001186, 8766.041250949056, 28459.515089930905, 4319.005229354529, 34643.48282140289, 46172.08792830562, 35871.44295828855, 44371.45374673054, 24425.427547148174, 24550.016170742056, -2520.44976001379, -6.5937646143155835, -0.094, 0.998, 0.252, 192.0, 0.0, 0.0, 0.0, 0.0, 0.0, 0.0, 0.0, 0.0, 0.0, 1.7068826151722257E9, 0.0, 2024-02-02 15:03:35.172
250.0, 59888.57118947163, 63175.68578430245, -31579.930374614047, -2679.124793902015, 17506.020367863224, 8768.745812028148, 28462.577278921282, 4326.38130502478, 34437.44444101387, 46263.64067359456, 35907.8763017507, 44363.54122919336, 24424.041738991946, 24508.933664433203, -2499.036788825606, 9.58889837132673, -0.094, 0.992, 0.252, 192.0, 126.5, 8.0, 15.5, 0.0, 3.5, 112.0, 0.0, 0.0, 0.0, 1.7068826151800723E9, 0.0, 2024-02-02 15:03:35.180
252.0, 59885.19607605888, 63175.037583713245, -31593.475531753964, -2708.4279308829227, 17507.74145218628, 8765.460105593218, 28461.459691698517, 4309.773958894487, 34155.05250156552, 46182.816765644166, 35857.7636906819, 44383.50133699195, 24413.3129016534, 24497.534274760998, -2510.7938064090977, 6.839633803323961, -0.094, 0.992, 0.252, 192.0, 0.0, 0.0, 0.0, 0.0, 0.0, 0.0, 0.0, 0.0, 0.0, 1.7068826151881769E9, 0.0, 2024-02-02 15:03:35.188
254.0, 59895.54493374169, 63184.60413034012, -31582.85845313769, -2689.0489684401714, 17505.88625739649, 8778.0217859771, 28456.475252684984, 4302.777862879975, 33912.267853291974, 46188.18118431344, 35890.710162009025, 44380.46149974603, 24401.958215470102, 24505.71501323164, -2492.2418585111927, 13.008715272988711, -0.094, 0.992, 0.252, 192.0, 0.0, 0.0, 0.0, 0.0, 0.0, 0.0, 0.0, 0.0, 0.0, 1.7068826151961088E9, 0.0, 2024-02-02 15:03:35.196
0.0, 59897.10955585356, 63190.84026704315, -31565.82642386275, -2673.3803955770013, 17518.760862202747, 8776.613626076416, 28476.792988394856, 4330.024639370995, 33576.85757599564, 46200.67580946396, 35906.75871452793, 44398.097026121264, 24358.01468587097, 24480.32343153041, -2475.0533670250616, 35.04753530592147, -0.094, 0.992, 0.252, 192.0, 0.0, 0.0, 0.0, 0.0, 0.0, 0.0, 0.0, 0.0, 0.0, 1.7068826152043848E9, 0.0, 2024-02-02 15:03:35.204
2.0, 59889.800535416674, 63180.3125954047, -31584.11015082719, -2709.34435240559, 17508.32259754212, 8773.484381852673, 28476.994154094955, 4350.320023336413, 33354.61418087652, 46178.81580338667, 35882.86469970521, 44374.203011298545, 24344.40247349769, 24498.920082917226, -2493.806480623064, 15.087427507332267, -0.094, 0.992, 0.252, 192.0, 0.0, 0.0, 0.0, 0.0, 0.0, 0.0, 0.0, 0.0, 0.0, 1.7068826152123497E9, 0.0, 2024-02-02 15:03:35.212
4.0, 59902.585733245105, 63196.47290664589, -31557.846851092203, -2668.5077152857443, 17525.287571583696, 8775.920721998302, 28485.35370652124, 4367.061479933439, 33213.01587975214, 46202.17337634246, 35888.65380151913, 44367.96687459551, 24357.075912603847, 24561.549670880995, -2504.267097028148, -5.3867704137290024, -0.10400000000000001, 1.01, 0.252, 192.0, 126.0, 96.0, 15.5, 72.0, 3.5, 112.0, 0.0, 0.0, 0.0, 1.7068826152191696E9, 0.0, 2024-02-02 15:03:35.219
6.0, 59893.488573251794, 63183.73241230636, -31588.602851462707, -2701.163613934948, 17507.450879508364, 8757.793457245047, 28468.589898179758, 4349.783581469486, 33147.122937097905, 46200.76521644178, 35887.267993362904, 44363.11654604871, 24361.658020217183, 24517.695548259682, -2512.626649454433, -6.705523336592119, -0.10400000000000001, 1.01, 0.252, 192.0, 0.0, 0.0, 0.0, 0.0, 0.0, 0.0, 0.0, 0.0, 0.0, 1.706882615228212E9, 0.0, 2024-02-02 15:03:35.228
8.0, 59900.81994543314, 63186.34756640763, -31569.96149658698, -2662.6292064939985, 17522.31478957114, 8786.068413981011, 28481.956241364034, 4354.745668738565, 33123.16186704181, 46176.8488498746, 35881.07656014879, 44384.99890387045, 24332.19842102509, 24507.36904232133, -2501.204908037771, 0.06705523336592119, -0.10400000000000001, 1.01, 0.252, 192.0, 0.0, 0.0, 0.0, 0.0, 0.0, 0.0, 0.0, 0.0, 0.0, 1.7068826152362154E9, 0.0, 2024-02-02 15:03:35.236
10.0, 59891.61102671755, 63180.781982038265, -31572.37548498815, -2684.57861954911, 17512.502373755262, 8774.914893497813, 28470.44509296955, 4343.994479655562, 33106.97920405617, 46182.79441389971, 35902.310717381326, 44385.33418003729, 24334.567705937352, 24510.56534177844, -2490.2749049991257, 7.107854736787646, -0.10400000000000001, 1.01, 0.252, 192.0, 0.0, 0.0, 0.0, 0.0, 0.0, 0.0, 0.0, 0.0, 0.0, 1.7068826152432044E9, 0.0, 2024-02-02 15:03:35.243
12.0, 59889.88994239449, 63179.440877370944, -31579.170415302568, -2689.875982985018, 17513.552905744662, 8774.691376053259, 28474.58016569378, 4343.994479655562, 33081.98995375514, 46170.41154747147, 35888.743208496955, 44377.24284854446, 24325.783470366416, 24517.04734767048, -2491.9289340888186, 2.928078523645225, -0.10400000000000001, 1.01, 0.252, 192.0, 0.0, 0.0, 0.0, 0.0, 0.0, 0.0, 0.0, 0.0, 0.0, 1.7068826152522287E9, 0.0, 2024-02-02 15:03:35.252
14.0, 59891.36515752854, 63182.27954891677, -31573.67188616656, -2684.645674782476, 17519.721987214325, 8774.847838264446, 28489.26526180092, 4353.136343137782, 33078.950116509215, 46168.60105617059, 35886.68684800707, 44376.572296210805, 24330.276171001933, 24528.469089087142, -2491.8618788554527, 0.0, -0.10200000000000001, 1.002, 0.25, 192.0, 126.0, 104.0, 15.5, 40.0, 3.5, 104.0, 0.0, 0.0, 0.0, 1.7068826152603128E9, 0.0, 2024-02-02 15:03:35.260
16.0, 59893.86855290754, 63185.118220462595, -31571.280249509844, -2679.616532280032, 17521.46542328184, 8779.45229762224, 28488.84057865627, 4352.309328592936, 33082.9063752778, 46168.8469253596, 35895.06875217781, 44385.02125561491, 24339.52979320643, 24522.769394251038, -2483.30116072907, 20.38479094324004, -0.10200000000000001, 1.002, 0.25, 192.0, 0.0, 0.0, 0.0, 0.0, 0.0, 0.0, 0.0, 0.0, 0.0, 1.7068826152674773E9, 0.0, 2024-02-02 15:03:35.267
18.0, 59885.97838711481, 63177.67508955897, -31575.460025722987, -2683.7963084931744, 17515.676321467916, 8776.635977820872, 28480.34691576325, 4346.229654101093, 33080.291221176536, 46156.106431020075, 35894.10762716623, 44377.86869738921, 24332.980732081025, 24522.881152973314, -2491.0348643106063, 9.164215226675896, -0.10200000000000001, 1.002, 0.25, 192.0, 0.0, 0.0, 0.0, 0.0, 0.0, 0.0, 0.0, 0.0, 0.0, 1.706882615275232E9, 0.0, 2024-02-02 15:03:35.275
20.0, 59883.81026790265, 63174.54584533523, -31577.225813534955, -2691.9099917304507, 17509.99897837627, 8770.377489373384, 28473.529633704384, 4337.579528996888, 33084.3592386674, 46163.95189332389, 35893.28061262138, 44380.05916834583, 24335.081796059825, 24520.51186806105, -2491.7724718776312, 10.930003038645154, -0.10200000000000001, 1.002, 0.25, 192.0, 0.0, 0.0, 0.0, 0.0, 0.0, 0.0, 0.0, 0.0, 0.0, 1.7068826152842827E9, 0.0, 2024-02-02 15:03:35.284
22.0, 59882.49151497979, 63169.29318538823, -31575.415322234076, -2676.2861223561913, 17507.1826585749, 8766.778858516082, 28467.9193458461, 4332.304517305436, 33095.33394519496, 46158.72158512135, 35889.1231881527, 44375.231191543484, 24333.316008247853, 24522.679987273215, -2498.075663814028, 1.1622907116759673, -0.10200000000000001, 1.002, 0.25, 192.0, 0.0, 0.0, 0.0, 0.0, 0.0, 0.0, 0.0, 0.0, 0.0, 1.7068826152925303E9, 0.0, 2024-02-02 15:03:35.292
24.0, 59892.102765095566, 63179.440877370944, -31570.34147624272, -2670.877000198007, 17512.27885631071, 8779.631111577883, 28471.406217981126, 4336.104313862838, 33132.39313750185, 46175.485393462826, 35896.11928416721, 44387.25643006044, 24345.20713629808, 24537.879173502824, -2491.1242712884273, 12.874604806256869, -0.106, 0.986, 0.246, 192.0, 126.0, 88.0, 15.0, 104.0, 3.5, 88.0, 0.0, 0.0, 0.0, 1.7068826152993116E9, 0.0, 2024-02-02 15:03:35.299
26.0, 59883.67615743592, 63171.52835983376, -31581.539700214827, -2685.7185585163306, 17509.61899872053, 8771.986814974167, 28468.813415624314, 4324.861386401819, 33164.51259428413, 46199.93820189693, 35888.98907768596, 44380.148575323656, 24342.077892074336, 24542.14835669379, -2495.8628411129525, 12.360514683784805, -0.106, 0.986, 0.246, 192.0, 0.0, 0.0, 0.0, 0.0, 0.0, 0.0, 0.0, 0.0, 0.0, 1.7068826153072836E9, 0.0, 2024-02-02 15:03:35.307
28.0, 59891.63337846201, 63178.524455848274, -31573.336609999733, -2663.2550553387473, 17515.005769134255, 8779.0723179665, 28470.981534836475, 4328.661182959221, 33220.12373448894, 46206.88959442254, 35891.20190038704, 44377.01933109991, 24350.124520078247, 24557.369894667852, -2493.5829631785114, 9.097159993309974, -0.106, 0.986, 0.246, 192.0, 0.0, 0.0, 0.0, 0.0, 0.0, 0.0, 0.0, 0.0, 0.0, 1.7068826153165612E9, 0.0, 2024-02-02 15:03:35.316
30.0, 59887.11832608203, 63173.27179590128, -31571.839043121225, -2668.3736048190126, 17514.223458078322, 8784.995530247155, 28474.82603488279, 4335.47846501809, 33304.52392155217, 46266.18877246246, 35899.29323187986, 44391.190337084576, 24370.621069743764, 24573.418447186763, -2485.8939630858854, 29.392543958728787, -0.106, 0.986, 0.246, 192.0, 0.0, 0.0, 0.0, 0.0, 0.0, 0.0, 0.0, 0.0, 0.0, 1.7068826153233001E9, 0.0, 2024-02-02 15:03:35.323
32.0, 59891.678081950915, 63177.47392385887, -31563.926525584047, -2660.841066937574, 17518.827917436116, 8783.185038946276, 28479.54225296286, 4345.715563978621, 33402.02223086623, 46268.468650396906, 35892.63241203218, 44377.73458692248, 24370.82223544386, 24576.43593268823, -2491.392492221891, 14.774503084957969, -0.106, 0.986, 0.246, 192.0, 0.0, 0.0, 0.0, 0.0, 0.0, 0.0, 0.0, 0.0, 0.0, 1.7068826153313963E9, 0.0, 2024-02-02 15:03:35.331
34.0, 59894.58380873011, 63180.290243660245, -31562.831290105736, -2664.774973961708, 17512.815298177637, 8780.145201700354, 28471.7191424035, 4344.508569778034, 33548.314398326205, 46295.55896467674, 35898.98030745749, 44384.52951723689, 24386.379049584753, 24576.65945013278, -2488.9338003318076, 19.311907209385303, -0.10200000000000001, 0.993, 0.245, 192.0, 126.0, 120.0, 15.5, 32.0, 3.5, 80.0, 0.0, 0.0, 0.0, 1.706882615340398E9, 0.0, 2024-02-02 15:03:35.340
36.0, 59895.120250597036, 63181.810162283204, -31562.808938361282, -2667.8818664409955, 17515.095176112078, 8785.062585480522, 28478.11174131772, 4348.464828546623, 33707.458818848, 46312.38982825158, 35895.471083578006, 44385.4235870151, 24390.961157198093, 24584.035525803036, -2496.77926263562, 16.473235663561304, -0.10200000000000001, 0.993, 0.245, 192.0, 0.0, 0.0, 0.0, 0.0, 0.0, 0.0, 0.0, 0.0, 0.0, 1.706882615348384E9, 0.0, 2024-02-02 15:03:35.348
38.0, 59894.42734651892, 63180.73727854935, -31562.428958705543, -2666.5631135181325, 17516.65979822395, 8784.190867446765, 28476.949450606044, 4340.328793564891, 33872.906431306175, 46314.69205793048, 35900.85785399173, 44383.52368873641, 24406.473267850077, 24579.654583889795, -2491.9736375777293, 22.619965388770748, -0.10200000000000001, 0.993, 0.245, 192.0, 0.0, 0.0, 0.0, 0.0, 0.0, 0.0, 0.0, 0.0, 0.0, 1.7068826153554988E9, 0.0, 2024-02-02 15:03:35.355
40.0, 59890.29227379469, 63177.02688896977, -31567.458101207987, -2669.513543786233, 17511.47419351032, 8775.83131502048, 28467.114683045707, 4325.1743108241935, 34024.40655522425, 46347.05738390177, 35895.64989753364, 44383.34487478076, 24414.31873015389, 24584.348450225407, -2495.952248090774, 22.44115143312829, -0.10200000000000001, 0.993, 0.245, 192.0, 0.0, 0.0, 0.0, 0.0, 0.0, 0.0, 0.0, 0.0, 0.0, 1.7068826153633893E9, 0.0, 2024-02-02 15:03:35.363
42.0, 59894.47205000783, 63177.40686862551, -31561.758406371882, -2680.979988691806, 17515.38574879, 8773.104402196932, 28466.086502800765, 4320.592203210856, 34162.16035630231, 46331.165293594044, 35897.907423723635, 44380.66266544613, 24431.17194547319, 24577.262947233077, -2491.9736375777293, 24.206939245097548, -0.10200000000000001, 0.993, 0.245, 192.0, 0.0, 0.0, 0.0, 0.0, 0.0, 0.0, 0.0, 0.0, 0.0, 1.70688261537246E9, 0.0, 2024-02-02 15:03:35.372
44.0, 59883.51969522473, 63170.36606912209, -31570.408531476085, -2662.76331696073, 17505.88625739649, 8773.193809174754, 28465.952392334035, 4311.986781595562, 34270.476909932724, 46303.71735140293, 35893.74999925494, 44369.75501415194, 24440.82789907788, 24595.703136408705, -2496.5780969355224, 16.629697874748455, -0.10400000000000001, 0.9935, 0.2435, 192.0, 126.0, 88.0, 15.5, 8.0, 3.5, 72.0, 0.0, 0.0, 0.0, 1.706882615379423E9, 0.0, 2024-02-02 15:03:35.379
46.0, 59891.27575055072, 63175.037583713245, -31559.43382494853, -2656.4154215354233, 17517.397405790976, 8773.417326619307, 28475.563642449815, 4321.598031711344, 34368.7128268138, 46335.434476785005, 35895.35932485573, 44388.172851583106, 24450.103873026834, 24585.331926981442, -2494.588791679, 32.03004980445502, -0.10400000000000001, 0.9935, 0.2435, 192.0, 0.0, 0.0, 0.0, 0.0, 0.0, 0.0, 0.0, 0.0, 0.0, 1.7068826153874147E9, 0.0, 2024-02-02 15:03:35.387
48.0, 59890.09110809459, 63172.91416798999, -31559.2997144818, -2664.9314361728952, 17516.36922554603, 8771.78564927407, 28474.110779060222, 4324.436703257168, 34449.42497604191, 46311.45105498446, 35905.7752377719, 44383.68015094759, 24473.349687260354, 24563.002534270592, -2483.1446985178827, 37.68504115164771, -0.10400000000000001, 0.9935, 0.2435, 192.0, 0.0, 0.0, 0.0, 0.0, 0.0, 0.0, 0.0, 0.0, 0.0, 1.7068826153956492E9, 0.0, 2024-02-02 15:03:35.395
50.0, 59870.86860786303, 63156.15035964851, -31589.027534607358, -2706.192756437392, 17489.100097310555, 8740.336744825452, 28449.255639225918, 4304.633057669766, 34488.56288058316, 46312.54629046277, 35888.2738218634, 44370.58202869678, 24461.74913188805, 24566.265888961065, -2497.785091136109, 21.994116544022148, -0.10400000000000001, 0.9935, 0.2435, 192.0, 0.0, 0.0, 0.0, 0.0, 0.0, 0.0, 0.0, 0.0, 0.0, 1.7068826154045608E9, 0.0, 2024-02-02 15:03:35.404
52.0, 59895.54493374169, 63179.03854597075, -31555.72343536895, -2661.802191949152, 17524.61701925004, 8790.605818105438, 28484.102008831742, 4337.624232485799, 34558.81441340619, 46306.556022948746, 35890.844272475755, 44366.53636295037, 24490.024088624014, 24577.128836766344, -2501.5401842046003, 13.902785051200993, -0.10400000000000001, 0.9935, 0.2435, 192.0, 0.0, 0.0, 0.0, 0.0, 0.0, 0.0, 0.0, 0.0, 0.0, 1.7068826154115229E9, 0.0, 2024-02-02 15:03:35.411
54.0, 59896.61781747554, 63179.93261574896, -31558.42799644804, -2653.1520668449484, 17524.974647161325, 8782.961521501724, 28484.750209420945, 4340.373497053802, 34628.23893168437, 46323.99038362389, 35911.474932608005, 44393.492566763474, 24499.523580017518, 24565.729447094138, -2475.455698425257, 45.709317411102944, -0.10500000000000001, 0.99375, 0.24475, 192.0, 126.0, 88.0, 15.5, 8.0, 3.5, 88.0, 0.0, 0.0, 0.0, 1.7068826154197457E9, 0.0, 2024-02-02 15:03:35.419
56.0, 59883.96673011383, 63168.466170843385, -31579.21511879148, -2700.828337768118, 17511.85417316606, 8774.199637675243, 28477.30707851733, 4331.253985316037, 34652.3788156961, 46312.859214885146, 35898.890900479666, 44375.655874688135, 24503.636300997296, 24564.9471360382, -2487.0339020531064, 35.025183561466164, -0.10500000000000001, 0.99375, 0.24475, 192.0, 0.0, 0.0, 0.0, 0.0, 0.0, 0.0, 0.0, 0.0, 0.0, 1.7068826154285228E9, 0.0, 2024-02-02 15:03:35.428
58.0, 59877.46237247734, 63171.03662145575, -31603.667927225582, -2708.8526140275735, 17493.659853179437, 8752.809018231514, 28463.448996955038, 4314.445473485645, 34654.92691456401, 46282.63965638157, 35849.78411791135, 44332.472304400486, 24501.37877480731, 24641.479509053173, -2517.9687163792514, -13.835729817835071, -0.10500000000000001, 0.99375, 0.24475, 192.0, 0.0, 0.0, 0.0, 0.0, 0.0, 0.0, 0.0, 0.0, 0.0, 1.7068826154355211E9, 0.0, 2024-02-02 15:03:35.435
60.0, 59893.153297084966, 63187.10752571911, -31539.831345061226, -2615.847005349041, 17526.695731484382, 8782.849762779446, 28485.085485587777, 4341.356973809836, 34727.59243578821, 46349.18079962502, 35914.02303147591, 44403.86377619074, 24539.91318224826, 24537.85682175837, -2487.615047408944, 41.39543073122868, -0.10500000000000001, 0.99375, 0.24475, 192.0, 0.0, 0.0, 0.0, 0.0, 0.0, 0.0, 0.0, 0.0, 0.0, 1.7068826154435103E9, 0.0, 2024-02-02 15:03:35.443
62.0, 59893.779145929715, 63182.033679727756, -31560.082025537733, -2678.096613657071, 17524.974647161325, 8788.370643659908, 28479.184625051574, 4340.19468309816, 34746.94904648651, 46345.984500167906, 35910.759676785434, 44378.06986308931, 24542.483632860618, 24601.58164520045, -2483.2117537512486, 38.75792488550245, -0.10500000000000001, 0.99375, 0.24475, 192.0, 0.0, 0.0, 0.0, 0.0, 0.0, 0.0, 0.0, 0.0, 0.0, 1.7068826154516537E9, 0.0, 2024-02-02 15:03:35.451
64.0, 59869.63926191798, 63153.579909036154, -31584.803054905304, -2724.1188554905484, 17500.857114894046, 8762.084992180466, 28466.15355803413, 4322.156825322727, 34733.850924235696, 46292.720293130915, 35889.95020269754, 44367.98922633997, 24512.71110924615, 24558.800406312992, -2496.622800424433, 21.524729910460703, -0.1015, 0.994875, 0.244375, 192.0, 126.0, 120.0, 15.5, 16.0, 3.5, 80.0, 0.0, 0.0, 0.0, 1.7068826154605234E9, 0.0, 2024-02-02 15:03:35.460
66.0, 59877.37296549952, 63168.60028131012, -31606.640709238138, -2690.5912388075876, 17500.99122536078, 8750.327974596974, 28459.82801435328, 4320.413389255213, 34755.7556338019, 46380.54029709582, 35855.23794355845, 44300.375199362665, 24502.51871377453, 24592.551540440505, -2516.7617221786645, -7.197261714608874, -0.1015, 0.994875, 0.244375, 192.0, 0.0, 0.0, 0.0, 0.0, 0.0, 0.0, 0.0, 0.0, 0.0, 1.706882615467538E9, 0.0, 2024-02-02 15:03:35.467
68.0, 59903.52450651223, 63190.97437750988, -31536.09860373719, -2611.577822158077, 17534.72000774384, 8798.607742620437, 28492.64037521367, 4351.996404170562, 34806.3152797598, 46282.662008126026, 35902.89186273717, 44420.046439176374, 24570.49036866312, 24555.224127200145, -2500.8249283820305, 33.885244594245506, -0.1015, 0.994875, 0.244375, 192.0, 0.0, 0.0, 0.0, 0.0, 0.0, 0.0, 0.0, 0.0, 0.0, 1.7068826154757614E9, 0.0, 2024-02-02 15:03:35.475
70.0, 59867.60525317255, 63157.849092227116, -31623.471572812985, -2748.325794735646, 17483.534512941183, 8737.29690757953, 28460.900898087133, 4318.647601443244, 34796.45816045501, 46321.77756092281, 35892.654763776634, 44378.29338053386, 24507.257283599054, 24554.352409166386, -2487.2797712421147, 42.870645865278945, -0.1015, 0.994875, 0.244375, 192.0, 0.0, 0.0, 0.0, 0.0, 0.0, 0.0, 0.0, 0.0, 0.0, 1.7068826154845443E9, 0.0, 2024-02-02 15:03:35.484
72.0, 59891.387509273, 63178.65856631501, -31554.896420824105, -2634.2424910357586, 17527.23217335131, 8797.64661760886, 28484.50434023194, 4343.0780581328945, 34762.46115713849, 46304.09733105866, 35846.14078356514, 44322.14579846213, 24508.03959465499, 24540.159051437266, -2527.647021728399, -11.019410016466383, -0.1015, 0.994875, 0.244375, 192.0, 0.0, 0.0, 0.0, 0.0, 0.0, 0.0, 0.0, 0.0, 0.0, 1.7068826154905586E9, 0.0, 2024-02-02 15:03:35.490
74.0, 59886.82775340411, 63168.7120400324, -31569.35799948669, -2707.5562128491656, 17515.51985925673, 8774.289044653064, 28478.44701748455, 4337.288956318969, 34784.63408763815, 46302.286839757784, 35909.083295951285, 44386.4741190045, 24543.780034039028, 24522.523525062028, -2480.39543394988, 44.72584065506943, -0.09875, 0.9964375, 0.2441875, 192.0, 126.5, 0.0, 15.5, 24.0, 3.5, 80.0, 0.0, 0.0, 0.0, 1.7068826154998105E9, 0.0, 2024-02-02 15:03:35.499
76.0, 59865.32537523811, 63156.55269104871, -31614.888502942147, -2717.122759476037, 17494.710385168837, 8746.885805950858, 28472.456749970526, 4327.364781780813, 34811.232663539966, 46219.33951608414, 35861.80935642831, 44329.588929365746, 24521.696510517184, 24516.577961036917, -2512.3137250320588, 9.499491393505501, -0.09875, 0.9964375, 0.2441875, 192.0, 0.0, 0.0, 0.0, 0.0, 0.0, 0.0, 0.0, 0.0, 0.0, 1.7068826155076027E9, 0.0, 2024-02-02 15:03:35.507
78.0, 59891.58867497309, 63177.58568258115, -31590.234528807945, -2700.3813028790123, 17498.241960792777, 8734.659401733805, 28474.133130804676, 4331.1645783382155, 34864.09453917677, 46297.54826993326, 35853.27099004638, 44350.577217409285, 24517.04734767048, 24557.90633653478, -2520.2709460581477, -5.878508791745758, -0.09875, 0.9964375, 0.2441875, 192.0, 0.0, 0.0, 0.0, 0.0, 0.0, 0.0, 0.0, 0.0, 0.0, 1.706882615515607E9, 0.0, 2024-02-02 15:03:35.515
80.0, 59889.46525924984, 63171.50600808931, -31550.20255448849, -2666.2501890957583, 17535.010580421756, 8788.772975060103, 28496.35076479325, 4360.2218461301145, 34712.12502862514, 46237.15385641502, 35918.89571176717, 44383.21076431403, 24484.056172854445, 24528.871420487336, -2496.01930332414, 20.00481128749982, -0.09875, 0.9964375, 0.2441875, 192.0, 0.0, 0.0, 0.0, 0.0, 0.0, 0.0, 0.0, 0.0, 0.0, 1.7068826155236356E9, 0.0, 2024-02-02 15:03:35.523
82.0, 59867.11351479453, 63162.49825507382, -31611.379279062665, -2716.2733931867356, 17504.343987029075, 8776.233646420676, 28477.754113406434, 4343.14511336626, 34629.33416716268, 46218.71366723939, 35849.78411791135, 44344.832819084266, 24460.542137687462, 24469.661649425227, -2498.4109399808576, 27.98438405804444, -0.09875, 0.9964375, 0.2441875, 192.0, 0.0, 0.0, 0.0, 0.0, 0.0, 0.0, 0.0, 0.0, 0.0, 1.706882615531836E9, 0.0, 2024-02-02 15:03:35.531
84.0, 59879.36227075604, 63173.60707206811, -31612.83214245226, -2729.0809427596264, 17484.719155397317, 8766.756506771626, 28463.851328355235, 4315.361895008314, 34531.0535467927, 46249.2685019098, 35867.24083033095, 44346.33038596277, 24473.059114582436, 24517.919065704235, -2520.44976001379, 15.355648440795951, -0.096375, 0.9822187499999999, 0.25309375, 192.0, 126.5, 8.0, 15.0, 32.0, 4.0, 24.0, 0.0, 0.0, 0.0, 1.7068826155396326E9, 0.0, 2024-02-02 15:03:35.539
86.0, 59895.1873058304, 63189.432107142464, -31574.655362922596, -2646.8935783974625, 17519.721987214325, 8773.976120230689, 28479.9222326186, 4329.309383548425, 34335.20756187529, 46221.552338785215, 35875.26510659041, 44349.45963018652, 24446.88522182527, 24501.579940507407, -2512.4701872432456, 12.78519782843564, -0.096375, 0.9822187499999999, 0.25309375, 192.0, 0.0, 0.0, 0.0, 0.0, 0.0, 0.0, 0.0, 0.0, 0.0, 1.7068826155466576E9, 0.0, 2024-02-02 15:03:35.546
88.0, 59915.90737294047, 63208.542848651756, -31530.2424466899, -2630.3532875005353, 17543.794815992693, 8800.775861832602, 28510.186494611087, 4374.862238748341, 34043.51729673354, 46186.594210457115, 35940.889828311185, 44430.57411081483, 24431.037835006457, 24486.112533344334, -2455.205017948749, 58.58392221735981, -0.096375, 0.9822187499999999, 0.25309375, 192.0, 0.0, 0.0, 0.0, 0.0, 0.0, 0.0, 0.0, 0.0, 0.0, 1.7068826155559368E9, 0.0, 2024-02-02 15:03:35.555
90.0, 59900.79759368868, 63193.79069731125, -31562.875993594647, -2671.9498839318617, 17524.438205294395, 8780.234608678176, 28497.982442138487, 4372.67176779172, 33656.80976591227, 46190.84104190362, 35908.56920582881, 44390.94446789557, 24420.711329068105, 24506.74319347658, -2483.2117537512486, 37.50622719600525, -0.096375, 0.9822187499999999, 0.25309375, 192.0, 0.0, 0.0, 0.0, 0.0, 0.0, 0.0, 0.0, 0.0, 0.0, 1.7068826155636764E9, 0.0, 2024-02-02 15:03:35.563
92.0, 59899.56824774364, 63190.214418198404, -31571.839043121225, -2684.891543971484, 17518.626751736017, 8774.490210353162, 28487.16419782212, 4367.888494478285, 33401.19521632138, 46170.925637593944, 35894.17468239959, 44371.051415330345, 24393.285738621445, 24518.254341871067, -2505.071759828539, 8.806587315390983, -0.096375, 0.9822187499999999, 0.25309375, 192.0, 0.0, 0.0, 0.0, 0.0, 0.0, 0.0, 0.0, 0.0, 0.0, 1.706882615571669E9, 0.0, 2024-02-02 15:03:35.571
94.0, 59892.32628254012, 63182.726583805874, -31589.698086941018, -2700.224840667825, 17514.80460343416, 8778.155896443832, 28489.86875890121, 4363.842828731875, 33265.81070015558, 46172.959646339375, 35889.19024338606, 44369.59855194075, 24375.113770379277, 24517.89671395978, -2501.2496115266817, 7.063151247877032, -0.09718750000000001, 0.979109375, 0.254546875, 192.0, 126.0, 120.0, 15.0, 64.0, 4.0, 0.0, 0.0, 0.0, 0.0, 1.7068826155789692E9, 0.0, 2024-02-02 15:03:35.578
96.0, 59900.99875938878, 63187.912188519505, -31577.53873795733, -2681.1364509029927, 17510.960103387846, 8775.227817920188, 28480.615136696713, 4349.180084369193, 33216.90508328737, 46155.9946722978, 35879.22136535899, 44369.73266240748, 24372.990354656024, 24520.891847716794, -2506.3458092624915, 7.778407070446858, -0.09718750000000001, 0.979109375, 0.254546875, 192.0, 0.0, 0.0, 0.0, 0.0, 0.0, 0.0, 0.0, 0.0, 0.0, 1.7068826155877059E9, 0.0, 2024-02-02 15:03:35.587
98.0, 59907.1901926029, 63194.751822322825, -31568.553336686295, -2676.2414188672806, 17525.80166170617, 8784.324977913497, 28491.9251193911, 4355.393869327769, 33162.16566111633, 46148.350375694085, 35909.083295951285, 44382.11552883572, 24369.369372054265, 24514.767469736038, -2486.139832274894, 21.278860721452325, -0.09718750000000001, 0.979109375, 0.254546875, 192.0, 0.0, 0.0, 0.0, 0.0, 0.0, 0.0, 0.0, 0.0, 0.0, 1.7068826155957344E9, 0.0, 2024-02-02 15:03:35.595
100.0, 59902.60808498956, 63192.60605485512, -31577.53873795733, -2683.1481079039704, 17514.75989994525, 8775.808963276026, 28477.798816895345, 4342.76513371052, 33158.589382003476, 46139.09675348959, 35899.44969409105, 44378.11456657822, 24362.037999872926, 24524.490478574095, -2491.3254369885253, 20.742418854524953, -0.09718750000000001, 0.979109375, 0.254546875, 192.0, 0.0, 0.0, 0.0, 0.0, 0.0, 0.0, 0.0, 0.0, 0.0, 1.706882615602749E9, 0.0, 2024-02-02 15:03:35.602
102.0, 59913.918067683946, 63202.28436020427, -31567.458101207987, -2672.486325798789, 17525.46638553934, 8786.560152359027, 28488.058267600332, 4352.555197781944, 33156.44361453576, 46121.90826200345, 35901.28253713638, 44380.52855497939, 24366.82127318636, 24522.81409773995, -2488.464413698246, 18.820168831368548, -0.09718750000000001, 0.979109375, 0.254546875, 192.0, 0.0, 0.0, 0.0, 0.0, 0.0, 0.0, 0.0, 0.0, 0.0, 1.706882615610925E9, 0.0, 2024-02-02 15:03:35.610
104.0, 59907.480765280816, 63202.172601481994, -31576.465854223476, -2674.2744653552136, 17515.676321467916, 8780.771050545103, 28478.53642446237, 4341.3793255542905, 33158.87995468139, 46119.829549769114, 35902.310717381326, 44386.65293296015, 24360.987467883526, 24532.47005134464, -2488.263247998148, 23.06700027787689, -0.09559375, 0.9815546875, 0.2562734375, 192.0, 126.5, 8.0, 15.0, 96.0, 4.0, 8.0, 0.0, 0.0, 0.0, 1.7068826156197467E9, 0.0, 2024-02-02 15:03:35.619
106.0, 59906.07260538013, 63197.009348512816, -31577.136406557132, -2676.8225642231187, 17518.64910348047, 8781.486306367673, 28484.25847104293, 4340.105276120338, 33159.14817561486, 46119.42721836892, 35895.180510900085, 44383.009598613935, 24354.147834080202, 24533.185307167212, -2491.7054166442654, 18.440189175628326, -0.09559375, 0.9815546875, 0.2562734375, 192.0, 0.0, 0.0, 0.0, 0.0, 0.0, 0.0, 0.0, 0.0, 0.0, 1.7068826156268077E9, 0.0, 2024-02-02 15:03:35.626
108.0, 59908.21837284784, 63197.54579037974, -31574.744769900415, -2666.1384303734817, 17518.962027902846, 8781.352195900941, 28479.743418662958, 4336.640755729765, 33169.407626319844, 46127.18327369491, 35897.75096151244, 44384.976552126, 24364.384933040732, 24543.19888868319, -2486.8327363530084, 20.518901409971882, -0.09559375, 0.9815546875, 0.2562734375, 192.0, 0.0, 0.0, 0.0, 0.0, 0.0, 0.0, 0.0, 0.0, 0.0, 1.7068826156347797E9, 0.0, 2024-02-02 15:03:35.634
110.0, 59899.99293088829, 63189.87914203157, -31587.306450284297, -2679.057738668649, 17504.768670173726, 8767.181189916277, 28466.242965011952, 4316.345371764347, 33187.35607711745, 46147.36689893805, 35893.79470274386, 44383.7248544365, 24360.42867427214, 24523.954036707168, -2495.2816957571144, 18.01550603097749, -0.09559375, 0.9815546875, 0.2562734375, 192.0, 0.0, 0.0, 0.0, 0.0, 0.0, 0.0, 0.0, 0.0, 0.0, 1.7068826156440835E9, 0.0, 2024-02-02 15:03:35.644
112.0, 59904.50798326826, 63190.147362965035, -31583.68546768254, -2673.9615409328394, 17511.675359210418, 8765.460105593218, 28473.68609591557, 4311.584450195366, 33217.26271119866, 46170.83623061612, 35891.22425213149, 44375.70057817705, 24354.617220713764, 24541.209583426666, -2499.908506859363, 11.153520483198225, -0.09559375, 0.9815546875, 0.2562734375, 192.0, 0.0, 0.0, 0.0, 0.0, 0.0, 0.0, 0.0, 0.0, 0.0, 1.7068826156518145E9, 0.0, 2024-02-02 15:03:35.651
114.0, 59904.99972164628, 63193.61188335561, -31581.025610092358, -2665.579636762099, 17508.479059753307, 8786.180172703287, 28467.360552234717, 4302.2861245019585, 33271.555098480596, 46205.83906243314, 35897.52744406789, 44384.462462003525, 24360.00399112749, 24558.845109801903, -2493.5606114340558, 17.81434033087973, -0.090796875, 0.9797773437499999, 0.25613671875, 192.0, 126.5, 40.0, 15.0, 72.0, 4.0, 0.0, 0.0, 0.0, 0.0, 1.7068826156588376E9, 0.0, 2024-02-02 15:03:35.658
116.0, 59909.38066355952, 63197.612845613105, -31574.588307689228, -2653.8673226675182, 17514.37992028951, 8788.303588426541, 28470.042761569355, 4307.225860026581, 33345.56172437212, 46231.85649297911, 35902.40012435915, 44393.000828385455, 24366.843624930814, 24551.089054475913, -2484.8210793520307, 33.438209705139364, -0.090796875, 0.9797773437499999, 0.25613671875, 192.0, 0.0, 0.0, 0.0, 0.0, 0.0, 0.0, 0.0, 0.0, 0.0, 1.7068826156668403E9, 0.0, 2024-02-02 15:03:35.666
118.0, 59905.46910827984, 63191.667281587994, -31577.829310635247, -2668.57477051911, 17511.02715862121, 8780.88280926738, 28471.87560461469, 4310.80213913943, 33438.43322258392, 46231.3647546011, 35903.16008367063, 44394.58780224178, 24373.951479667605, 24564.880080804836, -2484.7987276075755, 30.778352114957826, -0.090796875, 0.9797773437499999, 0.25613671875, 192.0, 0.0, 0.0, 0.0, 0.0, 0.0, 0.0, 0.0, 0.0, 0.0, 1.7068826156762803E9, 0.0, 2024-02-02 15:03:35.676
120.0, 59901.35638730007, 63192.807220555216, -31581.517348470374, -2708.316172160646, 17505.573332974116, 8775.473687109195, 28463.896031844146, 4309.5057379610225, 33547.73325297037, 46240.50661808332, 35885.81512997331, 44359.42850821358, 24367.737694709027, 24601.022851589067, -2500.534355704112, 5.3867704137290024, -0.090796875, 0.9797773437499999, 0.25613671875, 192.0, 0.0, 0.0, 0.0, 0.0, 0.0, 0.0, 0.0, 0.0, 0.0, 1.706882615682855E9, 0.0, 2024-02-02 15:03:35.682
122.0, 59911.66054149396, 63200.1162409921, -31566.42992096304, -2630.286232267169, 17516.391577290487, 8791.544591372562, 28477.038857583866, 4330.404619026735, 33703.659022290594, 46299.26935425632, 35895.51578706691, 44394.185470841585, 24380.20996811509, 24600.799334144514, -2492.6441899113884, 22.709372366591975, -0.090796875, 0.9797773437499999, 0.25613671875, 192.0, 0.0, 0.0, 0.0, 0.0, 0.0, 0.0, 0.0, 0.0, 0.0, 1.7068826156908605E9, 0.0, 2024-02-02 15:03:35.690
124.0, 59908.68775948141, 63194.43889790046, -31567.659266908082, -2643.1161335845154, 17507.60734171955, 8772.411498118818, 28458.15163351913, 4314.020790340995, 33876.21448948557, 46293.86023209813, 35895.96282195602, 44392.41968302962, 24384.456799561598, 24550.91024052027, -2492.688893400299, 36.16512252868683, -0.0893984375, 0.986888671875, 0.257068359375, 192.0, 126.5, 32.0, 15.5, 8.0, 4.0, 8.0, 0.0, 0.0, 0.0, 1.706882615699888E9, 0.0, 2024-02-02 15:03:35.699
126.0, 59903.12217511203, 63190.52734262078, -31578.745732157917, -2669.602950764054, 17503.248751550764, 8773.506733597129, 28463.560755677314, 4305.728293148076, 34042.55617172196, 46305.930174103996, 35893.23590913247, 44378.807470656335, 24390.1564943977, 24568.523415151052, -2503.0377510831063, 15.601517629804329, -0.0893984375, 0.986888671875, 0.257068359375, 192.0, 0.0, 0.0, 0.0, 0.0, 0.0, 0.0, 0.0, 0.0, 0.0, 1.7068826157068965E9, 0.0, 2024-02-02 15:03:35.706
128.0, 59893.42151801843, 63169.3602406216, -31629.461840327007, -2740.1674080094585, 17476.761934371225, 8748.718648996193, 28440.940790288543, 4284.360025448803, 34161.02041733509, 46241.22187390589, 35872.85111818923, 44362.69186290406, 24418.58791334485, 24573.351391953398, -2517.4099227678685, 4.984439013533475, -0.0893984375, 0.986888671875, 0.257068359375, 192.0, 0.0, 0.0, 0.0, 0.0, 0.0, 0.0, 0.0, 0.0, 0.0, 1.7068826157149405E9, 0.0, 2024-02-02 15:03:35.714
130.0, 59907.86074493656, 63201.72556659288, -31555.879897580136, -2693.2734481422244, 17514.066995867135, 8766.935320727269, 28458.464557941505, 4291.289066229948, 34321.84121869102, 46300.431644968, 35870.52653676588, 44361.14959253664, 24374.86790119027, 24645.860450966415, -2519.2427658132037, -15.914442052178629, -0.0893984375, 0.986888671875, 0.257068359375, 192.0, 0.0, 0.0, 0.0, 0.0, 0.0, 0.0, 0.0, 0.0, 0.0, 1.7068826157229252E9, 0.0, 2024-02-02 15:03:35.722
132.0, 59919.14837588649, 63198.55161888023, -31556.10341502469, -2614.640011148454, 17516.74920520177, 8793.288027440076, 28459.96212482001, 4301.190889023649, 34481.83500550211, 46302.80092988026, 35918.739249555976, 44412.33508733929, 24396.77261075647, 24524.624589040828, -2480.5071926721566, 46.24575927803031, -0.0893984375, 0.986888671875, 0.257068359375, 192.0, 0.0, 0.0, 0.0, 0.0, 0.0, 0.0, 0.0, 0.0, 0.0, 1.706882615732139E9, 0.0, 2024-02-02 15:03:35.732
134.0, 59900.0376343772, 63186.95106350793, -31581.025610092358, -2678.1860206348924, 17508.032024864202, 8767.918797483302, 28467.964049335013, 4297.055816299417, 34533.98162531634, 46275.800022578245, 35901.72957202549, 44385.46829050402, 24404.752183527016, 24538.750891536583, -2492.7112451447542, 36.723916140069505, -0.0893984375, 0.986888671875, 0.257068359375, 192.0, 0.0, 0.0, 0.0, 0.0, 0.0, 0.0, 0.0, 0.0, 0.0, 1.7068826157390084E9, 0.0, 2024-02-02 15:03:35.739
136.0, 59896.10372735307, 63185.72171756288, -31617.928340188068, -2707.332695404613, 17487.98251008779, 8752.361983342407, 28454.888278828657, 4287.556324905911, 34547.59383768962, 46279.80098483575, 35856.646103459134, 44346.95623480752, 24374.01853490097, 24563.0472377595, -2517.7228471902426, 13.008715272988711, -0.094, 0.984, 0.266, 192.0, 126.5, 8.0, 15.0, 96.0, 4.0, 40.0, 0.0, 0.0, 0.0, 1.7068826157469647E9, 0.0, 2024-02-02 15:03:35.746
138.0, 59902.317512311645, 63186.83930478565, -31594.749581187916, -2696.2015266658696, 17498.107850326043, 8761.123867168888, 28453.793043350346, 4288.495098173034, 34644.46629815892, 46274.481269655385, 35889.27965036388, 44374.85121188775, 24440.73849210006, 24558.15220572379, -2505.8317191400197, 25.011602045488605, -0.094, 0.984, 0.266, 192.0, 0.0, 0.0, 0.0, 0.0, 0.0, 0.0, 0.0, 0.0, 0.0, 1.706882615755946E9, 0.0, 2024-02-02 15:03:35.755
140.0, 59894.04736686318, 63184.84999952913, -31595.084857354745, -2723.940041534906, 17509.820164420624, 8770.042213206556, 28464.63363941117, 4289.433871440157, 34645.15920223704, 46271.55319113174, 35861.965818639495, 44348.677319130584, 24433.36241642981, 24601.693403922727, -2511.754931420676, 7.353723925796023, -0.094, 0.984, 0.266, 192.0, 0.0, 0.0, 0.0, 0.0, 0.0, 0.0, 0.0, 0.0, 0.0, 1.7068826157631567E9, 0.0, 2024-02-02 15:03:35.763
142.0, 59915.95207642938, 63199.17746772498, -31550.42607193304, -2663.2774070832024, 17511.69771095487, 8778.625283077394, 28472.7696743929, 4303.6942844026435, 34714.44961004849, 46277.65521736804, 35897.01335394542, 44386.58587772678, 24343.664865930663, 24558.33101967943, -2479.6354746383995, 27.827921846857294, -0.094, 0.984, 0.266, 192.0, 0.0, 0.0, 0.0, 0.0, 0.0, 0.0, 0.0, 0.0, 0.0, 1.7068826157709668E9, 0.0, 2024-02-02 15:03:35.770
144.0, 59909.62653274853, 63198.663377602505, -31581.562051959285, -2715.0887507306043, 17518.202068591367, 8785.375509902897, 28467.606421423727, 4307.538784448956, 34733.2474271354, 46284.51720291581, 35900.65668829164, 44378.11456657822, 24408.30611089541, 24581.666240890772, -2480.39543394988, 38.847331863323674, -0.094, 0.984, 0.266, 192.0, 0.0, 0.0, 0.0, 0.0, 0.0, 0.0, 0.0, 0.0, 0.0, 1.7068826157791724E9, 0.0, 2024-02-02 15:03:35.779
146.0, 59880.569264956626, 63175.529322091264, -31632.21110489501, -2677.4707648123226, 17472.917434324914, 8752.809018231514, 28447.0651682693, 4289.053891784417, 34670.86370836064, 46290.26160124083, 35862.323446550785, 44355.047566300345, 24391.005860687004, 24530.525449577028, -2509.095073830494, 20.608308387793112, -0.092, 0.984, 0.256, 192.0, 126.5, 16.0, 15.0, 96.0, 4.0, 0.0, 0.0, 0.0, 0.0, 1.706882615788036E9, 0.0, 2024-02-02 15:03:35.788
148.0, 59910.78882346021, 63199.78096482527, -31569.15683378659, -2641.5291597281885, 17529.065016396646, 8799.59121937647, 28485.197244310053, 4321.754493922531, 34735.527305069845, 46249.89435075454, 35868.55958325382, 44373.53245896488, 24445.521765413498, 24532.179478666723, -2507.5751552075335, 27.671459635670143, -0.092, 0.984, 0.256, 192.0, 0.0, 0.0, 0.0, 0.0, 0.0, 0.0, 0.0, 0.0, 0.0, 1.7068826157952788E9, 0.0, 2024-02-02 15:03:35.795
150.0, 59890.26992205023, 63183.50889486181, -31594.39195327663, -2707.8244337826295, 17508.680225453405, 8766.488285838162, 28469.126340046685, 4305.884755359263, 34652.08824301818, 46256.04108047976, 35874.259278089914, 44368.79388914036, 24398.985433457547, 24546.395188140297, -2494.9017161013744, 29.638413147737165, -0.092, 0.984, 0.256, 192.0, 0.0, 0.0, 0.0, 0.0, 0.0, 0.0, 0.0, 0.0, 0.0, 1.7068826158030298E9, 0.0, 2024-02-02 15:03:35.803
152.0, 59876.54595095467, 63178.815028526195, -31617.660119254604, -2749.9574720808832, 17500.32067302712, 8746.662288506304, 28458.173985263587, 4297.547554677433, 34666.61687691413, 46267.46282189641, 35870.213612343505, 44351.42658369859, 24333.271304758946, 24632.58351475996, -2483.390567706891, 5.409122158184309, -0.092, 0.984, 0.256, 192.0, 0.0, 0.0, 0.0, 0.0, 0.0, 0.0, 0.0, 0.0, 0.0, 1.7068826158120544E9, 0.0, 2024-02-02 15:03:35.812
154.0, 59882.69268067988, 63181.765458794296, -31618.375375077176, -2681.1140991585376, 17510.289551054186, 8775.83131502048, 28477.55294770634, 4319.5416712214555, 34477.36465661105, 46258.43271713647, 35816.100039017205, 44339.803676581825, 24368.67646797615, 24534.124080434332, -2519.5780419800335, -0.3799796557402201, -0.092, 0.984, 0.256, 192.0, 0.0, 0.0, 0.0, 0.0, 0.0, 0.0, 0.0, 0.0, 0.0, 1.7068826158193252E9, 0.0, 2024-02-02 15:03:35.819
156.0, 59904.99972164628, 63192.42724089948, -31550.2472579774, -2679.1471456464706, 17515.877487168014, 8802.251076966653, 28498.92121540561, 4342.943947666162, 34422.468772228814, 46267.21695270741, 35896.566319056314, 44345.21279874001, 24402.226436403565, 24517.315568603943, -2490.6325329104106, 39.450828963616964, -0.096, 0.994, 0.25, 192.0, 126.5, 0.0, 15.5, 8.0, 3.5, 104.0, 0.0, 0.0, 0.0, 1.7068826158270905E9, 0.0, 2024-02-02 15:03:35.827
158.0, 59901.7363669558, 63202.373767182085, -31572.688409410526, -2661.109287871038, 17542.140786903, 8792.326902428496, 28505.760849208935, 4349.381250069291, 34200.985336421174, 46257.695109569446, 35895.26991787791, 44372.83955488677, 24379.807636714893, 24535.934571735215, -2478.517887415634, 31.73947712653603, -0.096, 0.994, 0.25, 192.0, 0.0, 0.0, 0.0, 0.0, 0.0, 0.0, 0.0, 0.0, 0.0, 1.706882615835082E9, 0.0, 2024-02-02 15:03:35.835
160.0, 59880.72572716782, 63176.98218548086, -31619.40355532212, -2743.1178382775593, 17490.68707116688, 8729.473797020173, 28462.174947521085, 4310.4445112281455, 33900.37672524175, 46240.30545238322, 35839.167039295084, 44341.3682986937, 24282.734010545497, 24540.181403181723, -2495.706378901765, 22.66466887768136, -0.096, 0.994, 0.25, 192.0, 0.0, 0.0, 0.0, 0.0, 0.0, 0.0, 0.0, 0.0, 0.0, 1.706882615844117E9, 0.0, 2024-02-02 15:03:35.844
162.0, 59901.71401521135, 63198.28339794677, -31581.67381068156, -2662.3162820716243, 17518.917324413935, 8792.371605917408, 28483.610270453726, 4321.575679966889, 33572.63309629358, 46192.36096052658, 35861.58583898376, 44359.13793553566, 24335.282961759924, 24519.774260494025, -2517.6781437013324, -16.227366474552927, -0.096, 0.994, 0.25, 192.0, 0.0, 0.0, 0.0, 0.0, 0.0, 0.0, 0.0, 0.0, 0.0, 1.7068826158514547E9, 0.0, 2024-02-02 15:03:35.851
164.0, 59889.46525924984, 63188.35922340861, -31563.926525584047, -2674.3415205885794, 17519.431414536408, 8798.339521686974, 28478.15644480663, 4330.248156815548, 33372.04854155166, 46220.702972495914, 35933.066717751826, 44390.38567428418, 24378.712401236582, 24495.969652649124, -2447.0466312225617, 66.22821882107483, -0.096, 0.994, 0.25, 192.0, 0.0, 0.0, 0.0, 0.0, 0.0, 0.0, 0.0, 0.0, 0.0, 1.7068826158591373E9, 0.0, 2024-02-02 15:03:35.859
166.0, 59884.056137091655, 63178.70326980392, -31612.96625291899, -2767.570646711665, 17503.22639980631, 8768.522294583594, 28482.49268323096, 4336.014906885017, 33195.223891165726, 46181.833288888134, 35863.999827384934, 44344.31872896179, 24338.568668194854, 24532.626513555828, -2495.974599835229, 12.539328639427263, -0.10200000000000001, 1.01, 0.26, 192.0, 126.0, 104.0, 15.5, 72.0, 4.0, 16.0, 0.0, 0.0, 0.0, 1.7068826158671343E9, 0.0, 2024-02-02 15:03:35.867
168.0, 59891.1863435729, 63192.091964732645, -31571.34730474321, -2650.872188910507, 17536.46344381135, 8780.703995311736, 28495.41199152613, 4357.785505984486, 33091.668259104285, 46208.49892002332, 35869.74422570995, 44347.693842374545, 24338.970999595047, 24537.678007802726, -2506.144643562394, -2.4363401456284697, -0.10200000000000001, 1.01, 0.26, 192.0, 0.0, 0.0, 0.0, 0.0, 0.0, 0.0, 0.0, 0.0, 0.0, 1.7068826158753204E9, 0.0, 2024-02-02 15:03:35.875
170.0, 59887.45360224886, 63184.02298498428, -31602.617395236182, -2682.5222590592216, 17519.45376628086, 8746.885805950858, 28486.806569910834, 4342.541616265967, 33143.70312019624, 46189.27641979175, 35845.67139693158, 44346.12922026268, 24282.018754722925, 24517.22616162612, -2494.2311637677153, 5.543232624916151, -0.10200000000000001, 1.01, 0.26, 192.0, 0.0, 0.0, 0.0, 0.0, 0.0, 0.0, 0.0, 0.0, 0.0, 1.7068826158831587E9, 0.0, 2024-02-02 15:03:35.883
172.0, 59891.56632322864, 63185.00646174031, -31564.932354084536, -2671.838125209585, 17529.400292563474, 8771.852704507435, 28501.134038106688, 4346.09554363436, 33051.27865687355, 46156.75463160928, 35885.54690903985, 44374.627694443196, 24333.517173947952, 24488.571225234416, -2500.288486515103, 6.727875081047426, -0.10200000000000001, 1.01, 0.26, 192.0, 0.0, 0.0, 0.0, 0.0, 0.0, 0.0, 0.0, 0.0, 0.0, 1.7068826158912237E9, 0.0, 2024-02-02 15:03:35.891
174.0, 59886.62658770402, 63193.500124633334, -31576.48820596793, -2720.766093822252, 17517.062129624144, 8782.805059290537, 28485.890148388167, 4335.3890580402685, 32978.32256297142, 46150.85377107308, 35892.56535679881, 44361.52957219238, 24303.163504977645, 24523.462298329152, -2484.2846374851033, 2.6375058457262335, -0.10200000000000001, 1.01, 0.26, 192.0, 0.0, 0.0, 0.0, 0.0, 0.0, 0.0, 0.0, 0.0, 0.0, 1.706882615899175E9, 0.0, 2024-02-02 15:03:35.899
176.0, 59907.32430306963, 63202.731395093375, -31549.934333555026, -2654.314357556624, 17539.078597912623, 8785.375509902897, 28494.36145953673, 4347.660165746232, 33057.51479357658, 46259.1703247035, 35903.40595285963, 44371.051415330345, 24306.359804434756, 24543.824737527935, -2478.875515326919, 14.752151340502662, -0.10400000000000001, 0.998, 0.252, 192.0, 126.0, 96.0, 15.5, 24.0, 3.5, 112.0, 0.0, 0.0, 0.0, 1.706882615907578E9, 0.0, 2024-02-02 15:03:35.907
178.0, 59905.62557049103, 63197.3669764241, -31571.19084253202, -2665.445526295367, 17524.19233610539, 8784.816716291514, 28490.159331579132, 4344.039183144472, 33025.97648215014, 46164.95772182438, 35909.39622037366, 44397.98526739899, 24310.137249247702, 24480.993983864068, -2473.935779802296, 33.90759633870081, -0.10400000000000001, 0.998, 0.252, 192.0, 0.0, 0.0, 0.0, 0.0, 0.0, 0.0, 0.0, 0.0, 0.0, 1.70688261591519E9, 0.0, 2024-02-02 15:03:35.915
180.0, 59895.47787850832, 63193.298958933236, -31589.161645074088, -2692.871116742029, 17519.52082151423, 8771.182152173777, 28481.01746809691, 4332.662145216721, 32991.420685222234, 46190.84104190362, 35884.22815611698, 44373.80067989835, 24305.264568956445, 24512.174667379222, -2488.911448587352, 13.70161935110323, -0.10400000000000001, 0.998, 0.252, 192.0, 0.0, 0.0, 0.0, 0.0, 0.0, 0.0, 0.0, 0.0, 0.0, 1.7068826159232323E9, 0.0, 2024-02-02 15:03:35.923
182.0, 59906.38552980251, 63204.58658988316, -31567.39104597462, -2676.733157245297, 17526.539269273195, 8781.419251134306, 28487.186549566573, 4337.735991208076, 33054.2514388861, 46189.43288200294, 35899.226176646494, 44374.24771478745, 24300.838923554293, 24515.61683602534, -2490.2749049991257, 8.180738470642385, -0.10400000000000001, 0.998, 0.252, 192.0, 0.0, 0.0, 0.0, 0.0, 0.0, 0.0, 0.0, 0.0, 0.0, 1.706882615930239E9, 0.0, 2024-02-02 15:03:35.930
184.0, 59901.75871870026, 63203.13372649357, -31582.366714759675, -2689.9877417072944, 17518.716158713836, 8774.289044653064, 28482.984421608977, 4331.879834160785, 33036.45945029968, 46185.16369881197, 35900.768447013914, 44378.20397355604, 24295.116876973734, 24525.742176263593, -2484.329340974014, 11.689962350125594, -0.10400000000000001, 0.998, 0.252, 192.0, 0.0, 0.0, 0.0, 0.0, 0.0, 0.0, 0.0, 0.0, 0.0, 1.706882615939616E9, 0.0, 2024-02-02 15:03:35.939
186.0, 59898.76358494325, 63197.85871480212, -31583.86428163818, -2685.584448049599, 17519.833745936605, 8775.87601850939, 28484.50434023194, 4331.902185905241, 33031.832639197426, 46181.54271621021, 35891.06778992031, 44377.466365989014, 24296.70385083006, 24513.046385412978, -2488.4420619537905, 14.148654240209371, -0.108, 0.99, 0.252, 192.0, 126.0, 80.0, 15.0, 120.0, 3.5, 112.0, 0.0, 0.0, 0.0, 1.7068826159472473E9, 0.0, 2024-02-02 15:03:35.947
188.0, 59902.27280882273, 63197.3669764241, -31581.539700214827, -2690.837107996596, 17528.08153964061, 8778.334710399475, 28494.78614268138, 4339.769999953509, 33028.81515369596, 46161.33673922262, 35892.788874243364, 44377.10873807773, 24296.592092107785, 24539.220278170145, -2478.6967013712765, 15.713276352080864, -0.108, 0.99, 0.252, 192.0, 0.0, 0.0, 0.0, 0.0, 0.0, 0.0, 0.0, 0.0, 0.0, 1.7068826159542844E9, 0.0, 2024-02-02 15:03:35.954
190.0, 59893.287407551696, 63193.723642077886, -31584.87011013867, -2687.193773650381, 17515.56456274564, 8775.071355709, 28474.24488952695, 4324.973145124095, 33032.12321187535, 46151.03258502872, 35885.68101950658, 44360.34492973625, 24292.635833339195, 24523.37289135133, -2485.1340037744053, 14.68509610713674, -0.108, 0.99, 0.252, 192.0, 0.0, 0.0, 0.0, 0.0, 0.0, 0.0, 0.0, 0.0, 0.0, 1.7068826159624083E9, 0.0, 2024-02-02 15:03:35.962
192.0, 59899.09886111008, 63195.69059558995, -31581.91967987057, -2680.778822991708, 17517.866792424535, 8775.093707453456, 28468.411084224117, 4324.771979423997, 33033.15139212029, 46167.505820692284, 35889.88314746418, 44381.69084569107, 24291.42883913861, 24524.80340299647, -2490.0960910434833, 14.796854829413276, -0.108, 0.99, 0.252, 192.0, 0.0, 0.0, 0.0, 0.0, 0.0, 0.0, 0.0, 0.0, 0.0, 1.706882615971331E9, 0.0, 2024-02-02 15:03:35.971
194.0, 59887.364195271046, 63187.44280188594, -31591.463874752986, -2698.9507912338727, 17506.780327174703, 8759.894521223847, 28475.854215127732, 4318.424083998691, 33029.239836840614, 46149.065631516656, 35888.40793233013, 44372.3254647643, 24297.396754908175, 24522.747042506584, -2492.0630445555503, 15.042724018421653, -0.108, 0.99, 0.252, 192.0, 0.0, 0.0, 0.0, 0.0, 0.0, 0.0, 0.0, 0.0, 0.0, 1.7068826159797244E9, 0.0, 2024-02-02 15:03:35.979
196.0, 59894.60616047456, 63194.327139178175, -31583.976040360456, -2692.647599297476, 17518.67145522493, 8776.16659118731, 28480.72689541899, 4327.923575392196, 33020.38854603631, 46140.90724479047, 35880.80833921532, 44365.329368749786, 24286.891435014182, 24517.203809881667, -2498.4779952142235, 8.985401271033439, -0.106, 0.992, 0.252, 192.0, 126.0, 88.0, 15.5, 0.0, 3.5, 112.0, 0.0, 0.0, 0.0, 1.7068826159863331E9, 0.0, 2024-02-02 15:03:35.986
198.0, 59889.71112843885, 63190.4155838985, -31585.853586894704, -2693.005227208761, 17518.85026918057, 8774.847838264446, 28475.943622105555, 4325.241366057559, 33036.41474681077, 46145.22113147034, 35887.558566040825, 44370.4702699745, 24295.966243263036, 24533.922914734238, -2488.7102828872544, 16.652049619203762, -0.106, 0.992, 0.252, 192.0, 0.0, 0.0, 0.0, 0.0, 0.0, 0.0, 0.0, 0.0, 0.0, 1.7068826159956467E9, 0.0, 2024-02-02 15:03:35.995
200.0, 59891.92395113993, 63190.59439785414, -31584.91481362758, -2689.518355073733, 17519.811394192147, 8777.060660965522, 28477.664706428615, 4325.956621880129, 33050.0493109285, 46158.632178143525, 35879.62369675919, 44364.88233386068, 24295.47450488502, 24538.90735374777, -2493.9182393453407, 14.752151340502662, -0.106, 0.992, 0.252, 192.0, 0.0, 0.0, 0.0, 0.0, 0.0, 0.0, 0.0, 0.0, 0.0, 1.706882616003379E9, 0.0, 2024-02-02 15:03:36.003
202.0, 59892.57215172913, 63191.91315077701, -31586.747656672916, -2686.880849228007, 17518.09030986909, 8778.580579588483, 28477.329430261783, 4323.542633478955, 33072.62457282836, 46168.24342825931, 35881.07656014879, 44367.11750830621, 24297.95554851956, 24541.008417726567, -2497.4051114803688, 15.020372273966347, -0.106, 0.992, 0.252, 192.0, 0.0, 0.0, 0.0, 0.0, 0.0, 0.0, 0.0, 0.0, 0.0, 1.706882616010408E9, 0.0, 2024-02-02 15:03:36.010
204.0, 59893.06389010714, 63191.35435716562, -31590.167473574576, -2681.2035061363586, 17519.85609768106, 8780.413422633817, 28481.8221308973, 4316.9041653757295, 33120.569064685, 46198.35122804061, 35888.22911837448, 44378.807470656335, 24311.05367077037, 24554.128891721833, -2484.5752101630223, 29.97368931456677, -0.106, 0.992, 0.252, 192.0, 0.0, 0.0, 0.0, 0.0, 0.0, 0.0, 0.0, 0.0, 0.0, 1.7068826160183644E9, 0.0, 2024-02-02 15:03:36.018
206.0, 59884.52552372522, 63182.100734961125, -31605.523122015373, -2695.1062911875597, 17505.238056807288, 8767.561169572016, 28462.666685899105, 4295.222973254082, 33157.33768431398, 46207.94012641193, 35868.80545244282, 44364.480002460485, 24308.550275391375, 24550.597316097894, -2501.5401842046003, 15.154482740698189, -0.10200000000000001, 0.976, 0.244, 192.0, 126.0, 104.0, 15.0, 64.0, 3.5, 80.0, 0.0, 0.0, 0.0, 1.7068826160276492E9, 0.0, 2024-02-02 15:03:36.027
208.0, 59888.86176214955, 63185.40879314051, -31596.381258533154, -2682.946942203873, 17512.74824294427, 8769.528123084083, 28470.78036913638, 4305.996514081539, 33233.49007767321, 46232.459990079406, 35873.09698737824, 44365.68699666107, 24322.028377297924, 24571.451493674696, -2496.5780969355224, 19.55777639839368, -0.10200000000000001, 0.976, 0.244, 192.0, 0.0, 0.0, 0.0, 0.0, 0.0, 0.0, 0.0, 0.0, 0.0, 1.7068826160354447E9, 0.0, 2024-02-02 15:03:36.035
210.0, 59879.07169807812, 63175.395211624535, -31603.600871992217, -2718.9108990324617, 17506.020367863224, 8780.122849955898, 28464.54423243335, 4307.181156537671, 33328.73086079727, 46228.95076619992, 35868.5148797649, 44365.41877572761, 24330.097357046292, 24561.48261564763, -2497.8074428805644, 30.174855014664534, -0.10200000000000001, 0.976, 0.244, 192.0, 0.0, 0.0, 0.0, 0.0, 0.0, 0.0, 0.0, 0.0, 0.0, 1.7068826160424411E9, 0.0, 2024-02-02 15:03:36.042
212.0, 59882.40210800197, 63180.357298893614, -31602.729153958462, -2695.128642932015, 17497.549056714663, 8758.218140389698, 28461.549098676336, 4309.930421105673, 33435.79571673819, 46251.77189728879, 35850.18644931155, 44345.59277839575, 24326.85635410027, 24625.430956534263, -2521.9696786367513, -7.085502992332339, -0.10200000000000001, 0.976, 0.244, 192.0, 0.0, 0.0, 0.0, 0.0, 0.0, 0.0, 0.0, 0.0, 0.0, 1.7068826160516365E9, 0.0, 2024-02-02 15:03:36.051
214.0, 59894.29323605219, 63194.10362173362, -31583.05961883779, -2644.613700463021, 17515.51985925673, 8790.181134960787, 28471.9203081036, 4332.528034749989, 33612.218035723934, 46283.86900232661, 35869.74422570995, 44369.30797926283, 24363.937898151627, 24569.551595395995, -2515.241803555704, 19.513072909483064, -0.10200000000000001, 0.976, 0.244, 192.0, 0.0, 0.0, 0.0, 0.0, 0.0, 0.0, 0.0, 0.0, 0.0, 1.7068826160595033E9, 0.0, 2024-02-02 15:03:36.059
216.0, 59889.66642494994, 63180.5137611048, -31578.76808390237, -2675.414404322434, 17504.925132384913, 8774.847838264446, 28456.832880596266, 4321.776845666986, 33794.83178792379, 46285.992418049864, 35873.924001923086, 44364.547057693846, 24350.81742415636, 24558.353371423887, -2511.1514343203826, 23.983421800544477, -0.098, 0.996, 0.242, 192.0, 126.0, 120.0, 15.5, 16.0, 3.5, 72.0, 0.0, 0.0, 0.0, 1.7068826160665092E9, 0.0, 2024-02-02 15:03:36.066
218.0, 59891.32045403963, 63185.07351697368, -31593.095552098224, -2703.2423261692916, 17498.152553814954, 8760.54272181305, 28461.169119020597, 4312.90320311823, 33927.154115099205, 46291.87092684161, 35884.16110088362, 44366.04462457236, 24373.01270640048, 24586.404810715296, -2511.911393631863, 12.494625150516647, -0.098, 0.996, 0.242, 192.0, 0.0, 0.0, 0.0, 0.0, 0.0, 0.0, 0.0, 0.0, 0.0, 1.7068826160745528E9, 0.0, 2024-02-02 15:03:36.074
220.0, 59890.24757030578, 63182.033679727756, -31587.01587760638, -2703.10821570256, 17511.60830397705, 8768.87992249488, 28463.806624866324, 4305.415368725702, 34046.0877473459, 46287.601743650644, 35875.8686036907, 44362.60245592624, 24380.187616370633, 24598.273587021064, -2510.816158153553, 7.130206481242953, -0.098, 0.996, 0.242, 192.0, 0.0, 0.0, 0.0, 0.0, 0.0, 0.0, 0.0, 0.0, 0.0, 1.706882616083491E9, 0.0, 2024-02-02 15:03:36.083
222.0, 59895.746099441785, 63179.865560515595, -31590.97213637497, -2694.681608042909, 17508.836687664592, 8769.081088194978, 28458.19633700804, 4294.664179642699, 34177.44894950974, 46250.92253099949, 35879.15431012563, 44352.85709534372, 24408.149648684222, 24589.422296216762, -2505.6082016954665, 10.080636749343485, -0.098, 0.996, 0.242, 192.0, 0.0, 0.0, 0.0, 0.0, 0.0, 0.0, 0.0, 0.0, 0.0, 1.7068826160905037E9, 0.0, 2024-02-02 15:03:36.090
224.0, 59881.46333473484, 63175.819894769185, -31619.67177625558, -2732.0760765166374, 17479.578254172597, 8723.729398695159, 28446.126395002175, 4274.704071844109, 34256.79764232608, 46319.96706962193, 35857.67428370408, 44355.9192843341, 24384.903834450703, 24632.136479870856, -2514.459492499768, -7.241965203519488, -0.098, 0.996, 0.242, 192.0, 0.0, 0.0, 0.0, 0.0, 0.0, 0.0, 0.0, 0.0, 0.0, 1.7068826160985641E9, 0.0, 2024-02-02 15:03:36.098
226.0, 59910.38649206001, 63193.298958933236, -31537.68557759352, -2633.8625113800185, 17540.889089213502, 8786.470745381206, 28481.26333728592, 4314.423121741191, 34335.20756187529, 46308.21005203844, 35899.8743772357, 44389.089273105776, 24382.802770471906, 24543.95884799467, -2493.0018178226733, 25.972727057066805, -0.098, 0.986, 0.252, 192.0, 126.0, 120.0, 15.0, 104.0, 3.5, 112.0, 0.0, 0.0, 0.0, 1.7068826161069367E9, 0.0, 2024-02-02 15:03:36.106
228.0, 59875.29425326518, 63167.48269408735, -31639.609532309718, -2737.574605652643, 17485.12148679751, 8759.291024123553, 28451.02142703789, 4296.787595365953, 34379.553422874626, 46296.20716526594, 35897.974478956996, 44372.19135429757, 24397.39845960122, 24554.06183648847, -2487.1009572864723, 38.55675918540468, -0.098, 0.986, 0.252, 192.0, 0.0, 0.0, 0.0, 0.0, 0.0, 0.0, 0.0, 0.0, 0.0, 1.706882616115562E9, 0.0, 2024-02-02 15:03:36.115
230.0, 59892.862724407045, 63183.10656346162, -31591.620336964173, -2679.2365526242916, 17517.062129624144, 8760.989756702156, 28467.58406967927, 4308.008171082517, 34440.17135383742, 46302.95739209144, 35803.69482084451, 44321.00585949491, 24399.67833753566, 24600.240540533134, -2537.079457888539, -8.806587315390983, -0.098, 0.986, 0.252, 192.0, 0.0, 0.0, 0.0, 0.0, 0.0, 0.0, 0.0, 0.0, 0.0, 1.7068826161225631E9, 0.0, 2024-02-02 15:03:36.122
232.0, 59909.87240193754, 63199.78096482527, -31537.976150271435, -2642.71380218432, 17531.65781875346, 8799.59121937647, 28493.53444499188, 4343.614499999821, 34487.73586603831, 46344.59869201168, 35919.00747048944, 44390.49743300646, 24411.63652081925, 24588.327060738455, -2477.2438379816817, 35.7627911284913, -0.098, 0.986, 0.252, 192.0, 0.0, 0.0, 0.0, 0.0, 0.0, 0.0, 0.0, 0.0, 0.0, 1.706882616130777E9, 0.0, 2024-02-02 15:03:36.130
234.0, 59872.05325031916, 63169.82962725516, -31612.63097675216, -2718.06153274316, 17499.65012069346, 8748.62924201837, 28469.819244124803, 4324.1237788347935, 34459.371502324524, 46286.841784339165, 35904.255319148935, 44385.669456204116, 24417.872657522283, 24534.168783923244, -2482.0941665284836, 47.92214011217834, -0.098, 0.986, 0.252, 192.0, 0.0, 0.0, 0.0, 0.0, 0.0, 0.0, 0.0, 0.0, 0.0, 1.706882616139577E9, 0.0, 2024-02-02 15:03:36.139
236.0, 59869.0804683066, 63154.54103404773, -31597.565900989284, -2711.87009952904, 17517.12918485751, 8753.59132928745, 28459.58214516427, 4317.440607242657, 34361.13558544345, 46333.91455816205, 35808.92512904706, 44273.37429206065, 24354.125482335745, 24574.290165220522, -2529.613975240466, -22.172930499664606, -0.098, 0.991, 0.25, 192.0, 126.0, 120.0, 15.5, 16.0, 3.5, 96.0, 0.0, 0.0, 0.0, 1.7068826161475904E9, 0.0, 2024-02-02 15:03:36.147
238.0, 59892.52744824022, 63178.747973292826, -31576.95759260149, -2664.9537879173504, 17521.532478515208, 8789.890562282868, 28473.73079940448, 4339.5241307645, 34455.97403716732, 46268.245132952354, 35907.764543028425, 44375.63352294368, 24412.262369664, 24554.307705677475, -2495.080530057017, 22.016468288477455, -0.098, 0.991, 0.25, 192.0, 0.0, 0.0, 0.0, 0.0, 0.0, 0.0, 0.0, 0.0, 0.0, 1.7068826161546104E9, 0.0, 2024-02-02 15:03:36.154
240.0, 59875.69658466537, 63164.420505096976, -31594.63782246564, -2700.3365993901016, 17507.76380393074, 8760.54272181305, 28469.841595869257, 4326.9400986361625, 34252.39434866838, 46251.8166007777, 35865.43033903007, 44368.525668206894, 24393.956290955102, 24524.24460938509, -2508.715094174754, 26.755038113002556, -0.098, 0.991, 0.25, 192.0, 0.0, 0.0, 0.0, 0.0, 0.0, 0.0, 0.0, 0.0, 0.0, 1.706882616162985E9, 0.0, 2024-02-02 15:03:36.162
242.0, 59871.22623577431, 63160.710115517395, -31608.49590402793, -2703.443491869389, 17517.352702302065, 8752.227872875676, 28471.853252870234, 4329.510549248523, 34139.048652535515, 46308.657086927546, 35870.4147780436, 44336.33915619125, 24369.48113077654, 24539.533202592516, -2499.5061754591675, 2.145767467709478, -0.098, 0.991, 0.25, 192.0, 0.0, 0.0, 0.0, 0.0, 0.0, 0.0, 0.0, 0.0, 0.0, 1.706882616171628E9, 0.0, 2024-02-02 15:03:36.171
244.0, 59873.37200324202, 63161.60418529561, -31606.283081326856, -2683.7292532598085, 17509.03785336469, 8759.089858423455, 28460.63267715367, 4304.5660024364, 33893.15711178268, 46204.073274621165, 35837.20008578302, 44340.87656031568, 24356.070084103358, 24491.14167584678, -2510.2573645421703, 2.838671545823997, -0.098, 0.991, 0.25, 192.0, 0.0, 0.0, 0.0, 0.0, 0.0, 0.0, 0.0, 0.0, 0.0, 1.706882616178645E9, 0.0, 2024-02-02 15:03:36.178
246.0, 59888.57118947163, 63180.73727854935, -31574.968287344967, -2689.473651584822, 17538.89978395698, 8779.385242388875, 28495.993136881967, 4329.197624826148, 33637.47550695843, 46231.07418192318, 35866.19029834155, 44360.009653569425, 24342.323761263342, 24514.119269146835, -2483.4799746847125, 22.97759330005566, -0.10200000000000001, 0.9835, 0.245, 192.0, 126.0, 88.0, 15.0, 64.0, 3.5, 64.0, 0.0, 0.0, 0.0, 1.7068826161866925E9, 0.0, 2024-02-02 15:03:36.186
248.0, 59893.46622150734, 63184.98410999586, -31584.11015082719, -2679.1918491353813, 17529.37794081902, 8792.371605917408, 28497.356593293738, 4349.493008791567, 33527.147296327035, 46248.19561817594, 35919.40980188964, 44384.70833119254, 24391.318785109375, 24514.36513833584, -2457.529599372101, 40.34489874182925, -0.10200000000000001, 0.9835, 0.245, 192.0, 0.0, 0.0, 0.0, 0.0, 0.0, 0.0, 0.0, 0.0, 0.0, 1.706882616194836E9, 0.0, 2024-02-02 15:03:36.194
250.0, 59873.32729975311, 63171.93069123396, -31609.233511594954, -2724.007096768272, 17509.149612086967, 8759.045154934545, 28478.44701748455, 4345.357936067336, 33282.08277011904, 46241.95948147291, 35865.29622856334, 44343.80463883933, 24367.91650866467, 24552.832490543427, -2509.1174255749497, -6.3702471697625125, -0.10200000000000001, 0.9835, 0.245, 192.0, 0.0, 0.0, 0.0, 0.0, 0.0, 0.0, 0.0, 0.0, 0.0, 1.70688261620269E9, 0.0, 2024-02-02 15:03:36.202
252.0, 59878.02116608872, 63178.055069214715, -31630.31120661631, -2715.513433875255, 17521.80069944867, 8772.277387652086, 28482.917366375612, 4361.093564163872, 33150.833326677486, 46246.54158908625, 35817.150571006605, 44322.23520543995, 24363.91554640717, 24529.43021409872, -2533.145550864405, -24.11753226727632, -0.10200000000000001, 0.9835, 0.245, 192.0, 0.0, 0.0, 0.0, 0.0, 0.0, 0.0, 0.0, 0.0, 0.0, 1.7068826162107003E9, 0.0, 2024-02-02 15:03:36.210
254.0, 59899.50119251027, 63197.009348512816, -31534.042243247302, -2653.4873430117777, 17553.62958355303, 8787.007187248133, 28500.48583751748, 4370.637759046288, 33132.95193111324, 46245.24518790784, 35892.56535679881, 44378.33808402278, 24347.777586910437, 24535.174612423732, -2484.306989229559, 1.363456411773731, -0.10200000000000001, 0.9835, 0.245, 192.0, 0.0, 0.0, 0.0, 0.0, 0.0, 0.0, 0.0, 0.0, 0.0, 1.7068826162189963E9, 0.0, 2024-02-02 15:03:36.218
0.0, 59876.27773002121, 63178.390345381544, -31588.24522355142, -2687.6408085394874, 17523.007693649255, 8772.009166718623, 28478.35761050673, 4344.933252922685, 32981.16123451725, 46231.8117894902, 35890.24077537546, 44372.5713339533, 24318.630912140718, 24513.739289491095, -2488.7102828872544, 7.68900009262563, -0.10300000000000001, 0.97875, 0.2425, 192.0, 126.0, 96.0, 15.0, 56.0, 3.5, 64.0, 0.0, 0.0, 0.0, 1.706882616227729E9, 0.0, 2024-02-02 15:03:36.227
2.0, 59907.57017225864, 63199.33392993617, -31571.57082218776, -2686.545573061177, 17529.065016396646, 8784.906123269335, 28486.806569910834, 4349.5377122804775, 33021.707298959176, 46249.49201935435, 35889.63727827517, 44370.0232350854, 24327.996293067492, 24543.80238578348, -2486.4080532083576, 5.073845991354704, -0.10300000000000001, 0.97875, 0.2425, 192.0, 0.0, 0.0, 0.0, 0.0, 0.0, 0.0, 0.0, 0.0, 0.0, 1.706882616233742E9, 0.0, 2024-02-02 15:03:36.233
4.0, 59891.119288339534, 63184.84999952913, -31587.14998807311, -2686.523221316722, 17526.405158806465, 8775.473687109195, 28484.213767554018, 4346.274357590003, 32982.681153140205, 46220.77002772928, 35880.204842115025, 44371.677264175094, 24327.459851200565, 24508.62074001083, -2493.9182393453407, 11.48879665002783, -0.10300000000000001, 0.97875, 0.2425, 192.0, 0.0, 0.0, 0.0, 0.0, 0.0, 0.0, 0.0, 0.0, 0.0, 1.7068826162428784E9, 0.0, 2024-02-02 15:03:36.242
6.0, 59892.63920696249, 63181.92192100548, -31581.159720559088, -2685.159764904948, 17523.722949471827, 8775.294873153553, 28486.225424554996, 4350.387078569779, 32986.10097004187, 46245.5134088413, 35890.285478864374, 44360.769612880904, 24334.94768559309, 24537.789766525006, -2486.92214333083, 5.297363435907774, -0.10300000000000001, 0.97875, 0.2425, 192.0, 0.0, 0.0, 0.0, 0.0, 0.0, 0.0, 0.0, 0.0, 0.0, 1.7068826162507353E9, 0.0, 2024-02-02 15:03:36.250
8.0, 59907.72663446983, 63196.27174094579, -31567.3016389968, -2675.906142700451, 17544.822996237635, 8786.560152359027, 28495.233177570484, 4361.227674630603, 32975.93092631471, 46223.42988531946, 35903.62947030419, 44380.57325846831, 24353.499633490996, 24520.914199461247, -2478.406128693358, 22.619965388770748, -0.10300000000000001, 0.97875, 0.2425, 192.0, 0.0, 0.0, 0.0, 0.0, 0.0, 0.0, 0.0, 0.0, 0.0, 1.7068826162587557E9, 0.0, 2024-02-02 15:03:36.258
