%OpenBCI Raw EXG Data
%Number of channels = 16
%Sample Rate = 125 Hz
%Board = OpenBCI_GUI$BoardCytonSerialDaisy
Sample Index, EXG Channel 0, EXG Channel 1, EXG Channel 2, EXG Channel 3, EXG Channel 4, EXG Channel 5, EXG Channel 6, EXG Channel 7, EXG Channel 8, EXG Channel 9, EXG Channel 10, EXG Channel 11, EXG Channel 12, EXG Channel 13, EXG Channel 14, EXG Channel 15, Accel Channel 0, Accel Channel 1, Accel Channel 2, Other, Other, Other, Other, Other, Other, Other, Analog Channel 0, Analog Channel 1, Analog Channel 2, Timestamp, Other, Timestamp (Formatted)
26.0, 62831.96065806874, 64871.93731927125, -30885.662840087756, -5484.805164909979, 17031.448129588145, 6187.633417562654, 24734.261600287155, 5852.066678055129, 40727.091220270544, 47155.2294081723, 37418.54130250708, 49232.15350295943, 23367.944165223144, 26827.815392949033, -8591.98821687558, -2148.226159599562, 0.0, 0.0, 0.0, 192.0, 0.0, 0.0, 0.0, 0.0, 0.0, 0.0, 0.0, 0.0, 0.0, 1.7068831890415611E9, 0.0, 2024-02-02 15:13:09.041
28.0, 62843.06947506303, 64888.29879621253, -30882.511244119556, -5486.749766677591, 17035.56085056792, 6189.13098444116, 24740.72125443474, 5854.1006868005625, 40758.80834565262, 47164.50538212126, 37419.56948275203, 49239.01548850721, 23370.08993269085, 26832.866887195934, -8592.122327342311, -2149.477857289059, 0.0, 0.0, 0.0, 192.0, 0.0, 0.0, 0.0, 0.0, 0.0, 0.0, 0.0, 0.0, 0.0, 1.7068831890415826E9, 0.0, 2024-02-02 15:13:09.041
0.0, 31372.930869213447, 32051.373368665383, -15440.182738325924, -2956.7111082924735, 8553.498512923541, 3088.0946622007687, 12275.019261243257, 2826.154568929025, 20388.45662933071, 23581.090400348952, 18709.4159375925, 24616.49025875214, 11687.056623346403, 13415.98640870886, -4295.513545932001, -1075.7000536561077, -0.108, 0.978, 0.27, 192.0, 126.0, 80.0, 15.0, 72.0, 4.0, 56.0, 0.0, 0.0, 0.0, 1.706883189139184E9, 0.0, 2024-02-02 15:13:09.139
2.0, 62770.068677671996, 64178.67561324545, -30871.514185847544, -5900.4135013119585, 17118.128194585825, 6188.527487340866, 24563.315458692963, 5666.994233965187, 38495.64951606387, 47013.07231343655, 37385.237203268676, 49333.16103615297, 23382.472799119092, 26876.31867841705, -8583.807478404937, -2153.836447457844, -0.108, 0.978, 0.27, 192.0, 0.0, 0.0, 0.0, 0.0, 0.0, 0.0, 0.0, 0.0, 0.0, 1.7068831891451955E9, 0.0, 2024-02-02 15:13:09.145
4.0, 62795.996701240154, 64291.52957100029, -30868.340238134893, -5895.563172765157, 17126.599505734386, 6196.864688022696, 24580.973336812658, 5690.150641220885, 38765.9491617619, 47018.03440070563, 37393.261479528126, 49344.269853147256, 23385.065601475908, 26884.007678509675, -8585.796783661459, -2155.8481044588216, -0.108, 0.978, 0.27, 192.0, 0.0, 0.0, 0.0, 0.0, 0.0, 0.0, 0.0, 0.0, 0.0, 1.7068831891523876E9, 0.0, 2024-02-02 15:13:09.152
6.0, 62808.84895430195, 64384.28931048982, -30877.01271498355, -5902.872193202043, 17116.20594456267, 6193.5119263544, 24568.702229106693, 5699.828946570033, 39104.80160770436, 47034.5523398581, 37400.14581682036, 49350.3495276391, 23387.792514299457, 26892.166065235862, -8592.099975597856, -2161.927778950665, -0.108, 0.978, 0.27, 192.0, 0.0, 0.0, 0.0, 0.0, 0.0, 0.0, 0.0, 0.0, 0.0, 1.7068831891603606E9, 0.0, 2024-02-02 15:13:09.160
8.0, 62815.82269857201, 64460.28524163786, -30880.76780805204, -5909.756530494276, 17111.44502299369, 6192.975484487472, 24573.932537309236, 5712.904717076388, 39485.854147178434, 47035.26759568067, 37398.20121505275, 49344.471018847355, 23377.95774673912, 26885.952280277288, -8605.242801337577, -2179.205677414617, -0.098, 0.978, 0.27, 192.0, 126.0, 120.0, 15.0, 72.0, 4.0, 56.0, 0.0, 0.0, 0.0, 1.7068831891682107E9, 0.0, 2024-02-02 15:13:09.168
10.0, 62831.49127143518, 64541.5338327329, -30883.96410750915, -5913.221050884849, 17109.165145059247, 6191.388510631145, 24575.161883254277, 5724.214699770773, 39890.39837007503, 47038.240377693226, 37397.01657259662, 49338.3466408666, 23372.57097632539, 26883.65005059839, -8609.735501973093, -2188.012264730008, -0.098, 0.978, 0.27, 192.0, 0.0, 0.0, 0.0, 0.0, 0.0, 0.0, 0.0, 0.0, 0.0, 1.7068831891772366E9, 0.0, 2024-02-02 15:13:09.177
12.0, 62852.971297856726, 64626.53751689643, -30882.667706330743, -5909.555364794179, 17113.568438716942, 6195.411824633101, 24582.470903691163, 5734.0047638421975, 40244.025319102446, 47049.416249920876, 37399.2293952977, 49337.36316411057, 23371.073409446886, 26888.99211752321, -8613.89292644178, -2192.639075832257, -0.098, 0.978, 0.27, 192.0, 0.0, 0.0, 0.0, 0.0, 0.0, 0.0, 0.0, 0.0, 0.0, 1.7068831891835709E9, 0.0, 2024-02-02 15:13:09.183
14.0, 62867.857559663964, 64702.89107595576, -30881.55011910798, -5905.621457770045, 17113.411976505755, 6196.127080455671, 24581.688592635226, 5737.223415043762, 40518.415334035795, 47055.78649709064, 37404.70557268924, 49338.39134435551, 23371.52044433599, 26894.647108870402, -8611.41188280724, -2184.2124681726063, -0.098, 0.978, 0.27, 192.0, 0.0, 0.0, 0.0, 0.0, 0.0, 0.0, 0.0, 0.0, 0.0, 1.706883189192264E9, 0.0, 2024-02-02 15:13:09.192
16.0, 62878.92167316934, 64770.929786077715, -30884.83582554291, -5908.460129315869, 17111.53442997151, 6190.583847830755, 24584.147284525312, 5738.586871455535, 40699.88914726843, 47067.02942455166, 37397.86593888592, 49330.18825414041, 23368.90529023472, 26897.66459437187, -8615.166975875733, -2179.250380903528, -0.098, 0.978, 0.27, 192.0, 0.0, 0.0, 0.0, 0.0, 0.0, 0.0, 0.0, 0.0, 0.0, 1.7068831892002676E9, 0.0, 2024-02-02 15:13:09.200
18.0, 62908.4483275948, 64844.84700499142, -30885.282860432013, -5900.458204800869, 17122.375026032332, 6198.630475834665, 24598.407697487797, 5751.148551839417, 40837.553541368674, 47074.11492754399, 37407.00780236814, 49328.93655645091, 23373.509749592515, 26906.113553775973, -8610.674275240217, -2171.0696424328858, -0.096, 0.98, 0.27, 192.0, 126.5, 0.0, 15.0, 80.0, 4.0, 56.0, 0.0, 0.0, 0.0, 1.706883189208302E9, 0.0, 2024-02-02 15:13:09.208
20.0, 62929.369560404964, 64900.83812485196, -30901.06319201746, -5899.2959140891935, 17123.604371977373, 6195.992969988939, 24612.24342730563, 5758.792848443133, 40958.1188509606, 47082.8097561371, 37420.55295950806, 49332.82575998614, 23380.43879037366, 26912.684966645837, -8602.94057165868, -2162.28540686195, -0.096, 0.98, 0.27, 192.0, 0.0, 0.0, 0.0, 0.0, 0.0, 0.0, 0.0, 0.0, 0.0, 1.706883189216414E9, 0.0, 2024-02-02 15:13:09.216
22.0, 62950.17903449286, 64956.31515459003, -30911.523808422546, -5897.3066088326705, 17125.660732467262, 6198.205792690014, 24614.210380817698, 5763.866694434488, 41045.84944794768, 47089.00118935123, 37424.41981129883, 49332.311669863666, 23378.024801972486, 26917.04355681462, -8604.773414704016, -2164.4535260741145, -0.096, 0.98, 0.27, 192.0, 0.0, 0.0, 0.0, 0.0, 0.0, 0.0, 0.0, 0.0, 0.0, 1.7068831892243257E9, 0.0, 2024-02-02 15:13:09.224
24.0, 62968.90979634641, 65014.11676575146, -30915.435363702225, -5889.774070951232, 17130.734578458618, 6200.195097946536, 24625.229790834164, 5767.353566569515, 41139.346795004225, 47093.40448300892, 37441.31773010704, 49337.34081236611, 23387.680755577177, 26924.218466784772, -8595.98917913308, -2163.9841394405535, -0.096, 0.98, 0.27, 192.0, 0.0, 0.0, 0.0, 0.0, 0.0, 0.0, 0.0, 0.0, 0.0, 1.706883189232311E9, 0.0, 2024-02-02 15:13:09.232
26.0, 62972.2625580147, 65061.4577605078, -30925.516000451567, -5892.679797730422, 17125.61602897835, 6190.494440852934, 24622.391119288342, 5759.3069385656045, 41200.590574811766, 47112.336410562566, 37440.82599172902, 49339.62069030055, 23389.982985256076, 26932.645074444423, -8593.50813549854, -2167.6498255312235, -0.096, 0.98, 0.27, 192.0, 0.0, 0.0, 0.0, 0.0, 0.0, 0.0, 0.0, 0.0, 0.0, 1.706883189239354E9, 0.0, 2024-02-02 15:13:09.239
28.0, 62983.57254070909, 65108.4187756084, -30922.4985149501, -5888.7905941951985, 17133.64030523781, 6198.406958390112, 24636.562125273005, 5766.23597934675, 41246.948092812076, 47112.00113439574, 37441.18361964031, 49331.70817276337, 23388.328956166384, 26936.623684957467, -8591.921161642214, -2170.9802354550643, -0.10200000000000001, 0.988, 0.268, 192.0, 126.0, 104.0, 15.0, 112.0, 4.0, 48.0, 0.0, 0.0, 0.0, 1.7068831892486153E9, 0.0, 2024-02-02 15:13:09.248
30.0, 62987.50644773322, 65131.374017164, -30929.628721431345, -5894.177364608928, 17124.00670337757, 6189.198039674526, 24628.02375889108, 5753.495485007225, 41295.2949160689, 47117.38790480947, 37445.16223015335, 49332.6916495194, 23396.040308003463, 26947.754853696213, -8587.69668194016, -2162.4195173286816, -0.10200000000000001, 0.988, 0.268, 192.0, 0.0, 0.0, 0.0, 0.0, 0.0, 0.0, 0.0, 0.0, 0.0, 1.7068831892563524E9, 0.0, 2024-02-02 15:13:09.256
32.0, 62997.207104826826, 65158.59844191056, -30926.41007022978, -5891.897486674487, 17132.3439040594, 6196.507060111411, 24627.286151324053, 5754.300147807616, 41329.291919385425, 47125.255718857734, 37438.12143064993, 49327.14841689449, 23379.231796173073, 26938.94826638082, -8594.446908765663, -2164.900560963221, -0.10200000000000001, 0.988, 0.268, 192.0, 0.0, 0.0, 0.0, 0.0, 0.0, 0.0, 0.0, 0.0, 0.0, 1.70688318926336E9, 0.0, 2024-02-02 15:13:09.263
34.0, 62996.648311215446, 65177.32920376411, -30929.181686542237, -5896.814870454654, 17129.594639491395, 6190.494440852934, 24624.73805245615, 5748.622804715968, 41355.175239464676, 47119.0195821547, 37437.69674750528, 49327.818969228145, 23379.5670723399, 26934.14264132293, -8596.391510533274, -2167.0463284309303, -0.10200000000000001, 0.988, 0.268, 192.0, 0.0, 0.0, 0.0, 0.0, 0.0, 0.0, 0.0, 0.0, 0.0, 1.70688318927154E9, 0.0, 2024-02-02 15:13:09.271
36.0, 63007.824183443096, 65197.445773773885, -30922.83379111693, -5891.204582596371, 17133.707360471173, 6191.097937953226, 24634.416357805298, 5752.847284418021, 41385.88653634626, 47132.408277083436, 37439.954273695264, 49336.066762932154, 23381.981060741076, 26939.216487314283, -8593.50813549854, -2164.3864708407486, -0.10200000000000001, 0.988, 0.268, 192.0, 0.0, 0.0, 0.0, 0.0, 0.0, 0.0, 0.0, 0.0, 0.0, 1.7068831892803657E9, 0.0, 2024-02-02 15:13:09.280
38.0, 63040.2789163922, 65230.10167242309, -30915.68123289123, -5885.5048877602685, 17144.547956532, 6200.5974293467325, 24646.642762022348, 5765.207799101806, 41410.249937802546, 47122.79702696765, 37446.61509354295, 49336.2455768878, 23385.557339853924, 26939.171783825375, -8588.121365084811, -2159.938473694143, -0.10400000000000001, 0.99, 0.266, 192.0, 126.0, 96.0, 15.0, 120.0, 4.0, 40.0, 0.0, 0.0, 0.0, 1.706883189288405E9, 0.0, 2024-02-02 15:13:09.288
40.0, 63056.37217240002, 65259.047181492715, -30923.68315740623, -5886.6224749830335, 17138.490633784608, 6198.786938045852, 24640.58543927496, 5763.28554907865, 41438.32372883841, 47139.0243934422, 37460.65198906088, 49347.84613226011, 23393.179284713184, 26947.084301362553, -8578.711280669128, -2144.9181014201763, -0.10400000000000001, 0.99, 0.266, 192.0, 0.0, 0.0, 0.0, 0.0, 0.0, 0.0, 0.0, 0.0, 0.0, 1.7068831892954953E9, 0.0, 2024-02-02 15:13:09.295
42.0, 63047.99026822928, 65261.39411466052, -30930.634549931834, -5893.551515764179, 17134.15439536028, 6193.5566298433105, 24639.557259030018, 5756.580025742058, 41440.13422013929, 47141.840713243575, 37446.41392784285, 49337.609033299574, 23381.466970618603, 26937.361292524492, -8594.692777954671, -2156.6304155147573, -0.10400000000000001, 0.99, 0.266, 192.0, 0.0, 0.0, 0.0, 0.0, 0.0, 0.0, 0.0, 0.0, 0.0, 1.7068831893044128E9, 0.0, 2024-02-02 15:13:09.304
44.0, 63068.844445806084, 65301.22492327988, -30922.520866694555, -5888.075338372629, 17144.369142576354, 6200.709188069009, 24652.16364290281, 5764.492543279236, 41448.73964175459, 47137.03508818568, 37447.732680765715, 49336.73731526582, 23382.42809563018, 26938.14360358043, -8588.121365084811, -2152.763563723989, -0.10400000000000001, 0.99, 0.266, 192.0, 0.0, 0.0, 0.0, 0.0, 0.0, 0.0, 0.0, 0.0, 0.0, 1.7068831893124526E9, 0.0, 2024-02-02 15:13:09.312
46.0, 63083.26132097976, 65318.41341476601, -30927.684119663732, -5895.5408210207015, 17136.255459339078, 6189.153336185615, 24641.792433475548, 5751.908511150898, 41457.12154592533, 47156.011719228234, 37451.353663367474, 49346.1473996815, 23386.406706143225, 26949.67710371937, -8590.870629652814, -2160.5196190499805, -0.10400000000000001, 0.99, 0.266, 192.0, 0.0, 0.0, 0.0, 0.0, 0.0, 0.0, 0.0, 0.0, 0.0, 1.7068831893194473E9, 0.0, 2024-02-02 15:13:09.319
48.0, 63101.61210317756, 65342.732112733385, -30919.659843404275, -5885.236666826805, 17140.524642530043, 6203.078472981271, 24652.78949174756, 5762.659700233901, 41463.82706926192, 47164.14775420997, 37460.20495417177, 49350.260120661274, 23391.122924223295, 26937.875382646966, -8588.389586018275, -2155.803400969911, -0.1, 0.99, 0.264, 192.0, 126.0, 112.0, 15.0, 120.0, 4.0, 32.0, 0.0, 0.0, 0.0, 1.7068831893275104E9, 0.0, 2024-02-02 15:13:09.327
50.0, 63073.42655341942, 65332.40560679503, -30919.97276782665, -5886.197791838383, 17140.68110474123, 6200.8880020246515, 24638.97611367418, 5752.690822206834, 41467.62686581932, 47166.67350133342, 37467.06693971955, 49358.798487043205, 23400.91298829472, 26950.168842097384, -8586.042652850469, -2147.6226624992687, -0.1, 0.99, 0.264, 192.0, 0.0, 0.0, 0.0, 0.0, 0.0, 0.0, 0.0, 0.0, 0.0, 1.7068831893364751E9, 0.0, 2024-02-02 15:13:09.336
52.0, 63075.572320887135, 65335.803071952236, -30921.716203894164, -5881.1015941025735, 17136.948363417192, 6196.5517636003215, 24635.802165961526, 5743.61601395798, 41445.00690043055, 47174.138983981495, 37449.56552381105, 49344.20279791389, 23386.518464865505, 26948.760682196702, -8592.614065720329, -2154.574055024869, -0.1, 0.99, 0.264, 192.0, 0.0, 0.0, 0.0, 0.0, 0.0, 0.0, 0.0, 0.0, 0.0, 1.7068831893445609E9, 0.0, 2024-02-02 15:13:09.344
54.0, 63093.25255075128, 65370.02359271331, -30917.93875908122, -5881.436870269403, 17138.669447740253, 6197.17761244507, 24638.26085785161, 5745.13593258094, 41433.4286968027, 47147.29453889067, 37459.02031171564, 49344.538074080716, 23386.496113121048, 26937.249533802216, -8593.418728520719, -2153.702336991112, -0.1, 0.99, 0.264, 192.0, 0.0, 0.0, 0.0, 0.0, 0.0, 0.0, 0.0, 0.0, 0.0, 1.706883189351534E9, 0.0, 2024-02-02 15:13:09.351
56.0, 63069.64910860648, 65359.294755374765, -30921.135058538326, -5887.717710461344, 17134.4449680382, 6190.919123997584, 24628.470793780183, 5737.312822021583, 41416.888405905775, 47171.054443246656, 37462.50718385067, 49352.74116429582, 23387.770162555, 26940.401129770416, -8593.03874886498, -2150.550741022914, -0.1, 0.99, 0.264, 192.0, 0.0, 0.0, 0.0, 0.0, 0.0, 0.0, 0.0, 0.0, 0.0, 1.7068831893605473E9, 0.0, 2024-02-02 15:13:09.360
58.0, 63019.58120102659, 65331.57859225018, -30913.982500312628, -5874.105498088062, 17140.412883807767, 6203.413749148101, 24634.05872989401, 5743.437200002337, 41371.156736750214, 47162.06904197563, 37454.68407329131, 49340.49240833431, 23393.022822501996, 26938.031844858153, -8586.64614995076, -2145.0075083979978, -0.096, 0.99, 0.258, 192.0, 126.5, 0.0, 15.0, 120.0, 4.0, 8.0, 0.0, 0.0, 0.0, 1.7068831893685427E9, 0.0, 2024-02-02 15:13:09.368
60.0, 63024.90091620695, 65329.61163873812, -30921.78325912753, -5880.207524324361, 17121.190383576202, 6188.929818741062, 24607.393098758832, 5718.716170634767, 41318.92070995816, 47160.32560590811, 37462.618942572946, 49345.655661303485, 23396.733212081577, 26945.09499610603, -8581.46054523713, -2137.2961565609166, -0.096, 0.99, 0.258, 192.0, 0.0, 0.0, 0.0, 0.0, 0.0, 0.0, 0.0, 0.0, 0.0, 1.706883189375552E9, 0.0, 2024-02-02 15:13:09.375
62.0, 63037.86492799103, 65333.36673180661, -30901.97961354013, -5867.35527126256, 17128.186479590713, 6199.278676423869, 24615.73029944066, 5721.286621247127, 41184.87729845969, 47164.706547821355, 37455.913419236356, 49343.01815545776, 23386.071429976397, 26941.921048393375, -8585.819135405914, -2138.3913920392265, -0.096, 0.99, 0.258, 192.0, 0.0, 0.0, 0.0, 0.0, 0.0, 0.0, 0.0, 0.0, 0.0, 1.7068831893837657E9, 0.0, 2024-02-02 15:13:09.383
64.0, 63023.336294095076, 65297.849809867126, -30873.97287773763, -5849.742096631778, 17148.01247692257, 6204.419577648589, 24646.55335504453, 5726.829853872044, 40945.40070836553, 47157.46458261783, 37479.96389627027, 49359.17846669894, 23410.233665732583, 26953.968638654787, -8549.07286752139, -2107.0095428239756, -0.096, 0.99, 0.258, 192.0, 0.0, 0.0, 0.0, 0.0, 0.0, 0.0, 0.0, 0.0, 0.0, 1.7068831893925745E9, 0.0, 2024-02-02 15:13:09.392
66.0, 62985.40538375442, 65207.727576223326, -30872.654124814766, -5862.482590971303, 17138.15535761778, 6193.020187976384, 24629.700139725228, 5703.047597771597, 40688.95914422979, 47158.44805937386, 37474.93475376782, 49351.22124567285, 23416.223933246605, 26950.012379886197, -8537.695829593638, -2095.3419322183054, -0.096, 0.99, 0.258, 192.0, 0.0, 0.0, 0.0, 0.0, 0.0, 0.0, 0.0, 0.0, 0.0, 1.7068831893995793E9, 0.0, 2024-02-02 15:13:09.399
68.0, 62970.87674985847, 65142.61694462502, -30861.947639220674, -5859.174532791917, 17143.899755942795, 6199.055158979316, 24628.91782866929, 5697.638475613413, 40479.83622310594, 47140.879588232, 37460.026140216134, 49336.31263212117, 23413.6758343787, 26947.330170551562, -8542.523806395986, -2103.030932310931, -0.098, 0.986, 0.26, 192.0, 126.0, 120.0, 15.0, 104.0, 4.0, 16.0, 0.0, 0.0, 0.0, 1.7068831894075649E9, 0.0, 2024-02-02 15:13:09.407
70.0, 62956.61633689599, 65084.52476078567, -30861.522956076024, -5876.608893467056, 17135.651962238786, 6190.874420508674, 24613.025738361568, 5679.93589400481, 40323.55282587443, 47130.06134391563, 37465.055282718575, 49346.05799270368, 23419.464936192624, 26949.945324652832, -8539.461617405608, -2102.382731721727, -0.098, 0.986, 0.26, 192.0, 0.0, 0.0, 0.0, 0.0, 0.0, 0.0, 0.0, 0.0, 0.0, 1.706883189415948E9, 0.0, 2024-02-02 15:13:09.415
72.0, 62944.2558222122, 64990.06628871755, -30859.690113030687, -5890.981065151819, 17137.14952911729, 6186.962865228995, 24611.125840082866, 5671.553989834069, 40157.479364571496, 47127.289727603165, 37446.257465631665, 49335.97735595433, 23420.403709459748, 26940.356426281505, -8550.458675677619, -2111.9716300930536, -0.098, 0.986, 0.26, 192.0, 0.0, 0.0, 0.0, 0.0, 0.0, 0.0, 0.0, 0.0, 0.0, 1.7068831894245942E9, 0.0, 2024-02-02 15:13:09.424
74.0, 62899.06059492357, 64889.908121813314, -30849.184793136694, -5880.095765602085, 17143.63153500933, 6199.233972934959, 24615.48443025165, 5675.443193369293, 40030.20853164298, 47104.51330000321, 37439.90957020636, 49332.40107684149, 23424.315264739427, 26939.685873947845, -8549.721068110593, -2113.402141738193, -0.098, 0.986, 0.26, 192.0, 0.0, 0.0, 0.0, 0.0, 0.0, 0.0, 0.0, 0.0, 0.0, 1.7068831894316452E9, 0.0, 2024-02-02 15:13:09.431
76.0, 62907.46485083877, 64866.41643839079, -30866.306229389458, -5886.063681371651, 17123.58202023292, 6185.5770570727655, 24595.479618964153, 5654.2313878812065, 39972.25045827037, 47107.75430294923, 37428.37607006742, 49340.29124263421, 23418.123831525307, 26930.096975576518, -8552.269166978498, -2105.020237567453, -0.098, 0.986, 0.26, 192.0, 0.0, 0.0, 0.0, 0.0, 0.0, 0.0, 0.0, 0.0, 0.0, 1.706883189439724E9, 0.0, 2024-02-02 15:13:09.439
78.0, 62935.98567676374, 64836.30863860949, -30851.308208859948, -5868.852838141065, 17138.75885471807, 6205.4701096379895, 24604.308558023997, 5672.671577056834, 39943.64022536758, 47121.075942644595, 37445.18458189781, 49354.596359085604, 23424.225857761605, 26941.138737337442, -8555.107838524324, -2104.1038160447856, -0.10400000000000001, 0.988, 0.268, 192.0, 126.0, 96.0, 15.0, 112.0, 4.0, 48.0, 0.0, 0.0, 0.0, 1.7068831894479191E9, 0.0, 2024-02-02 15:13:09.447
80.0, 62937.46089189779, 64709.060157425425, -30857.790214751985, -5883.761451692754, 17132.20979359267, 6197.6022955897215, 24598.027717832058, 5672.537466590103, 39792.94476424989, 47116.20326235334, 37452.31478837905, 49348.56138808267, 23430.752567142557, 26940.84816465952, -8557.186550758666, -2100.639295654213, -0.10400000000000001, 0.988, 0.268, 192.0, 0.0, 0.0, 0.0, 0.0, 0.0, 0.0, 0.0, 0.0, 0.0, 1.7068831894556713E9, 0.0, 2024-02-02 15:13:09.455
82.0, 62908.269513639156, 64556.6883154736, -30860.651238042265, -5896.971332665841, 17131.449834281186, 6192.707263554009, 24602.54277021203, 5670.279940400117, 39590.437959484814, 47114.32571581909, 37441.02715742912, 49337.05023968819, 23431.423119476214, 26938.411824513892, -8562.662728150217, -2106.7189701460566, -0.10400000000000001, 0.988, 0.268, 192.0, 0.0, 0.0, 0.0, 0.0, 0.0, 0.0, 0.0, 0.0, 0.0, 1.7068831894636896E9, 0.0, 2024-02-02 15:13:09.463
84.0, 62914.282132897635, 64514.06353879733, -30851.844650726875, -5889.148222106483, 17133.64030523781, 6199.010455490406, 24593.19974102971, 5668.7376700327, 39498.9746211737, 47099.79708192314, 37438.92609345032, 49335.463265831866, 23434.552363699957, 26935.08141459005, -8561.41103046072, -2110.2952492589056, -0.10400000000000001, 0.988, 0.268, 192.0, 0.0, 0.0, 0.0, 0.0, 0.0, 0.0, 0.0, 0.0, 0.0, 1.7068831894717631E9, 0.0, 2024-02-02 15:13:09.471
86.0, 62922.954609746295, 64539.052789098365, -30862.26056364305, -5900.860536201065, 17120.586886475907, 6184.548876827822, 24572.43497043073, 5649.626928523413, 39523.36037437444, 47107.26256457121, 37442.43531732981, 49348.315518893665, 23438.17334630172, 26936.646036701924, -8569.278844508988, -2116.8219586398554, -0.10400000000000001, 0.988, 0.268, 192.0, 0.0, 0.0, 0.0, 0.0, 0.0, 0.0, 0.0, 0.0, 0.0, 1.706883189480863E9, 0.0, 2024-02-02 15:13:09.480
88.0, 62942.668848355876, 64603.917551507664, -30851.263505371036, -5892.098652374584, 17128.72292145764, 6190.360330386202, 24575.318345465465, 5655.952472204265, 39588.64981992839, 47102.255773813224, 37444.424622586324, 49347.42144911545, 23440.855555636354, 26931.549838966115, -8575.291463767466, -2127.148464578207, -0.10300000000000001, 0.985, 0.263, 192.0, 126.0, 104.0, 15.0, 88.0, 4.0, 8.0, 0.0, 0.0, 0.0, 1.7068831894876924E9, 0.0, 2024-02-02 15:13:09.487
90.0, 62952.83889208304, 64676.22544482058, -30853.051644927462, -5898.111271633062, 17123.425558021732, 6178.849181991718, 24579.408714700785, 5655.885416970899, 39676.06749249309, 47109.98947739476, 37447.6879772768, 49354.730469552334, 23447.248154550573, 26938.456528002804, -8579.024205091502, -2130.4341710131375, -0.10300000000000001, 0.985, 0.263, 192.0, 0.0, 0.0, 0.0, 0.0, 0.0, 0.0, 0.0, 0.0, 0.0, 1.7068831894957128E9, 0.0, 2024-02-02 15:13:09.495
92.0, 62974.90006386043, 64771.39917271128, -30851.129394904307, -5897.530126277224, 17122.553839987977, 6182.291350637835, 24577.888796077827, 5671.084603200508, 39785.23341241282, 47112.85050068504, 37433.47226780323, 49347.332042137634, 23437.815718390433, 26931.86276338849, -8598.80549893445, -2152.6294532572574, -0.10300000000000001, 0.985, 0.263, 192.0, 0.0, 0.0, 0.0, 0.0, 0.0, 0.0, 0.0, 0.0, 0.0, 1.7068831895040119E9, 0.0, 2024-02-02 15:13:09.504
94.0, 62992.89321814695, 64862.97426974467, -30853.8339559834, -5895.362007065059, 17127.33711330141, 6188.929818741062, 24587.991784571623, 5690.664731343357, 39956.492478429376, 47122.1711781229, 37441.429488829315, 49353.545827096204, 23435.558192200446, 26941.183440826353, -8602.09120536938, -2164.319415607383, -0.10300000000000001, 0.985, 0.263, 192.0, 0.0, 0.0, 0.0, 0.0, 0.0, 0.0, 0.0, 0.0, 0.0, 1.7068831895119324E9, 0.0, 2024-02-02 15:13:09.511
96.0, 62989.76397392321, 64926.00618910864, -30871.223613169626, -5908.214260126861, 17117.703511441174, 6178.379795358157, 24585.28722349253, 5692.564629622058, 40162.441451840576, 47138.063268430626, 37437.517933549636, 49348.91901599396, 23431.467822965125, 26948.403054285416, -8603.70053097016, -2171.0696424328858, -0.10300000000000001, 0.985, 0.263, 192.0, 0.0, 0.0, 0.0, 0.0, 0.0, 0.0, 0.0, 0.0, 0.0, 1.7068831895197833E9, 0.0, 2024-02-02 15:13:09.519
98.0, 62999.19641008335, 64994.93896900881, -30878.510281862058, -5906.068492659151, 17119.737520186605, 6181.307873881802, 24581.420371701763, 5694.822155812044, 40400.398123311774, 47123.80285546814, 37427.07966888901, 49333.25044313079, 23416.894485580266, 26927.928856364353, -8619.883193955802, -2187.900506007732, -0.10450000000000001, 0.9864999999999999, 0.2635, 192.0, 126.0, 88.0, 15.0, 112.0, 4.0, 32.0, 0.0, 0.0, 0.0, 1.7068831895277288E9, 0.0, 2024-02-02 15:13:09.527
100.0, 63022.84455571706, 65065.57048148757, -30888.76973256704, -5905.599106025589, 17119.84927890888, 6180.860838992696, 24590.137552039334, 5697.929048291332, 40693.0048099762, 47145.28288188969, 37444.17875339732, 49350.57304508365, 23422.05773854944, 26949.67710371937, -8607.589734505384, -2175.249418646028, -0.10450000000000001, 0.9864999999999999, 0.2635, 192.0, 0.0, 0.0, 0.0, 0.0, 0.0, 0.0, 0.0, 0.0, 0.0, 1.706883189536826E9, 0.0, 2024-02-02 15:13:09.536
102.0, 63019.60355277104, 65106.69769128534, -30907.366383953857, -5912.952829951386, 17109.00868284806, 6170.959016198995, 24578.91697632277, 5689.770661565145, 40922.37841157656, 47141.59484405456, 37430.588892768494, 49337.31846062165, 23403.528142395993, 26932.265094788683, -8624.532356802507, -2192.572020598891, -0.10450000000000001, 0.9864999999999999, 0.2635, 192.0, 0.0, 0.0, 0.0, 0.0, 0.0, 0.0, 0.0, 0.0, 0.0, 1.7068831895438063E9, 0.0, 2024-02-02 15:13:09.543
104.0, 63039.09427393607, 65163.76169487974, -30900.12441875034, -5898.334789077615, 17120.47512775363, 6187.588714073743, 24590.092848550423, 5704.120481505452, 41088.42952113504, 47147.47335284631, 37443.61995978594, 49344.51572233626, 23408.445526176158, 26944.692664705835, -8609.757853717549, -2182.1337559382628, -0.10450000000000001, 0.9864999999999999, 0.2635, 192.0, 0.0, 0.0, 0.0, 0.0, 0.0, 0.0, 0.0, 0.0, 0.0, 1.7068831895518172E9, 0.0, 2024-02-02 15:13:09.551
106.0, 63036.32265762361, 65199.837410430606, -30910.16035201077, -5905.062664158662, 17115.311874784456, 6181.17376341507, 24596.19487478672, 5700.477147159237, 41191.73928400747, 47161.554951853155, 37445.586913298, 49349.18723692742, 23407.372642442304, 26951.308781064607, -8605.354560059854, -2179.205677414617, -0.10450000000000001, 0.9864999999999999, 0.2635, 192.0, 0.0, 0.0, 0.0, 0.0, 0.0, 0.0, 0.0, 0.0, 0.0, 1.70688318955987E9, 0.0, 2024-02-02 15:13:09.559
108.0, 63056.30511716666, 65251.62640233355, -30906.293500220003, -5896.4795942878245, 17122.57619173243, 6191.7908420313415, 24604.733241168648, 5708.724940863245, 41247.082203278806, 47156.70462330635, 37442.52472430762, 49345.454495603386, 23392.508732379527, 26948.00072288522, -8607.388568805287, -2184.927723995176, -0.10325000000000001, 0.98525, 0.26475000000000004, 192.0, 126.0, 104.0, 15.0, 96.0, 4.0, 40.0, 0.0, 0.0, 0.0, 1.706883189567176E9, 0.0, 2024-02-02 15:13:09.567
110.0, 63061.69188758038, 65277.68853636844, -30907.902825820784, -5901.575792023635, 17127.62768597933, 6187.141679184638, 24610.2094185602, 5709.1719757523515, 41308.01305866397, 47163.94658850987, 37455.488736091706, 49354.08226896313, 23403.81871507391, 26957.14258636744, -8593.262266309532, -2172.343691866838, -0.10325000000000001, 0.98525, 0.26475000000000004, 192.0, 0.0, 0.0, 0.0, 0.0, 0.0, 0.0, 0.0, 0.0, 0.0, 1.7068831895758357E9, 0.0, 2024-02-02 15:13:09.575
112.0, 63067.458637649856, 65303.95183610343, -30911.814381100463, -5896.636056499012, 17124.699607455685, 6187.544010584833, 24600.329947510952, 5705.550993150591, 41336.779753777955, 47170.853277546565, 37452.91828547935, 49351.33300439513, 23402.030575517485, 26955.48855727775, -8600.884211168792, -2180.8150030153993, -0.10325000000000001, 0.98525, 0.26475000000000004, 192.0, 0.0, 0.0, 0.0, 0.0, 0.0, 0.0, 0.0, 0.0, 0.0, 1.7068831895838792E9, 0.0, 2024-02-02 15:13:09.583
114.0, 63081.58494014561, 65331.13155736108, -30909.847427588396, -5887.78476569471, 17129.10290111338, 6192.6178565761875, 24608.086002836946, 5713.597621154502, 41363.80301282442, 47177.24587646078, 37464.65295131838, 49357.72560330935, 23400.600063872345, 26962.23878410325, -8593.597542476362, -2174.66827329019, -0.10325000000000001, 0.98525, 0.26475000000000004, 192.0, 0.0, 0.0, 0.0, 0.0, 0.0, 0.0, 0.0, 0.0, 0.0, 1.706883189591051E9, 0.0, 2024-02-02 15:13:09.591
116.0, 63091.2408937503, 65351.248127370854, -30911.16618051126, -5884.588466237601, 17126.152470845278, 6192.282580409358, 24613.942159884235, 5716.168071766862, 41384.70189389013, 47186.09716726508, 37463.445957117794, 49358.664376576475, 23392.218159701606, 26963.311667837104, -8600.012493135035, -2173.930665723165, -0.10325000000000001, 0.98525, 0.26475000000000004, 192.0, 0.0, 0.0, 0.0, 0.0, 0.0, 0.0, 0.0, 0.0, 0.0, 1.706883189599899E9, 0.0, 2024-02-02 15:13:09.599
118.0, 63099.756908387775, 65369.017764212826, -30913.960148568174, -5888.589428495101, 17127.895906912792, 6192.506097853911, 24618.278398308565, 5716.548051422603, 41421.04583037446, 47195.08256853611, 37474.82299504554, 49367.09098423612, 23392.598139357346, 26972.230013874774, -8590.200077319156, -2162.28540686195, -0.10162500000000001, 0.986625, 0.265375, 192.0, 126.0, 112.0, 15.0, 112.0, 4.0, 40.0, 0.0, 0.0, 0.0, 1.7068831896079068E9, 0.0, 2024-02-02 15:13:09.607
120.0, 63115.15726031748, 65393.85055230267, -30908.819247343454, -5886.242495327294, 17132.746235459595, 6193.087243209749, 24619.530095998063, 5717.375065967449, 41429.740658967574, 47188.80172834417, 37471.38082639943, 49364.609940601586, 23393.20163645764, 26968.497272550736, -8593.888115154281, -2166.2640173749946, -0.10162500000000001, 0.986625, 0.265375, 192.0, 0.0, 0.0, 0.0, 0.0, 0.0, 0.0, 0.0, 0.0, 0.0, 1.7068831896158953E9, 0.0, 2024-02-02 15:13:09.615
122.0, 63129.41767327997, 65414.95059906848, -30909.176875254736, -5887.78476569471, 17133.90852617127, 6192.886077509651, 24622.189953588244, 5716.168071766862, 41442.86113296284, 47198.36827497104, 37471.917268266356, 49367.87329529206, 23385.91496776521, 26967.80436847262, -8596.391510533274, -2167.314549364394, -0.10162500000000001, 0.986625, 0.265375, 192.0, 0.0, 0.0, 0.0, 0.0, 0.0, 0.0, 0.0, 0.0, 0.0, 1.7068831896231923E9, 0.0, 2024-02-02 15:13:09.623
124.0, 63130.33409480263, 65420.04679680429, -30912.55198866749, -5893.350350064082, 17133.595601748897, 6195.009493232906, 24620.1112413539, 5714.201118254795, 41455.02048194653, 47199.932897082916, 37475.94058226831, 49369.639083104026, 23389.20067420014, 26971.00066792973, -8591.340016286376, -2163.671215018179, -0.10162500000000001, 0.986625, 0.265375, 192.0, 0.0, 0.0, 0.0, 0.0, 0.0, 0.0, 0.0, 0.0, 0.0, 1.7068831896319065E9, 0.0, 2024-02-02 15:13:09.631
126.0, 63112.67621668294, 65413.9894740569, -30924.398413228802, -5905.017960669752, 17123.82788942193, 6184.79474601683, 24605.224979546667, 5700.141870992407, 41455.892199980284, 47208.024228575734, 37469.36916939845, 49369.281455192744, 23386.09378172085, 26975.180444142872, -8596.503269255552, -2161.9724824395757, -0.10162500000000001, 0.986625, 0.265375, 192.0, 0.0, 0.0, 0.0, 0.0, 0.0, 0.0, 0.0, 0.0, 0.0, 1.7068831896399257E9, 0.0, 2024-02-02 15:13:09.639
128.0, 63122.66744645446, 65425.88060210712, -30928.958169097685, -5908.057797915673, 17118.91050564176, 6181.397280859624, 24600.73227891115, 5696.900868046388, 41446.97385394262, 47192.84739409058, 37454.08057619102, 49350.95302473939, 23372.213348414105, 26959.266002090695, -8615.546955531474, -2179.0268634589747, -0.0988125, 0.9813125, 0.2656875, 192.0, 126.5, 0.0, 15.0, 64.0, 4.0, 40.0, 0.0, 0.0, 0.0, 1.706883189647947E9, 0.0, 2024-02-02 15:13:09.647
130.0, 63147.09790314412, 65462.15748335809, -30920.330395737936, -5895.45141404288, 17126.398340034288, 6187.074623951272, 24606.43197374725, 5704.70162686129, 41448.96315919914, 47202.21277501736, 37466.08346296352, 49363.47000163436, 23379.29885140644, 26958.506042779216, -8608.729673472604, -2170.063813932397, -0.0988125, 0.9813125, 0.2656875, 192.0, 0.0, 0.0, 0.0, 0.0, 0.0, 0.0, 0.0, 0.0, 0.0, 1.7068831896551695E9, 0.0, 2024-02-02 15:13:09.655
132.0, 63136.234955338834, 65462.60451824719, -30922.25264576109, -5898.223030355338, 17122.062101609958, 6183.878324494162, 24602.900398123315, 5702.108824504474, 41447.10796440935, 47222.48580723832, 37467.82689903103, 49372.52245813876, 23380.505845607026, 26964.563365526603, -8608.595563005872, -2171.9413604666424, -0.0988125, 0.9813125, 0.2656875, 192.0, 0.0, 0.0, 0.0, 0.0, 0.0, 0.0, 0.0, 0.0, 0.0, 1.706883189663967E9, 0.0, 2024-02-02 15:13:09.663
134.0, 63090.592693161096, 65423.15368928358, -30924.30900625098, -5906.202603125883, 17121.72682544313, 6184.146545427626, 24599.63704343284, 5700.901830303887, 41439.396612572265, 47214.93091761243, 37459.534401838115, 49365.861638291084, 23376.750752538534, 26964.29514459314, -8612.775339219015, -2175.830564001866, -0.0988125, 0.9813125, 0.2656875, 192.0, 0.0, 0.0, 0.0, 0.0, 0.0, 0.0, 0.0, 0.0, 0.0, 1.706883189671983E9, 0.0, 2024-02-02 15:13:09.671
136.0, 63118.46531849686, 65456.3013263108, -30920.106878293383, -5904.8167949696535, 17120.497479498088, 6182.313702382291, 24595.63608117534, 5700.790071581611, 41415.94963263865, 47191.28277197871, 37441.429488829315, 49342.638175802014, 23369.352325123826, 26954.81800494409, -8620.486691056096, -2179.6974157926343, -0.0988125, 0.9813125, 0.2656875, 192.0, 0.0, 0.0, 0.0, 0.0, 0.0, 0.0, 0.0, 0.0, 0.0, 1.7068831896789577E9, 0.0, 2024-02-02 15:13:09.678
138.0, 63127.76364419027, 65466.42666654905, -30903.007793785073, -5882.979140636819, 17134.355561060376, 6202.765548558897, 24613.159848828298, 5719.207909012784, 41428.17603685571, 47219.31185952567, 37470.03972173211, 49372.58951337213, 23384.618566586803, 26973.928746453377, -8597.643208222773, -2158.4632585600925, -0.10040625, 0.98265625, 0.26484375000000004, 192.0, 126.0, 104.0, 15.0, 96.0, 4.0, 32.0, 0.0, 0.0, 0.0, 1.7068831896881664E9, 0.0, 2024-02-02 15:13:09.688
140.0, 63122.332170287635, 65461.44222753552, -30896.34697393739, -5877.614721967545, 17140.21171810767, 6203.950191015028, 24621.25118032112, 5722.471263703259, 41400.79514989795, 47219.982411859324, 37479.56156487007, 49374.802336073204, 23384.95384275363, 26978.309688366615, -8585.103879583345, -2148.673194488668, -0.10040625, 0.98265625, 0.26484375000000004, 192.0, 0.0, 0.0, 0.0, 0.0, 0.0, 0.0, 0.0, 0.0, 0.0, 1.7068831896959836E9, 0.0, 2024-02-02 15:13:09.695
142.0, 63027.15844239694, 65400.86900006163, -30910.58503515542, -5896.54664952119, 17128.834680179916, 6194.316589154791, 24604.710889424194, 5705.908621061876, 41339.95370149061, 47223.893967139, 37472.9454485113, 49364.811106301684, 23390.05004048944, 26985.66341229241, -8582.265208037521, -2142.928796163654, -0.10040625, 0.98265625, 0.26484375000000004, 192.0, 0.0, 0.0, 0.0, 0.0, 0.0, 0.0, 0.0, 0.0, 0.0, 1.7068831897040272E9, 0.0, 2024-02-02 15:13:09.704
144.0, 63082.1884372459, 65420.605590415675, -30901.532578651022, -5889.7293674623215, 17125.660732467262, 6191.612028075699, 24595.72548815316, 5696.297370946094, 41214.69452556307, 47198.27886799322, 37453.76765176865, 49340.268890889754, 23373.465046103604, 26971.984144685764, -8587.339054028876, -2147.600310754813, -0.10040625, 0.98265625, 0.26484375000000004, 192.0, 0.0, 0.0, 0.0, 0.0, 0.0, 0.0, 0.0, 0.0, 0.0, 1.7068831897110336E9, 0.0, 2024-02-02 15:13:09.711
146.0, 63081.093201767595, 65405.89814256408, -30881.6395260858, -5878.039405112196, 17138.75885471807, 6200.84329853574, 24612.39988951682, 5700.298333203595, 41035.21001758695, 47207.0407518197, 37480.12035848145, 49363.44764988991, 23386.227892187584, 26963.781054470666, -8569.301196253444, -2126.8578919002885, -0.10040625, 0.98265625, 0.26484375000000004, 192.0, 0.0, 0.0, 0.0, 0.0, 0.0, 0.0, 0.0, 0.0, 0.0, 1.706883189720022E9, 0.0, 2024-02-02 15:13:09.720
148.0, 63059.36730615704, 65334.08198762918, -30869.927211991217, -5884.633169726511, 17138.490633784608, 6195.344769399735, 24615.417375018285, 5684.138021962407, 40708.27105143917, 47206.68312390842, 37476.67818983534, 49359.849019032605, 23388.083086977374, 26971.224185374285, -8552.805608845427, -2109.17766203614, -0.099203125, 0.988328125, 0.26442187500000003, 192.0, 126.0, 120.0, 15.5, 8.0, 4.0, 32.0, 0.0, 0.0, 0.0, 1.7068831897282166E9, 0.0, 2024-02-02 15:13:09.728
150.0, 62991.239189057254, 65230.77222475675, -30852.425796082713, -5885.102556360073, 17134.10969187137, 6193.757795543408, 24591.165732284277, 5663.306196130061, 40471.230801490645, 47178.542277639186, 37461.702521050276, 49349.7460305388, 23385.73615380957, 26958.863670690498, -8557.477123436585, -2107.3448189908054, -0.099203125, 0.988328125, 0.26442187500000003, 192.0, 0.0, 0.0, 0.0, 0.0, 0.0, 0.0, 0.0, 0.0, 0.0, 1.706883189735034E9, 0.0, 2024-02-02 15:13:09.735
152.0, 63021.81637547212, 65169.9307763494, -30833.806792951444, -5880.676910957923, 17136.00959015007, 6200.150394457626, 24598.0053660876, 5658.6346815389015, 40321.340003173354, 47191.327475467624, 37469.65974207637, 49370.600208115604, 23396.532046381482, 26976.320383110095, -8553.610271645817, -2100.4604816985707, -0.099203125, 0.988328125, 0.26442187500000003, 192.0, 0.0, 0.0, 0.0, 0.0, 0.0, 0.0, 0.0, 0.0, 0.0, 1.7068831897442324E9, 0.0, 2024-02-02 15:13:09.744
154.0, 63009.05352938814, 65063.46941750878, -30816.95357763214, -5880.3416347910925, 17150.985258935125, 6209.426368406578, 24616.646720963327, 5665.004928708664, 40085.03736079185, 47176.4859171493, 37477.70637008028, 49377.73041459685, 23402.83523831788, 26978.510854066713, -8545.384829686265, -2093.88906882871, -0.099203125, 0.988328125, 0.26442187500000003, 192.0, 0.0, 0.0, 0.0, 0.0, 0.0, 0.0, 0.0, 0.0, 0.0, 1.7068831897520945E9, 0.0, 2024-02-02 15:13:09.752
156.0, 62945.462816412786, 64857.632202819856, -30826.609531236834, -5890.154050606972, 17145.665543754763, 6207.459414894512, 24597.468924220673, 5658.232350138706, 39743.65916772594, 47167.567571111635, 37469.950314754286, 49378.75859484179, 23406.165648241717, 26971.827682474577, -8550.346916955343, -2095.453690940582, -0.099203125, 0.988328125, 0.26442187500000003, 192.0, 0.0, 0.0, 0.0, 0.0, 0.0, 0.0, 0.0, 0.0, 0.0, 1.706883189759098E9, 0.0, 2024-02-02 15:13:09.759
158.0, 62935.44923489681, 64626.850441318806, -30824.352005046847, -5891.159879107461, 17151.186424635223, 6216.6236301211875, 24592.23861601813, 5664.244969397184, 39484.69185646676, 47154.91648374993, 37469.391521142905, 49383.58657164414, 23407.238531975574, 26982.37770585748, -8541.719143595594, -2086.736510603012, -0.0976015625, 0.9881640625, 0.2642109375, 192.0, 126.5, 0.0, 15.0, 112.0, 4.0, 32.0, 0.0, 0.0, 0.0, 1.706883189767089E9, 0.0, 2024-02-02 15:13:09.767
160.0, 62949.68729611484, 64489.36486117422, -30818.942882888663, -5875.40189926647, 17155.05327642599, 6222.211566235014, 24591.322194495464, 5670.682271800312, 39276.15008069874, 47162.22550418681, 37477.84048054701, 49392.86254559309, 23413.988758801075, 26982.91414772441, -8540.73566683956, -2086.1777169916295, -0.0976015625, 0.9881640625, 0.2642109375, 192.0, 0.0, 0.0, 0.0, 0.0, 0.0, 0.0, 0.0, 0.0, 0.0, 1.706883189776171E9, 0.0, 2024-02-02 15:13:09.776
162.0, 62916.56201083208, 64333.237926153895, -30830.923417916707, -5893.707977975367, 17144.212680365166, 6208.7558160729195, 24577.777037355547, 5659.796972250578, 38996.23918488493, 47155.184704683394, 37470.68792232131, 49389.64389439153, 23401.40472667274, 26977.929708710875, -8545.54129189745, -2087.1835454921184, -0.0976015625, 0.9881640625, 0.2642109375, 192.0, 0.0, 0.0, 0.0, 0.0, 0.0, 0.0, 0.0, 0.0, 0.0, 1.7068831897844613E9, 0.0, 2024-02-02 15:13:09.784
164.0, 62845.01407683064, 64192.93602620793, -30834.790269707475, -5894.847916942587, 17146.514910044065, 6214.142586486649, 24576.838264088427, 5663.820286252533, 38882.06647420722, 47130.642489271464, 37462.37307338394, 49374.735280839835, 23404.221046474107, 26973.168787141894, -8546.457713420119, -2093.196164750596, -0.0976015625, 0.9881640625, 0.2642109375, 192.0, 0.0, 0.0, 0.0, 0.0, 0.0, 0.0, 0.0, 0.0, 0.0, 1.7068831897911448E9, 0.0, 2024-02-02 15:13:09.791
166.0, 62859.9897456157, 64172.48418003132, -30835.796098207964, -5888.656483728467, 17145.77730247704, 6213.18146147507, 24576.458284432687, 5666.010757209153, 38884.145186441565, 47118.192567609854, 37435.81920097103, 49365.59341735762, 23399.571883627403, 26970.218356873796, -8545.1166087528, -2088.703464115079, -0.0976015625, 0.9881640625, 0.2642109375, 192.0, 0.0, 0.0, 0.0, 0.0, 0.0, 0.0, 0.0, 0.0, 0.0, 1.7068831897991383E9, 0.0, 2024-02-02 15:13:09.799
168.0, 62868.841036419995, 64091.01207149173, -30844.222705867614, -5899.877059445031, 17135.607258749875, 6206.945324772039, 24556.43112140073, 5661.2721873846285, 38874.80215725925, 47123.244061856756, 37446.324520865026, 49374.06472850618, 23395.034479502974, 26956.24851658923, -8557.633585647773, -2103.5673741778583, -0.09980078125, 0.9890820312499999, 0.26410546875, 192.0, 126.0, 104.0, 15.0, 120.0, 4.0, 32.0, 0.0, 0.0, 0.0, 1.7068831898083956E9, 0.0, 2024-02-02 15:13:09.808
170.0, 62869.64569922039, 63893.69087144028, -30829.179981849193, -5892.16570760795, 17151.67816301324, 6215.9754295319835, 24585.130761281343, 5678.840658526499, 38667.60148615855, 47131.58126253859, 37460.517878594146, 49385.66528387848, 23408.33376745388, 26965.748007982733, -8537.919347038192, -2087.1388420032076, -0.09980078125, 0.9890820312499999, 0.26410546875, 192.0, 0.0, 0.0, 0.0, 0.0, 0.0, 0.0, 0.0, 0.0, 0.0, 1.7068831898154256E9, 0.0, 2024-02-02 15:13:09.815
172.0, 62782.40684061132, 63678.86825548032, -30839.662949998732, -5901.329922834626, 17144.905584443284, 6209.6945893400425, 24569.775112840547, 5661.763925762645, 38464.3794255709, 47113.67751522989, 37435.84155271549, 49367.538019125226, 23407.126773253298, 26954.527432266168, -8545.608347130817, -2095.4983944294922, -0.09980078125, 0.9890820312499999, 0.26410546875, 192.0, 0.0, 0.0, 0.0, 0.0, 0.0, 0.0, 0.0, 0.0, 0.0, 1.7068831898232162E9, 0.0, 2024-02-02 15:13:09.823
174.0, 62825.59041089898, 63622.13952805276, -30831.839839439373, -5895.674931487433, 17147.945421689205, 6213.337923686257, 24572.77024659756, 5664.982576964209, 38374.16778494928, 47112.17994835138, 37437.383823082906, 49380.63614137604, 23419.509639681535, 26967.849071961533, -8526.765826554994, -2080.321559944339, -0.09980078125, 0.9890820312499999, 0.26410546875, 192.0, 0.0, 0.0, 0.0, 0.0, 0.0, 0.0, 0.0, 0.0, 0.0, 1.7068831898322394E9, 0.0, 2024-02-02 15:13:09.832
176.0, 62817.2755619616, 63494.42166023513, -30840.378205821304, -5901.21816411235, 17138.15535761778, 6207.302952683324, 24551.33492366492, 5657.3382803604945, 38248.57333285491, 47115.46565478631, 37442.70353826327, 49389.3086182247, 23414.011110545533, 26962.886984692454, -8536.064152248402, -2089.619885637747, -0.09980078125, 0.9890820312499999, 0.26410546875, 192.0, 0.0, 0.0, 0.0, 0.0, 0.0, 0.0, 0.0, 0.0, 0.0, 1.706883189839382E9, 0.0, 2024-02-02 15:13:09.839
178.0, 62778.38352660937, 63397.54919976583, -30840.53466803249, -5900.525260034235, 17142.335133830922, 6212.5779643747765, 24559.694476091205, 5667.93300723231, 38116.608633590775, 47096.667837699395, 37426.72204097772, 49371.024891260255, 23412.982930300586, 26960.472996291282, -8536.667649348694, -2094.0008275509867, -0.098900390625, 0.986541015625, 0.264052734375, 192.0, 126.0, 120.0, 15.0, 96.0, 4.0, 32.0, 0.0, 0.0, 0.0, 1.706883189848245E9, 0.0, 2024-02-02 15:13:09.848
180.0, 62780.90927373282, 63402.2654178459, -30838.34419707587, -5896.457242543369, 17144.190328620713, 6213.13675798616, 24552.81013879897, 5664.982576964209, 38112.09358121081, 47087.50362247272, 37431.84059045799, 49382.64779837702, 23422.236552505085, 26962.752874225724, -8527.97282075558, -2093.6208478952467, -0.098900390625, 0.986541015625, 0.264052734375, 192.0, 0.0, 0.0, 0.0, 0.0, 0.0, 0.0, 0.0, 0.0, 0.0, 1.7068831898552976E9, 0.0, 2024-02-02 15:13:09.855
182.0, 62753.908366430805, 63365.11681856118, -30848.804813480954, -5904.079187402629, 17137.641267495306, 6204.553688115321, 24553.1454149658, 5659.796972250578, 38091.21705188955, 47086.967180605796, 37415.74733445017, 49386.38053970105, 23414.391090201272, 26956.695551478333, -8535.080675492367, -2105.4896242010145, -0.098900390625, 0.986541015625, 0.264052734375, 192.0, 0.0, 0.0, 0.0, 0.0, 0.0, 0.0, 0.0, 0.0, 0.0, 1.7068831898632565E9, 0.0, 2024-02-02 15:13:09.863
184.0, 62779.16583766531, 63413.91067670711, -30842.613380266834, -5896.636056499012, 17149.44298856771, 6219.998743533939, 24567.562290139474, 5674.996158480187, 38086.36672334275, 47064.168401261384, 37413.467456515726, 49374.5564668842, 23420.783689115488, 26957.701379978822, -8530.520919623485, -2099.32054273135, -0.098900390625, 0.986541015625, 0.264052734375, 192.0, 0.0, 0.0, 0.0, 0.0, 0.0, 0.0, 0.0, 0.0, 0.0, 1.7068831898715625E9, 0.0, 2024-02-02 15:13:09.871
186.0, 62732.94243013173, 63383.087621103245, -30859.980685708608, -5906.940210692908, 17134.176747104735, 6207.504118383422, 24546.1940224402, 5662.5685885630355, 38097.69905778159, 47075.59014267804, 37416.35083155046, 49382.20076348791, 23424.20350601715, 26965.368028326993, -8533.069018491391, -2094.3584554622716, -0.098900390625, 0.986541015625, 0.264052734375, 192.0, 0.0, 0.0, 0.0, 0.0, 0.0, 0.0, 0.0, 0.0, 0.0, 1.7068831898802524E9, 0.0, 2024-02-02 15:13:09.880
188.0, 62736.02697086656, 63414.02243542939, -30864.16046192175, -5906.761396737265, 17131.181613347722, 6209.448720151034, 24547.982161996624, 5670.212885166751, 38107.958508486576, 47043.56009287359, 37393.753217906145, 49352.13766719552, 23413.63113088979, 26949.408882785905, -8552.760905356516, -2107.613039924269, -0.098900390625, 0.986541015625, 0.264052734375, 192.0, 0.0, 0.0, 0.0, 0.0, 0.0, 0.0, 0.0, 0.0, 0.0, 1.7068831898872936E9, 0.0, 2024-02-02 15:13:09.887
190.0, 62754.064828642, 63459.150607484655, -30855.599743795367, -5899.117100133551, 17133.90852617127, 6217.070665010294, 24548.920935263748, 5675.97963523622, 38129.43853490812, 47056.70291861331, 37404.57146222251, 49363.49235337882, 23418.034424547484, 26966.217394616295, -8540.579204628373, -2091.4080251941714, -0.098, 0.984, 0.27, 192.0, 126.0, 120.0, 15.0, 96.0, 4.0, 56.0, 0.0, 0.0, 0.0, 1.7068831898955588E9, 0.0, 2024-02-02 15:13:09.895
192.0, 62752.097875129926, 63507.3409685303, -30859.15367116376, -5908.527184549235, 17127.04654062349, 6209.627534106677, 24541.746025293593, 5664.557893819559, 38160.08277655635, 47070.806869364606, 37406.42665701231, 49365.14638246851, 23416.670968135713, 26967.647906261434, -8548.73759135456, -2097.9347345751207, -0.098, 0.984, 0.27, 192.0, 0.0, 0.0, 0.0, 0.0, 0.0, 0.0, 0.0, 0.0, 0.0, 1.7068831899043012E9, 0.0, 2024-02-02 15:13:09.904
194.0, 62751.71789547419, 63554.43609409763, -30857.34317986288, -5912.081111917629, 17128.141776101802, 6208.867574795196, 24537.879173502824, 5652.711469258245, 38221.818294741905, 47054.17717148986, 37404.77262792261, 49355.646891075005, 23416.53685766898, 26963.646944003936, -8551.576262900384, -2106.1154730457633, -0.098, 0.984, 0.27, 192.0, 0.0, 0.0, 0.0, 0.0, 0.0, 0.0, 0.0, 0.0, 0.0, 1.7068831899115248E9, 0.0, 2024-02-02 15:13:09.911
196.0, 62762.446732812736, 63626.00637984352, -30862.953467721163, -5910.36002759457, 17123.134985343815, 6210.8121765628075, 24549.32326666394, 5682.193420194795, 38318.33312729992, 47062.40261344941, 37405.68904944528, 49359.60314984359, 23419.084956536884, 26967.80436847262, -8552.582091400873, -2101.3321997323274, -0.098, 0.984, 0.27, 192.0, 0.0, 0.0, 0.0, 0.0, 0.0, 0.0, 0.0, 0.0, 0.0, 1.7068831899193308E9, 0.0, 2024-02-02 15:13:09.919
198.0, 62768.05702067102, 63695.98969173309, -30853.118700160827, -5897.530126277224, 17133.86382268236, 6216.288353954358, 24560.834415058427, 5683.199248695284, 38436.88677989087, 47058.69222386983, 37400.883424387386, 49354.886931763525, 23412.848819833856, 26957.589621256546, -8561.589844416361, -2109.17766203614, -0.098, 0.984, 0.27, 192.0, 0.0, 0.0, 0.0, 0.0, 0.0, 0.0, 0.0, 0.0, 0.0, 1.7068831899276884E9, 0.0, 2024-02-02 15:13:09.927
200.0, 62803.95392226624, 63782.982681153146, -30841.741662233075, -5885.236666826805, 17139.42940705173, 6216.221298720992, 24564.075418004446, 5687.2225626972395, 38595.762979479194, 47081.69216891434, 37420.91058741934, 49385.88880132304, 23429.947904342163, 26975.180444142872, -8544.624870374784, -2092.927943817132, -0.094, 0.976, 0.272, 192.0, 126.5, 8.0, 15.0, 64.0, 4.0, 64.0, 0.0, 0.0, 0.0, 1.706883189935324E9, 0.0, 2024-02-02 15:13:09.935
202.0, 62811.307646192035, 63846.34987668394, -30853.118700160827, -5898.64771349999, 17129.862860424862, 6203.7713770593855, 24556.9452115232, 5679.153582948874, 38763.87044952756, 47094.991456865246, 37417.311956562036, 49390.26974323628, 23424.58348567289, 26969.14547313994, -8556.158370513722, -2108.194185280107, -0.094, 0.976, 0.272, 192.0, 0.0, 0.0, 0.0, 0.0, 0.0, 0.0, 0.0, 0.0, 0.0, 1.7068831899436276E9, 0.0, 2024-02-02 15:13:09.943
204.0, 62815.845050316464, 63927.59846777898, -30846.6813977577, -5899.1841553669165, 17140.837566952418, 6212.309743441313, 24569.261022718078, 5691.98348426622, 38941.70092841398, 47070.091613542034, 37410.517026247624, 49381.44080417643, 23420.11313678183, 26956.42733054487, -8564.070888050901, -2119.995906352509, -0.094, 0.976, 0.272, 192.0, 0.0, 0.0, 0.0, 0.0, 0.0, 0.0, 0.0, 0.0, 0.0, 1.7068831899517229E9, 0.0, 2024-02-02 15:13:09.951
206.0, 62817.09674800596, 64004.5555239386, -30858.01373219654, -5913.176347395939, 17134.62378199384, 6208.599353861732, 24561.01322901407, 5696.207963968273, 39217.94613813712, 47075.4113287224, 37409.15356983585, 49381.1055280096, 23428.226820019107, 26961.300010836127, -8567.73657414157, -2126.9696506225646, -0.094, 0.976, 0.272, 192.0, 0.0, 0.0, 0.0, 0.0, 0.0, 0.0, 0.0, 0.0, 0.0, 1.706883189960674E9, 0.0, 2024-02-02 15:13:09.960
208.0, 62836.38630347089, 64106.6806443549, -30856.985551951595, -5909.912992705464, 17139.83173845193, 6220.982220289972, 24569.73040935164, 5722.806539870088, 39599.91509913386, 47077.445337467834, 37408.013630868634, 49374.44470816192, 23421.789517615976, 26962.507005036714, -8577.660748679727, -2137.7878949389333, -0.094, 0.976, 0.272, 192.0, 0.0, 0.0, 0.0, 0.0, 0.0, 0.0, 0.0, 0.0, 0.0, 1.7068831899664233E9, 0.0, 2024-02-02 15:13:09.966
210.0, 62837.034504060095, 64184.531770292735, -30867.222650912125, -5918.6078212985785, 17132.746235459595, 6216.020133020894, 24569.573947140452, 5738.184540055339, 39982.30874327526, 47079.52404970217, 37410.49467450317, 49371.11429823808, 23420.716633882123, 26965.09980739353, -8580.879399881293, -2150.550741022914, -0.098, 0.972, 0.276, 192.0, 126.0, 120.0, 15.0, 48.0, 4.0, 80.0, 0.0, 0.0, 0.0, 1.7068831899754124E9, 0.0, 2024-02-02 15:13:09.975
212.0, 62834.91108833684, 64264.305146253726, -30881.751284808077, -5920.820643999654, 17123.224392321634, 6208.398188161635, 24565.885909305325, 5765.90070317992, 40287.92414521267, 47080.75339564722, 37395.74252316267, 49352.11531545107, 23406.9256075532, 26960.741217224746, -8598.961961145635, -2170.354386610316, -0.098, 0.972, 0.276, 192.0, 0.0, 0.0, 0.0, 0.0, 0.0, 0.0, 0.0, 0.0, 0.0, 1.7068831899836843E9, 0.0, 2024-02-02 15:13:09.983
214.0, 62842.421274473825, 64348.14653970559, -30880.186662696204, -5915.724446263844, 17126.53245050102, 6209.269906195392, 24581.465075190674, 5811.677075824389, 40516.98482239066, 47080.32871250257, 37396.21190979623, 49343.845170002605, 23403.326976695895, 26972.833510975066, -8600.884211168792, -2167.9627499535977, -0.098, 0.972, 0.276, 192.0, 0.0, 0.0, 0.0, 0.0, 0.0, 0.0, 0.0, 0.0, 0.0, 1.706883189991422E9, 0.0, 2024-02-02 15:13:09.991
216.0, 62840.27550700612, 64411.871363147664, -30888.948546522686, -5924.88866149052, 17117.703511441174, 6198.98810374595, 24577.553519910995, 5817.130901471484, 40681.35955111498, 47089.336465518056, 37393.64145918387, 49336.46909433235, 23397.850799304342, 26969.57015628459, -8607.768548461027, -2171.360215110805, -0.098, 0.972, 0.276, 192.0, 0.0, 0.0, 0.0, 0.0, 0.0, 0.0, 0.0, 0.0, 0.0, 1.7068831899994335E9, 0.0, 2024-02-02 15:13:09.999
218.0, 62875.92653941233, 64490.594207119255, -30870.173081180226, -5910.114158405561, 17133.81911919345, 6205.805385804819, 24597.178351542756, 5832.285384212182, 40798.50504380525, 47099.59591622304, 37398.156511563844, 49338.659565288974, 23394.20746495813, 26970.732446996266, -8607.545031016472, -2172.1872296556508, -0.098, 0.972, 0.276, 192.0, 0.0, 0.0, 0.0, 0.0, 0.0, 0.0, 0.0, 0.0, 0.0, 1.7068831900074985E9, 0.0, 2024-02-02 15:13:10.007
220.0, 62883.21320810476, 64532.95076286206, -30873.34702889288, -5915.992667197307, 17131.494537770097, 6192.528449598366, 24599.569988199473, 5827.211538220828, 40910.08495212614, 47113.81162569662, 37421.33527056399, 49345.722716536846, 23400.935340039177, 26977.795598244145, -8600.236010579589, -2163.4029940847154, -0.096, 0.984, 0.278, 192.0, 126.5, 0.0, 15.0, 96.0, 4.0, 88.0, 0.0, 0.0, 0.0, 1.7068831900158548E9, 0.0, 2024-02-02 15:13:10.015
222.0, 62879.23459759171, 64562.92445217663, -30904.885340319317, -5927.928498736442, 17121.592714976396, 6172.8365627332405, 24596.35133699791, 5810.023046734696, 40980.023560526795, 47123.80285546814, 37411.94753789277, 49324.756780237774, 23393.380450413282, 26974.77811274268, -8612.12713862981, -2172.8354302448547, -0.096, 0.984, 0.278, 192.0, 0.0, 0.0, 0.0, 0.0, 0.0, 0.0, 0.0, 0.0, 0.0, 1.7068831900225043E9, 0.0, 2024-02-02 15:13:10.022
224.0, 62888.689385496305, 64602.26352241797, -30911.255587489082, -5924.687495790422, 17125.01253187806, 6174.334129611747, 24603.414488245784, 5807.854927522532, 41042.96607291295, 47109.29657331665, 37405.912566889834, 49307.23301258481, 23389.781819555978, 26965.52449053818, -8619.078531155412, -2179.0715669478855, -0.096, 0.984, 0.278, 192.0, 0.0, 0.0, 0.0, 0.0, 0.0, 0.0, 0.0, 0.0, 0.0, 1.7068831900315073E9, 0.0, 2024-02-02 15:13:10.031
226.0, 62904.51442057067, 64645.49179619453, -30905.488837419613, -5914.6739142744445, 17131.315723814456, 6180.950245970517, 24609.069479592978, 5807.743168800255, 41108.389628933626, 47132.09535266106, 37416.060258872545, 49315.167881866444, 23398.25313070454, 26980.947194212342, -8611.098958384868, -2164.0735464183745, -0.096, 0.984, 0.278, 192.0, 0.0, 0.0, 0.0, 0.0, 0.0, 0.0, 0.0, 0.0, 0.0, 1.7068831900397432E9, 0.0, 2024-02-02 15:13:10.039
228.0, 62903.15096415889, 64664.28961328145, -30919.615139915364, -5922.005286455785, 17124.297276055488, 6171.7189755104755, 24605.649662691318, 5791.091119181052, 41161.60913248171, 47137.03508818568, 37414.11565710493, 49315.8384342001, 23396.688508592666, 26982.82474074659, -8616.910411943247, -2165.638168530246, -0.096, 0.984, 0.278, 192.0, 0.0, 0.0, 0.0, 0.0, 0.0, 0.0, 0.0, 0.0, 0.0, 1.706883190047562E9, 0.0, 2024-02-02 15:13:10.047
230.0, 62906.01198744917, 64691.4693345391, -30929.472259220158, -5926.877966747042, 17119.782223675516, 6164.611120773688, 24599.838209132937, 5776.718947496289, 41186.86660371621, 47135.38105909599, 37411.61226172594, 49310.94340216439, 23393.91689228021, 26981.14835991244, -8620.75491198956, -2169.1920958986398, -0.096, 0.984, 0.27, 192.0, 126.5, 0.0, 15.0, 96.0, 4.0, 56.0, 0.0, 0.0, 0.0, 1.706883190054539E9, 0.0, 2024-02-02 15:13:10.054
232.0, 62917.701949799295, 64725.779262277996, -30935.350768011904, -5928.107312692084, 17120.408072520266, 6162.9123881950845, 24604.86735163538, 5770.706328237811, 41197.170757910106, 47138.86793123102, 37403.38681976638, 49308.14943410748, 23385.95967125412, 26972.43117957487, -8634.545938318484, -2181.060872204408, -0.096, 0.984, 0.27, 192.0, 0.0, 0.0, 0.0, 0.0, 0.0, 0.0, 0.0, 0.0, 0.0, 1.7068831900635715E9, 0.0, 2024-02-02 15:13:10.063
234.0, 62946.98273503575, 64772.15913202276, -30926.4994772076, -5921.692362033411, 17133.796767448996, 6173.417708089079, 24620.424165776276, 5777.300092852127, 41242.07541252082, 47151.60842557054, 37424.15159036536, 49321.22520461383, 23398.85662780483, 26986.780999515177, -8617.603316021361, -2165.1687818966843, -0.096, 0.984, 0.27, 192.0, 0.0, 0.0, 0.0, 0.0, 0.0, 0.0, 0.0, 0.0, 0.0, 1.7068831900715604E9, 0.0, 2024-02-02 15:13:10.071
236.0, 62952.101284516015, 64796.72369917914, -30927.88528536383, -5925.715676035366, 17131.561593003466, 6172.367176099679, 24619.664206464793, 5772.248598605228, 41311.2987650989, 47167.835792045094, 37436.467401560236, 49329.942384951406, 23408.15495349824, 27005.757630557735, -8609.333170572898, -2155.803400969911, -0.096, 0.984, 0.27, 192.0, 0.0, 0.0, 0.0, 0.0, 0.0, 0.0, 0.0, 0.0, 0.0, 1.7068831900788486E9, 0.0, 2024-02-02 15:13:10.078
238.0, 62976.97877609477, 64829.91603969527, -30931.21569528767, -5910.136510150017, 17129.90756391377, 6177.932760469051, 24619.35128204242, 5771.0416044046415, 41351.28603592945, 47158.470411118324, 37428.37607006742, 49318.587698768104, 23392.173456212695, 26986.423371603894, -8622.744217246081, -2164.9676161965867, -0.096, 0.984, 0.27, 192.0, 0.0, 0.0, 0.0, 0.0, 0.0, 0.0, 0.0, 0.0, 0.0, 1.7068831900876057E9, 0.0, 2024-02-02 15:13:10.087
240.0, 62995.575427481584, 64860.895557510325, -30929.82988713144, -5904.615629269556, 17138.669447740253, 6181.196115159526, 24644.45229106573, 5776.830706218566, 41405.01962960001, 47180.88921080699, 37450.169020911344, 49333.80923674217, 23402.25409296204, 27001.041412477665, -8603.65582748125, -2143.956976408598, -0.088, 0.99, 0.268, 192.0, 126.5, 32.0, 15.0, 120.0, 4.0, 48.0, 0.0, 0.0, 0.0, 1.7068831900955944E9, 0.0, 2024-02-02 15:13:10.095
242.0, 62986.74648842174, 64866.21527269069, -30943.553858227, -5917.937268964919, 17125.571325489444, 6171.4284028325565, 24625.118032111888, 5754.702479207812, 41439.21779861663, 47189.80755684466, 37441.51889580714, 49326.142588394, 23394.16276146922, 27002.650738078446, -8613.244725852577, -2150.7295549785563, -0.088, 0.99, 0.268, 192.0, 0.0, 0.0, 0.0, 0.0, 0.0, 0.0, 0.0, 0.0, 0.0, 1.7068831901036844E9, 0.0, 2024-02-02 15:13:10.103
244.0, 62984.71247967631, 64873.703107083216, -30940.69283493672, -5921.580603311134, 17131.114558114357, 6165.147562640615, 24628.24727633563, 5744.666545947379, 41474.86883102284, 47176.172992726926, 37438.41200332785, 49318.29712609019, 23392.799305057444, 26995.028793219186, -8618.117406143834, -2159.223217871573, -0.088, 0.99, 0.268, 192.0, 0.0, 0.0, 0.0, 0.0, 0.0, 0.0, 0.0, 0.0, 0.0, 1.7068831901109884E9, 0.0, 2024-02-02 15:13:10.110
246.0, 63000.38105253948, 64897.59712190594, -30942.682140193243, -5927.861443503076, 17124.409034777767, 6157.927949181551, 24615.752651185114, 5729.780284140144, 41512.531520430035, 47182.83381257461, 37435.148648637376, 49318.65475400147, 23393.35809866883, 26990.37963037248, -8619.838490466893, -2166.0181481859863, -0.088, 0.99, 0.268, 192.0, 0.0, 0.0, 0.0, 0.0, 0.0, 0.0, 0.0, 0.0, 0.0, 1.7068831901196718E9, 0.0, 2024-02-02 15:13:10.119
248.0, 63016.966046925314, 64914.65150292534, -30933.96495985567, -5914.897431718998, 17126.48774701211, 6161.191303872026, 24616.98199713016, 5728.975621339753, 41545.70150920171, 47192.57917315712, 37441.67535801832, 49323.90741394847, 23390.988813756565, 26979.136702911463, -8625.985220192102, -2169.348558109827, -0.088, 0.99, 0.268, 192.0, 0.0, 0.0, 0.0, 0.0, 0.0, 0.0, 0.0, 0.0, 0.0, 1.7068831901279044E9, 0.0, 2024-02-02 15:13:10.127
250.0, 63010.90872417793, 64912.10340405744, -30928.82405863095, -5911.83524272862, 17125.77249118954, 6160.498399793912, 24620.82649717647, 5727.99214458372, 41582.76070150861, 47201.452815705874, 37451.6889395343, 49334.92682396494, 23397.06848824841, 26987.876234993488, -8618.51973754403, -2162.352462095316, -0.09, 0.994, 0.264, 192.0, 126.5, 24.0, 15.5, 8.0, 4.0, 32.0, 0.0, 0.0, 0.0, 1.7068831901346805E9, 0.0, 2024-02-02 15:13:10.134
252.0, 62949.709647859294, 64879.000470519124, -30947.867744906875, -5934.3434493951145, 17108.58399970341, 6145.209806586481, 24594.33967999693, 5706.51211816217, 41599.703323805734, 47195.596658658586, 37431.6841282468, 49314.340867321596, 23388.507770122025, 26988.94911872734, -8632.601336550873, -2172.0084157000083, -0.09, 0.994, 0.264, 192.0, 0.0, 0.0, 0.0, 0.0, 0.0, 0.0, 0.0, 0.0, 0.0, 1.7068831901429296E9, 0.0, 2024-02-02 15:13:10.142
254.0, 63008.78530845467, 64932.8234711675, -30928.913465608774, -5912.997533440296, 17123.96199988866, 6158.799667215308, 24618.4125087753, 5719.833757857533, 41608.68872507676, 47177.96113228335, 37430.812410213046, 49315.99489641129, 23385.803209042933, 26966.664429505403, -8627.482787070607, -2165.6828720191565, -0.09, 0.994, 0.264, 192.0, 0.0, 0.0, 0.0, 0.0, 0.0, 0.0, 0.0, 0.0, 0.0, 1.7068831901516843E9, 0.0, 2024-02-02 15:13:10.151
0.0, 63025.48206156279, 64956.49396854568, -30917.715241636666, -5906.493175803802, 17126.19717433419, 6160.900731194107, 24619.21717157569, 5720.794882869111, 41632.58273989949, 47191.01455104525, 37447.4868115767, 49327.059009916666, 23390.094743978352, 26974.509891809215, -8613.736464230593, -2152.9423776796316, -0.09, 0.994, 0.264, 192.0, 0.0, 0.0, 0.0, 0.0, 0.0, 0.0, 0.0, 0.0, 0.0, 1.706883190158696E9, 0.0, 2024-02-02 15:13:10.158
2.0, 63012.96508466782, 64958.99736392467, -30890.602575612378, -5888.276504072726, 17146.134930388325, 6179.050347691817, 24633.857564193913, 5732.440141730326, 41652.900475609364, 47212.53928095571, 37476.07469273504, 49347.466152604364, 23411.597122144358, 26991.966604228808, -8586.13205982829, -2126.6120227112797, -0.09, 0.994, 0.264, 192.0, 0.0, 0.0, 0.0, 0.0, 0.0, 0.0, 0.0, 0.0, 0.0, 1.7068831901667044E9, 0.0, 2024-02-02 15:13:10.166
4.0, 62962.874825343475, 64916.01495933712, -30891.049610501483, -5889.7293674623215, 17136.210755850167, 6172.925969711062, 24623.77692744457, 5710.602487397491, 41609.60514659943, 47204.31383899615, 37465.211744929766, 49336.33498386562, 23413.20644774514, 26999.38738338797, -8576.967844601613, -2117.2019382955955, -0.09, 0.988, 0.266, 192.0, 126.5, 24.0, 15.0, 112.0, 4.0, 40.0, 0.0, 0.0, 0.0, 1.7068831901760347E9, 0.0, 2024-02-02 15:13:10.176
6.0, 62952.235394982745, 64883.02378452108, -30879.940793507198, -5886.398957538481, 17137.797729706494, 6170.288463865336, 24622.167601843787, 5693.637513355913, 41533.47510498466, 47197.22833600383, 37455.42168085834, 49335.12798966503, 23412.24532273356, 26988.90441523843, -8572.721013155106, -2107.4342259686264, -0.09, 0.988, 0.266, 192.0, 0.0, 0.0, 0.0, 0.0, 0.0, 0.0, 0.0, 0.0, 0.0, 1.7068831901827266E9, 0.0, 2024-02-02 15:13:10.182
8.0, 62963.12069453248, 64814.67214997675, -30861.545307820477, -5884.454355770869, 17142.58100301993, 6177.575132557766, 24623.93338965576, 5689.703606331779, 41389.216946270106, 47192.15449001247, 37459.26618090465, 49335.35150710959, 23412.06650877792, 26983.182368657872, -8569.88234160928, -2104.997885822998, -0.09, 0.988, 0.266, 192.0, 0.0, 0.0, 0.0, 0.0, 0.0, 0.0, 0.0, 0.0, 0.0, 1.706883190190762E9, 0.0, 2024-02-02 15:13:10.190
10.0, 62960.99727880923, 64633.46655767758, -30840.780537221497, -5887.225972083327, 17142.513947786563, 6181.017301203883, 24610.321177282476, 5679.466507371248, 41057.7405759979, 47187.125347510024, 37461.83663151701, 49344.82864675864, 23420.470764693113, 26985.842226248056, -8565.188475273666, -2095.5654496628586, -0.09, 0.988, 0.266, 192.0, 0.0, 0.0, 0.0, 0.0, 0.0, 0.0, 0.0, 0.0, 0.0, 1.7068831901987593E9, 0.0, 2024-02-02 15:13:10.198
12.0, 62900.31229261307, 64389.296101247804, -30833.024481895507, -5896.412539054459, 17147.766607733563, 6183.878324494162, 24623.39694778883, 5683.5792283510245, 40728.05234528212, 47158.22454192931, 37454.66172154686, 49344.15809442498, 23430.082014808897, 26989.507912338726, -8561.031050804979, -2090.0669205268528, -0.09, 0.988, 0.266, 192.0, 0.0, 0.0, 0.0, 0.0, 0.0, 0.0, 0.0, 0.0, 0.0, 1.7068831902080348E9, 0.0, 2024-02-02 15:13:10.208
14.0, 62893.2938448541, 64225.70368357941, -30819.412269522225, -5886.063681371651, 17152.10284615789, 6196.6635223225985, 24619.77596518707, 5690.575324365535, 40477.3551794714, 47143.98648071128, 37454.95229422478, 49353.992861985316, 23439.626209691312, 26981.036601190164, -8549.944585555148, -2076.231190709018, -0.10200000000000001, 0.982, 0.26, 192.0, 126.0, 104.0, 15.0, 88.0, 4.0, 16.0, 0.0, 0.0, 0.0, 1.7068831902147741E9, 0.0, 2024-02-02 15:13:10.214
16.0, 62865.980013129716, 64072.14719917145, -30827.123621359304, -5900.234687356316, 17140.703456485684, 6193.534278098855, 24601.91692136728, 5685.903809774377, 40274.53545028394, 47145.08171618959, 37450.90662847837, 49352.160018939976, 23438.97800910211, 26978.354391855526, -8559.399373459742, -2081.640312867202, -0.10200000000000001, 0.982, 0.26, 192.0, 0.0, 0.0, 0.0, 0.0, 0.0, 0.0, 0.0, 0.0, 0.0, 1.7068831902228036E9, 0.0, 2024-02-02 15:13:10.222
18.0, 62859.85563514896, 63948.20677616677, -30816.327728787393, -5893.6632744864555, 17150.851148468395, 6200.619781091187, 24611.908151138803, 5699.538373892114, 40026.14051415212, 47128.831997970585, 37455.66755004734, 49354.84222827462, 23443.73893067109, 26981.707153523825, -8555.107838524324, -2080.0309872664197, -0.10200000000000001, 0.982, 0.26, 192.0, 0.0, 0.0, 0.0, 0.0, 0.0, 0.0, 0.0, 0.0, 0.0, 1.7068831902318065E9, 0.0, 2024-02-02 15:13:10.231
20.0, 62839.80612037255, 63889.95813011625, -30831.549266761456, -5906.023789170241, 17135.897831427792, 6191.254400164414, 24586.29305199302, 5689.189516209307, 39755.416185309434, 47121.27710834469, 37450.54900056708, 49351.62357707305, 23447.82929990641, 26980.366048856504, -8556.895978080747, -2082.824955323333, -0.10200000000000001, 0.982, 0.26, 192.0, 0.0, 0.0, 0.0, 0.0, 0.0, 0.0, 0.0, 0.0, 0.0, 1.706883190239014E9, 0.0, 2024-02-02 15:13:10.239
22.0, 62840.65548666185, 63851.15550174183, -30840.020577910018, -5916.596164297601, 17131.80746219247, 6181.88901923764, 24569.395133184807, 5676.404318380871, 39492.358504814925, 47117.90199493194, 37438.434355072306, 49345.655661303485, 23438.575677701912, 26968.452569061825, -8574.017414333513, -2102.248621254995, -0.10200000000000001, 0.982, 0.26, 192.0, 0.0, 0.0, 0.0, 0.0, 0.0, 0.0, 0.0, 0.0, 0.0, 1.7068831902468588E9, 0.0, 2024-02-02 15:13:10.246
24.0, 62797.09193671846, 63843.53355688257, -30837.919513931218, -5917.870213731553, 17140.904622185783, 6185.331187883758, 24581.39801995731, 5682.573399850536, 39313.96923231712, 47102.50164300223, 37429.11367763444, 49340.22418740085, 23440.02854109151, 26963.46813004829, -8569.614120675817, -2103.0085805664758, -0.108, 0.984, 0.264, 192.0, 126.0, 80.0, 15.0, 96.0, 4.0, 32.0, 0.0, 0.0, 0.0, 1.7068831902548633E9, 0.0, 2024-02-02 15:13:10.254
26.0, 62793.80623028353, 63903.92797040081, -30831.929246417196, -5913.288106118215, 17143.76564547606, 6189.756833285908, 24579.900453078804, 5685.143850462896, 39293.807958818434, 47097.98659062226, 37424.106886876456, 49339.28541413372, 23441.861384136842, 26967.513795794704, -8561.969824072103, -2097.0183130524533, -0.108, 0.984, 0.264, 192.0, 0.0, 0.0, 0.0, 0.0, 0.0, 0.0, 0.0, 0.0, 0.0, 1.7068831902642007E9, 0.0, 2024-02-02 15:13:10.264
28.0, 62807.86547754592, 63975.31944219106, -30826.967159148116, -5907.275486859738, 17146.38079957733, 6192.774318787375, 24585.73425838164, 5693.190478466807, 39346.178096077216, 47100.55704123462, 37429.1360293789, 49345.99093747031, 23442.420177748227, 26972.230013874774, -8565.657861907228, -2099.7228741315453, -0.108, 0.984, 0.264, 192.0, 0.0, 0.0, 0.0, 0.0, 0.0, 0.0, 0.0, 0.0, 0.0, 1.7068831902708704E9, 0.0, 2024-02-02 15:13:10.270
30.0, 62823.93638180928, 64032.09287310754, -30827.324787059402, -5905.554402536679, 17140.569346018954, 6189.667426308087, 24578.447589689207, 5698.420786669349, 39407.93596600723, 47112.15759660693, 37434.165171881345, 49353.836399774125, 23447.270506295026, 26983.20472040233, -8564.942606084658, -2094.134938017719, -0.108, 0.984, 0.264, 192.0, 0.0, 0.0, 0.0, 0.0, 0.0, 0.0, 0.0, 0.0, 0.0, 1.7068831902791698E9, 0.0, 2024-02-02 15:13:10.279
32.0, 62809.11717523541, 64071.566053815615, -30836.064319141427, -5915.836204986121, 17137.708322728675, 6182.783089015853, 24571.742066352614, 5696.409129668371, 39460.395510243834, 47103.239250569255, 37421.67054673083, 49341.63234730153, 23437.368683501325, 26974.129912153472, -8578.912446369224, -2107.5012812019922, -0.108, 0.984, 0.264, 192.0, 0.0, 0.0, 0.0, 0.0, 0.0, 0.0, 0.0, 0.0, 0.0, 1.7068831902868917E9, 0.0, 2024-02-02 15:13:10.286
34.0, 62822.5282219086, 64155.11687458955, -30832.041005139472, -5910.114158405561, 17141.351657074887, 6189.756833285908, 24577.821740844458, 5703.651094871891, 39547.835534553, 47089.98466610726, 37416.194369339275, 49338.43604784442, 23439.268581780027, 26976.25332787673, -8583.203981304643, -2111.457539970582, -0.10400000000000001, 0.985, 0.268, 192.0, 126.0, 112.0, 15.0, 104.0, 4.0, 64.0, 0.0, 0.0, 0.0, 1.7068831902948916E9, 0.0, 2024-02-02 15:13:10.294
36.0, 62824.33871320948, 64241.46166342041, -30843.619208767323, -5926.3638766245695, 17130.041674380504, 6180.212638403492, 24579.788694356525, 5697.526716891136, 39685.723446097785, 47101.45111101283, 37407.90187214636, 49336.647908287996, 23430.909029353745, 26977.728543010777, -8594.357501787843, -2119.3924092522157, -0.10400000000000001, 0.985, 0.268, 192.0, 0.0, 0.0, 0.0, 0.0, 0.0, 0.0, 0.0, 0.0, 0.0, 1.70688319030294E9, 0.0, 2024-02-02 15:13:10.302
38.0, 62844.58939368599, 64352.59453685219, -30845.67556925721, -5926.341524880115, 17125.906601656272, 6179.855010492207, 24567.00349652809, 5698.979580280731, 39941.85208581115, 47092.64452369744, 37405.66669770083, 49331.86463497456, 23420.984854815586, 26971.53710979666, -8608.439100794685, -2140.0454211289193, -0.10400000000000001, 0.985, 0.268, 192.0, 0.0, 0.0, 0.0, 0.0, 0.0, 0.0, 0.0, 0.0, 0.0, 1.7068831903109655E9, 0.0, 2024-02-02 15:13:10.310
40.0, 62867.723449197234, 64467.84013126375, -30846.43552856869, -5920.641830044011, 17123.693778955196, 6182.805440760308, 24577.397057699807, 5712.010647298175, 40413.764466496046, 47106.65906747092, 37409.913529147336, 49339.86655948956, 23412.379433200294, 26975.471016820793, -8618.85501371086, -2153.3894125687375, -0.10400000000000001, 0.985, 0.268, 192.0, 0.0, 0.0, 0.0, 0.0, 0.0, 0.0, 0.0, 0.0, 0.0, 1.7068831903199415E9, 0.0, 2024-02-02 15:13:10.319
42.0, 62884.576664516535, 64560.82338819783, -30848.000150680564, -5920.530071321735, 17124.163165588758, 6188.862763507696, 24582.2026827577, 5726.271060260661, 40902.17243458897, 47119.77954146618, 37414.36152629394, 49342.504065335284, 23404.91395055222, 26982.444761090846, -8617.603316021361, -2159.357328338305, -0.10400000000000001, 0.985, 0.268, 192.0, 0.0, 0.0, 0.0, 0.0, 0.0, 0.0, 0.0, 0.0, 0.0, 1.7068831903269541E9, 0.0, 2024-02-02 15:13:10.326
44.0, 62897.33951060051, 64635.05353153391, -30853.67749377221, -5923.748722523299, 17117.658807952263, 6183.788917516341, 24570.71388610767, 5723.6112026704795, 41202.73634227948, 47124.294593846156, 37418.31778506253, 49338.01136469977, 23399.124848738295, 26980.634269789967, -8622.006609679058, -2160.631377772257, -0.101, 0.9855, 0.268, 192.0, 126.0, 120.0, 15.0, 104.0, 4.0, 48.0, 0.0, 0.0, 0.0, 1.7068831903349693E9, 0.0, 2024-02-02 15:13:10.334
46.0, 62917.23256316574, 64705.930913201686, -30861.366493864836, -5921.513548077768, 17126.91243015676, 6187.834583262752, 24586.494217693118, 5734.094170820019, 41347.66505332769, 47135.246948629254, 37415.54616875007, 49330.05414367368, 23389.558302111425, 26979.42727558938, -8630.969659205635, -2165.3922993412375, -0.101, 0.9855, 0.268, 192.0, 0.0, 0.0, 0.0, 0.0, 0.0, 0.0, 0.0, 0.0, 0.0, 1.7068831903431036E9, 0.0, 2024-02-02 15:13:10.343
48.0, 62939.517252387675, 64766.66060288675, -30860.852403742363, -5912.684609017922, 17141.82104370845, 6191.053234464316, 24613.67393895077, 5742.252557546206, 41447.55499929846, 47148.4791813468, 37437.00384342716, 49343.062858946665, 23401.82940981739, 26994.648813563446, -8607.589734505384, -2148.0026421550087, -0.101, 0.9855, 0.268, 192.0, 0.0, 0.0, 0.0, 0.0, 0.0, 0.0, 0.0, 0.0, 0.0, 1.7068831903512104E9, 0.0, 2024-02-02 15:13:10.351
50.0, 62947.25095596921, 64805.48558300562, -30879.78433129601, -5913.086940418118, 17133.595601748897, 6184.4594698500005, 24602.498066723118, 5731.791941141122, 41497.30998245597, 47160.19149544138, 37436.15447713786, 49337.63138504403, 23391.43584864567, 26994.91703449691, -8610.003722906557, -2149.90254043371, -0.101, 0.9855, 0.268, 192.0, 0.0, 0.0, 0.0, 0.0, 0.0, 0.0, 0.0, 0.0, 0.0, 1.7068831903590133E9, 0.0, 2024-02-02 15:13:10.359
52.0, 62960.23731949775, 64852.804226017506, -30885.841654043397, -5908.035446171218, 17140.658752996773, 6187.611065818199, 24619.485392509152, 5732.060162074586, 41542.88518940034, 47168.752213567765, 37437.584988783005, 49338.950137966895, 23387.613700343813, 27002.24840667825, -8605.242801337577, -2142.2358920855395, -0.101, 0.9855, 0.268, 192.0, 0.0, 0.0, 0.0, 0.0, 0.0, 0.0, 0.0, 0.0, 0.0, 1.7068831903670385E9, 0.0, 2024-02-02 15:13:10.367
54.0, 62967.27811900117, 64889.282272968565, -30894.894110547797, -5911.0976351615955, 17140.234069852122, 6185.331187883758, 24617.29492155253, 5725.019362571164, 41590.337942878956, 47168.52869612321, 37441.295378362585, 49336.73731526582, 23388.77599105549, 27006.472886380303, -8596.771490189016, -2136.8044181829, -0.1015, 0.98275, 0.269, 192.0, 126.0, 104.0, 15.0, 80.0, 4.0, 56.0, 0.0, 0.0, 0.0, 1.7068831903761723E9, 0.0, 2024-02-02 15:13:10.376
56.0, 62965.89231084494, 64905.017901065105, -30909.31098572147, -5927.83909175862, 17128.76762494655, 6173.037728433339, 24609.985901115644, 5710.89306007541, 41645.74791738366, 47172.23908570279, 37431.10298289097, 49327.46134131686, 23379.410610128714, 27008.529246870192, -8611.434234551696, -2149.7237264780674, -0.1015, 0.98275, 0.269, 192.0, 0.0, 0.0, 0.0, 0.0, 0.0, 0.0, 0.0, 0.0, 0.0, 1.706883190383024E9, 0.0, 2024-02-02 15:13:10.383
58.0, 62992.60264546903, 64945.13928236238, -30892.30130819098, -5903.095710646595, 17148.280697856033, 6193.824850776774, 24632.292942082044, 5733.982412097742, 41697.358095330965, 47172.21673395833, 37442.86000047446, 49334.01040244227, 23383.746848553044, 27006.24936893575, -8602.89586816977, -2146.1697991096735, -0.1015, 0.98275, 0.269, 192.0, 0.0, 0.0, 0.0, 0.0, 0.0, 0.0, 0.0, 0.0, 0.0, 1.7068831903910768E9, 0.0, 2024-02-02 15:13:10.391
60.0, 62992.04385185765, 64948.60380275295, -30906.293500220003, -5916.573812553145, 17133.86382268236, 6182.64897854912, 24616.71377619669, 5721.1525107803955, 41773.89046834594, 47193.18267025741, 37456.42750935883, 49351.601225328595, 23392.821656801898, 27015.63710160698, -8598.157298345244, -2135.351554793305, -0.1015, 0.98275, 0.269, 192.0, 0.0, 0.0, 0.0, 0.0, 0.0, 0.0, 0.0, 0.0, 0.0, 1.706883190399056E9, 0.0, 2024-02-02 15:13:10.399
62.0, 62996.33538679307, 64951.86715744343, -30904.30419496348, -5906.962562437363, 17136.814252950462, 6185.666464050587, 24619.2618750646, 5722.068932303064, 41799.59497446954, 47185.940705053894, 37446.257465631665, 49345.56625432566, 23376.8178077719, 27006.62934859149, -8612.775339219015, -2149.9695956670757, -0.1015, 0.98275, 0.269, 192.0, 0.0, 0.0, 0.0, 0.0, 0.0, 0.0, 0.0, 0.0, 0.0, 1.7068831904063373E9, 0.0, 2024-02-02 15:13:10.406
64.0, 62991.55211347963, 64948.84967194196, -30906.78523859802, -5915.053893930184, 17134.266154082557, 6179.519734325378, 24618.77013668658, 5719.319667735061, 41837.816457488116, 47179.70456835086, 37448.26912263264, 49342.32525137964, 23380.751714796035, 27002.516627611712, -8607.925010672214, -2146.28155783195, -0.10275000000000001, 0.983375, 0.2695, 192.0, 126.0, 96.0, 15.0, 96.0, 4.0, 56.0, 0.0, 0.0, 0.0, 1.7068831904150968E9, 0.0, 2024-02-02 15:13:10.415
66.0, 62999.017596127705, 64961.05372441456, -30908.863950832365, -5917.333771864626, 17136.00959015007, 6180.905542481607, 24617.183162830253, 5720.616068913469, 41857.262475164236, 47185.40426318697, 37446.61509354295, 49338.86073098907, 23378.9188717507, 27004.05889797913, -8610.249592095566, -2143.644051986224, -0.10275000000000001, 0.983375, 0.2695, 192.0, 0.0, 0.0, 0.0, 0.0, 0.0, 0.0, 0.0, 0.0, 0.0, 1.706883190423107E9, 0.0, 2024-02-02 15:13:10.423
68.0, 63005.790174697664, 64973.97303270973, -30912.507285178577, -5917.736103264821, 17137.708322728675, 6181.196115159526, 24625.92269491228, 5723.253574759195, 41876.95436202936, 47180.777452084716, 37450.68311103381, 49338.7936757557, 23376.34842113834, 27003.365993901014, -8608.193231605677, -2146.99681365452, -0.10275000000000001, 0.983375, 0.2695, 192.0, 0.0, 0.0, 0.0, 0.0, 0.0, 0.0, 0.0, 0.0, 0.0, 1.706883190430123E9, 0.0, 2024-02-02 15:13:10.430
70.0, 63009.67937823289, 64986.15473343787, -30918.050517803495, -5921.357085866581, 17137.82008145095, 6182.425461104568, 24623.128726855368, 5723.052409059097, 41888.19728949038, 47186.63360913201, 37442.07768941852, 49334.70330652038, 23369.441732101648, 26999.67795606589, -8614.317609586431, -2151.0648311453856, -0.10275000000000001, 0.983375, 0.2695, 192.0, 0.0, 0.0, 0.0, 0.0, 0.0, 0.0, 0.0, 0.0, 0.0, 1.7068831904381125E9, 0.0, 2024-02-02 15:13:10.438
72.0, 63021.05641616064, 65004.997254013695, -30917.98346257013, -5924.396923112503, 17141.23989835261, 6183.587751816243, 24627.64377923534, 5723.1418160369185, 41909.76672288975, 47192.55682141266, 37445.51985806464, 49335.3962105985, 23371.72161003609, 27007.746935814255, -8612.350656074364, -2147.4438485436262, -0.10275000000000001, 0.983375, 0.2695, 192.0, 0.0, 0.0, 0.0, 0.0, 0.0, 0.0, 0.0, 0.0, 0.0, 1.7068831904471729E9, 0.0, 2024-02-02 15:13:10.447
74.0, 63034.55686981164, 65024.48797517872, -30912.686099134222, -5926.587394069123, 17145.620840265852, 6182.134888426649, 24632.181183359764, 5725.689914904823, 41926.463475997865, 47187.46062367685, 37450.236076144705, 49335.731486765326, 23374.67204030419, 27005.265892179716, -8607.567382760928, -2146.326261320861, -0.10237500000000001, 0.9876875, 0.27075000000000005, 192.0, 126.0, 104.0, 15.5, 0.0, 4.0, 64.0, 0.0, 0.0, 0.0, 1.7068831904551494E9, 0.0, 2024-02-02 15:13:10.455
76.0, 63036.99320995727, 65035.954420084294, -30920.308043993482, -5939.149074453006, 17141.932802430725, 6178.022167446872, 24624.73805245615, 5720.392551468915, 41943.69667097291, 47191.8415655901, 37446.01159644265, 49329.71886750685, 23372.235700158562, 27003.276586923195, -8614.004685164056, -2148.874360188766, -0.10237500000000001, 0.9876875, 0.27075000000000005, 192.0, 0.0, 0.0, 0.0, 0.0, 0.0, 0.0, 0.0, 0.0, 0.0, 1.7068831904623516E9, 0.0, 2024-02-02 15:13:10.462
78.0, 63044.0787129496, 65051.466530736274, -30917.759945125574, -5937.785618041232, 17143.16214837577, 6178.066870935782, 24630.370692058885, 5721.666600902868, 41951.94446467692, 47185.35955969805, 37441.921227207335, 49321.64988775848, 23366.75952276701, 27013.804258561642, -8615.681065998206, -2155.71399399209, -0.10237500000000001, 0.9876875, 0.27075000000000005, 192.0, 0.0, 0.0, 0.0, 0.0, 0.0, 0.0, 0.0, 0.0, 0.0, 1.7068831904711719E9, 0.0, 2024-02-02 15:13:10.471
80.0, 63059.680230579404, 65077.72983047126, -30922.6996806502, -5936.779789540743, 17133.282677326522, 6166.019280674373, 24616.512610496597, 5710.133100763929, 41966.651912528505, 47192.71328362385, 37443.48584931921, 49331.395248340996, 23364.703162277125, 26990.44668560585, -8619.458510811151, -2154.484648047048, -0.10237500000000001, 0.9876875, 0.27075000000000005, 192.0, 0.0, 0.0, 0.0, 0.0, 0.0, 0.0, 0.0, 0.0, 0.0, 1.7068831904793835E9, 0.0, 2024-02-02 15:13:10.479
82.0, 63081.87551282353, 65107.79292676365, -30911.41204970027, -5925.156882423983, 17144.30208734299, 6181.5090395819, 24628.470793780183, 5721.688952647323, 41978.051302200714, 47208.0912838091, 37448.358529610465, 49338.726620522335, 23365.485473333058, 26996.81693277561, -8627.66160102625, -2161.257226617006, -0.10237500000000001, 0.9876875, 0.27075000000000005, 192.0, 0.0, 0.0, 0.0, 0.0, 0.0, 0.0, 0.0, 0.0, 0.0, 1.7068831904861946E9, 0.0, 2024-02-02 15:13:10.486
84.0, 63069.96203302885, 65109.0669761976, -30920.084526548926, -5934.611670328578, 17133.349732559887, 6171.271940621369, 24614.769174429082, 5708.546126907602, 41988.80249128371, 47211.309935010664, 37455.28757039161, 49347.555559582186, 23369.084104190362, 27006.294072424662, -8623.28065911301, -2155.5351800364474, -0.10018750000000001, 0.98684375, 0.26637500000000003, 192.0, 126.0, 120.0, 15.0, 104.0, 4.0, 24.0, 0.0, 0.0, 0.0, 1.7068831904943712E9, 0.0, 2024-02-02 15:13:10.494
86.0, 63066.45280914936, 65121.047511225646, -30919.369270726358, -5934.097580206106, 17134.53437501602, 6171.093126665727, 24612.355186027908, 5703.27111521615, 41979.861793501594, 47216.60729844657, 37444.89400921989, 49339.91126297847, 23362.89267097624, 26997.241615920262, -8631.32728711692, -2163.0453661734305, -0.10018750000000001, 0.98684375, 0.26637500000000003, 192.0, 0.0, 0.0, 0.0, 0.0, 0.0, 0.0, 0.0, 0.0, 0.0, 1.7068831905032315E9, 0.0, 2024-02-02 15:13:10.503
88.0, 63088.78220186022, 65144.00275278125, -30901.68904086221, -5912.0364084287185, 17149.420636823255, 6187.342844884735, 24633.365825815898, 5719.029095057142, 41976.3078661332, 47223.20106306089, 37454.52761108013, 49355.356318397084, 23364.278479132474, 27014.720680084312, -8621.380760834309, -2153.3000055909165, -0.10018750000000001, 0.98684375, 0.26637500000000003, 192.0, 0.0, 0.0, 0.0, 0.0, 0.0, 0.0, 0.0, 0.0, 0.0, 1.706883190511371E9, 0.0, 2024-02-02 15:13:10.511
90.0, 63079.260358722255, 65147.15434874944, -30897.59867162689, -5914.40569334098, 17148.794787978506, 6187.454603607011, 24630.415395547796, 5716.615106655969, 41969.40117709651, 47232.25351956529, 37465.63642807442, 49363.51470512327, 23369.419380357194, 27020.375671431506, -8611.680103740706, -2141.542988007425, -0.10018750000000001, 0.98684375, 0.26637500000000003, 192.0, 0.0, 0.0, 0.0, 0.0, 0.0, 0.0, 0.0, 0.0, 0.0, 1.706883190518227E9, 0.0, 2024-02-02 15:13:10.518
92.0, 63047.20795717335, 65130.189374707865, -30887.026296499527, -5905.867326959054, 17160.39534335081, 6197.624647334176, 24639.087872396456, 5724.840548615522, 41955.6548542565, 47224.58687121712, 37471.17966069933, 49367.13568772504, 23378.96357523961, 27021.046223765163, -8600.101900112855, -2130.6576884576903, -0.10018750000000001, 0.98684375, 0.26637500000000003, 192.0, 0.0, 0.0, 0.0, 0.0, 0.0, 0.0, 0.0, 0.0, 0.0, 1.7068831905265768E9, 0.0, 2024-02-02 15:13:10.526
94.0, 63045.30805889465, 65136.067883499614, -30887.406276155267, -5904.302704847182, 17154.02509618105, 6195.7247490554755, 24632.069424637488, 5720.884289846932, 41924.854150397085, 47227.98433637433, 37463.46830886225, 49362.62063534506, 23376.86251126081, 27033.58555240459, -8594.960998888135, -2126.321450033361, -0.10009375000000001, 0.988421875, 0.2621875, 192.0, 126.0, 112.0, 15.0, 120.0, 4.0, 8.0, 0.0, 0.0, 0.0, 1.7068831905352962E9, 0.0, 2024-02-02 15:13:10.535
96.0, 63046.51505309523, 65144.71800860381, -30888.479159889124, -5911.343504350603, 17149.152415889792, 6187.231086162458, 24630.68361648126, 5716.950382822798, 41896.51213842775, 47234.06401086617, 37461.9930937282, 49363.51470512327, 23368.994697212544, 27015.793563818166, -8600.973618146612, -2131.060019857886, -0.10009375000000001, 0.988421875, 0.2621875, 192.0, 0.0, 0.0, 0.0, 0.0, 0.0, 0.0, 0.0, 0.0, 0.0, 1.706883190542336E9, 0.0, 2024-02-02 15:13:10.542
98.0, 63031.76290175473, 65145.50031965975, -30881.14778770778, -5902.73808273531, 17155.5003113151, 6196.79763278933, 24636.517421784094, 5726.159301538384, 41861.442251377375, 47219.17774905894, 37466.17286994134, 49361.27953067774, 23369.62054605729, 27016.218246962817, -8597.531449500495, -2129.115418090274, -0.10009375000000001, 0.988421875, 0.2621875, 192.0, 0.0, 0.0, 0.0, 0.0, 0.0, 0.0, 0.0, 0.0, 0.0, 1.706883190550295E9, 0.0, 2024-02-02 15:13:10.550
100.0, 63008.2712183322, 65130.59170610806, -30884.768770309543, -5905.710864747866, 17147.610145522376, 6193.534278098855, 24625.050976878523, 5721.241917758217, 41813.45305603183, 47231.247691064804, 37468.631561831426, 49361.90537952249, 23375.543758337946, 27028.48935466878, -8590.825926163903, -2118.252470284995, -0.10009375000000001, 0.988421875, 0.2621875, 192.0, 0.0, 0.0, 0.0, 0.0, 0.0, 0.0, 0.0, 0.0, 0.0, 1.7068831905593183E9, 0.0, 2024-02-02 15:13:10.559
102.0, 62989.56280822311, 65127.395406650954, -30888.702677333677, -5917.624344542545, 17143.25155535359, 6183.140716927138, 24614.590360473438, 5707.160318751374, 41765.77678510866, 47212.82985363363, 37449.36435811095, 49337.7431437663, 23362.177415153674, 27012.73137482779, -8602.627647236306, -2130.925909391154, -0.10009375000000001, 0.988421875, 0.2621875, 192.0, 0.0, 0.0, 0.0, 0.0, 0.0, 0.0, 0.0, 0.0, 0.0, 1.7068831905673575E9, 0.0, 2024-02-02 15:13:10.567
104.0, 62995.68718620386, 65134.63737185447, -30888.836787800406, -5916.774978253243, 17147.520738544554, 6184.392414616635, 24628.82842169147, 5711.250687986695, 41752.76806983567, 47214.461530978864, 37457.74626228169, 49345.00746071428, 23366.848929744832, 27014.474810895303, -8595.340978543876, -2127.2378715560285, -0.10204687500000001, 0.9902109375, 0.25709375, 192.0, 126.0, 96.0, 15.5, 0.0, 3.5, 112.0, 0.0, 0.0, 0.0, 1.706883190574376E9, 0.0, 2024-02-02 15:13:10.574
106.0, 62968.90979634641, 65111.41390936541, -30895.676421603734, -5923.3687428675585, 17143.25155535359, 6175.898751723618, 24628.135517613355, 5706.378007695438, 41697.40279881988, 47210.30410651018, 37439.86486671744, 49328.735390750815, 23353.05790341591, 27002.650738078446, -8601.979446647101, -2135.955051893598, -0.10204687500000001, 0.9902109375, 0.25709375, 192.0, 0.0, 0.0, 0.0, 0.0, 0.0, 0.0, 0.0, 0.0, 0.0, 1.7068831905823944E9, 0.0, 2024-02-02 15:13:10.582
108.0, 62968.64157541294, 65116.80067977914, -30885.148749965283, -5912.639905529011, 17151.409942079776, 6188.549839085322, 24631.197706603733, 5713.217641498762, 41663.584609459, 47193.87557433553, 37446.14570690939, 49322.163977880955, 23356.991810440042, 27003.7236218123, -8597.576152989406, -2132.0434966139196, -0.10204687500000001, 0.9902109375, 0.25709375, 192.0, 0.0, 0.0, 0.0, 0.0, 0.0, 0.0, 0.0, 0.0, 0.0, 1.7068831905915785E9, 0.0, 2024-02-02 15:13:10.591
110.0, 62940.18780472134, 65099.45572608182, -30897.4422094157, -5928.5990510701, 17139.228241351633, 6174.445888334023, 24615.797354674025, 5697.616123868957, 41642.551617926554, 47192.15449001247, 37439.57429403953, 49321.33696333611, 23356.075388917376, 27003.433049134383, -8603.767586203527, -2134.122208848263, -0.10204687500000001, 0.9902109375, 0.25709375, 192.0, 0.0, 0.0, 0.0, 0.0, 0.0, 0.0, 0.0, 0.0, 0.0, 1.706883190598374E9, 0.0, 2024-02-02 15:13:10.598
112.0, 62969.06625855759, 65124.13205196048, -30890.759037823565, -5923.972239967852, 17146.112578643868, 6184.101841938716, 24616.35614828541, 5702.868783815955, 41627.441838674764, 47195.82017610314, 37437.7861544831, 49319.437065057406, 23356.075388917376, 27013.53603762818, -8604.75106295956, -2136.9385286496317, -0.10204687500000001, 0.9902109375, 0.25709375, 192.0, 0.0, 0.0, 0.0, 0.0, 0.0, 0.0, 0.0, 0.0, 0.0, 1.7068831906063735E9, 0.0, 2024-02-02 15:13:10.606
114.0, 62953.62120313897, 65122.098043215046, -30892.68128784672, -5922.36291436707, 17144.883232698827, 6184.191248916537, 24617.33962504144, 5705.953324550787, 41603.79369304105, 47200.64815290549, 37440.42366032883, 49326.008477927266, 23355.851871472823, 27009.043336992665, -8603.2311443366, -2133.4293047701485, -0.10302343750000001, 0.99110546875, 0.255546875, 192.0, 126.0, 96.0, 15.5, 0.0, 3.5, 120.0, 0.0, 0.0, 0.0, 1.706883190614398E9, 0.0, 2024-02-02 15:13:10.614
116.0, 62916.74082478772, 65095.49946731323, -30903.655994374276, -5936.2209959293605, 17133.30502907098, 6173.149487155615, 24598.899435865813, 5690.463565643259, 41569.97550368017, 47189.941667311396, 37427.34788982247, 49311.63630624251, 23353.303772604915, 27000.884950266478, -8611.076606640412, -2136.513845504981, -0.10302343750000001, 0.99110546875, 0.255546875, 192.0, 0.0, 0.0, 0.0, 0.0, 0.0, 0.0, 0.0, 0.0, 0.0, 1.7068831906223948E9, 0.0, 2024-02-02 15:13:10.622
118.0, 62950.38020019296, 65119.75111004724, -30897.77748558253, -5923.972239967852, 17138.803558206982, 6183.788917516341, 24601.24636903362, 5693.615161611458, 41540.18062832125, 47174.340149681586, 37419.614186240935, 49297.13002409101, 23342.552583521916, 26995.833456019576, -8621.716037001139, -2147.287386332439, -0.10302343750000001, 0.99110546875, 0.255546875, 192.0, 0.0, 0.0, 0.0, 0.0, 0.0, 0.0, 0.0, 0.0, 0.0, 1.7068831906305647E9, 0.0, 2024-02-02 15:13:10.630
120.0, 62929.68248482734, 65109.871638997996, -30893.01656401355, -5923.972239967852, 17145.419674565754, 6184.2806558943585, 24615.037395362546, 5701.08064425953, 41533.430401495745, 47199.91054533846, 37441.60830278496, 49321.269908102746, 23359.472854074582, 27018.140496985972, -8600.615990235328, -2128.5566244788915, -0.10302343750000001, 0.99110546875, 0.255546875, 192.0, 0.0, 0.0, 0.0, 0.0, 0.0, 0.0, 0.0, 0.0, 0.0, 1.706883190638432E9, 0.0, 2024-02-02 15:13:10.638
122.0, 62930.93418251684, 65114.65491231143, -30894.603537869876, -5926.252117902293, 17141.23989835261, 6177.46337383549, 24607.01311910309, 5691.111766232463, 41472.901877510776, 47181.559763140656, 37428.018442156135, 49303.96965789433, 23352.6108685268, 27005.288243924173, -8606.628609493806, -2136.2679763159726, -0.10302343750000001, 0.99110546875, 0.255546875, 192.0, 0.0, 0.0, 0.0, 0.0, 0.0, 0.0, 0.0, 0.0, 0.0, 1.7068831906476731E9, 0.0, 2024-02-02 15:13:10.647
124.0, 62907.218981649756, 65110.832764009574, -30889.01560175605, -5923.927536478942, 17145.419674565754, 6177.239856390936, 24610.29882553802, 5692.229353455228, 41433.69691773617, 47180.419824173434, 37436.78032598261, 49308.90939341896, 23359.62931628577, 27003.611863090024, -8598.872554167814, -2129.964784379576, -0.10151171875000001, 0.991552734375, 0.25477343750000003, 192.0, 126.0, 112.0, 15.5, 0.0, 3.5, 120.0, 0.0, 0.0, 0.0, 1.7068831906544287E9, 0.0, 2024-02-02 15:13:10.654
126.0, 62906.347263616, 65106.988263963256, -30890.40140991228, -5929.895452248508, 17141.508119286074, 6167.047460919316, 24601.671052178273, 5681.254646927673, 41383.78547236747, 47185.56072539815, 37424.68803223229, 49304.394341038984, 23351.38152258176, 26996.10167695304, -8606.539202515985, -2135.9997553825087, -0.10151171875000001, 0.991552734375, 0.25477343750000003, 192.0, 0.0, 0.0, 0.0, 0.0, 0.0, 0.0, 0.0, 0.0, 0.0, 1.7068831906626384E9, 0.0, 2024-02-02 15:13:10.662
128.0, 62913.07513869705, 65119.1699646914, -30886.35574416587, -5924.620440557056, 17143.72094198715, 6170.333167354246, 24599.413525988286, 5680.584094594014, 41359.42207091118, 47166.74055656679, 37431.61707301343, 49302.65090497147, 23355.29307786144, 26989.664374549913, -8601.063025124435, -2135.195092582118, -0.10151171875000001, 0.991552734375, 0.25477343750000003, 192.0, 0.0, 0.0, 0.0, 0.0, 0.0, 0.0, 0.0, 0.0, 0.0, 1.70688319067045E9, 0.0, 2024-02-02 15:13:10.670
130.0, 62919.534792844635, 65119.996979236246, -30891.988383768607, -5929.873100504053, 17138.065950639957, 6166.600426030211, 24601.96162485619, 5674.638530568902, 41278.17347981614, 47188.06412077715, 37436.02036667113, 49313.647963243486, 23353.996676683033, 27002.404868889436, -8596.905600655748, -2129.2048250680955, -0.10151171875000001, 0.991552734375, 0.25477343750000003, 192.0, 0.0, 0.0, 0.0, 0.0, 0.0, 0.0, 0.0, 0.0, 0.0, 1.7068831906785598E9, 0.0, 2024-02-02 15:13:10.678
132.0, 62864.90712939586, 65089.59860677703, -30902.024317029038, -5938.232652930338, 17126.934781901215, 6160.073716649261, 24594.742011397127, 5663.2167891522395, 41121.28658548434, 47170.27213219072, 37418.54130250708, 49297.30883804665, 23340.831499198855, 26989.552615827637, -8607.41092054974, -2138.212578083584, -0.10151171875000001, 0.991552734375, 0.25477343750000003, 192.0, 0.0, 0.0, 0.0, 0.0, 0.0, 0.0, 0.0, 0.0, 0.0, 1.706883190686487E9, 0.0, 2024-02-02 15:13:10.686
134.0, 62907.93423747233, 65115.25840941172, -30881.17013945224, -5921.759417266777, 17143.58683152042, 6176.993987201928, 24610.701156938216, 5673.208018923762, 40958.52118236079, 47161.46554487533, 37421.9834711532, 49297.59941072457, 23345.123034134274, 26997.487485109268, -8593.619894220818, -2126.120284333263, -0.10151171875000001, 0.991552734375, 0.25477343750000003, 192.0, 0.0, 0.0, 0.0, 0.0, 0.0, 0.0, 0.0, 0.0, 0.0, 1.7068831906946025E9, 0.0, 2024-02-02 15:13:10.694
136.0, 62889.806972719074, 65104.037833695154, -30877.05741847246, -5921.580603311134, 17142.849223953395, 6177.0610424352935, 24605.336738268943, 5665.2060944087625, 40791.95598267984, 47190.1875365004, 37431.0359276576, 49307.344771307085, 23354.421359827684, 27011.39027016047, -8584.32156852741, -2116.710199917579, -0.094, 0.986, 0.264, 192.0, 126.5, 8.0, 15.0, 104.0, 4.0, 32.0, 0.0, 0.0, 0.0, 1.7068831907034955E9, 0.0, 2024-02-02 15:13:10.703
138.0, 62908.6494932949, 65115.54898208964, -30857.47729032961, -5909.935344449919, 17151.63345952433, 6186.448775106523, 24612.26577905009, 5667.642434554391, 40521.410467792804, 47183.973751541824, 37435.17100038183, 49311.03280914221, 23359.584612796858, 27016.464116151827, -8570.105859053834, -2103.5226706889475, -0.094, 0.986, 0.264, 192.0, 0.0, 0.0, 0.0, 0.0, 0.0, 0.0, 0.0, 0.0, 0.0, 1.706883190710551E9, 0.0, 2024-02-02 15:13:10.710
140.0, 62876.664146979354, 65101.333272616066, -30859.086615930395, -5919.2560218877825, 17140.949325674694, 6176.725766268464, 24596.06076431999, 5651.1244954019185, 40316.243805437545, 47188.4888039218, 37439.35077659497, 49314.07264638814, 23363.786740754455, 27018.073441752607, -8571.201094532144, -2101.578068921336, -0.094, 0.986, 0.264, 192.0, 0.0, 0.0, 0.0, 0.0, 0.0, 0.0, 0.0, 0.0, 0.0, 1.7068831907185488E9, 0.0, 2024-02-02 15:13:10.718
142.0, 62846.69045766479, 65079.652080494416, -30849.654179770256, -5918.384303854025, 17144.436197809722, 6181.397280859624, 24596.64190967583, 5649.381059334405, 40145.40942256563, 47179.99514102878, 37419.8824071744, 49305.4895765173, 23355.874223217277, 27010.853828293544, -8579.113612069323, -2108.3282957468386, -0.094, 0.986, 0.264, 192.0, 0.0, 0.0, 0.0, 0.0, 0.0, 0.0, 0.0, 0.0, 0.0, 1.7068831907268715E9, 0.0, 2024-02-02 15:13:10.726
144.0, 62879.16754235835, 65088.70453699882, -30832.353929561847, -5912.349332851092, 17151.879328713338, 6187.0969756957265, 24598.184180043245, 5651.549178546569, 40002.60412724067, 47169.04278624568, 37430.85711370195, 49317.87244294554, 23367.7653512675, 27013.223113205804, -8570.999928832047, -2098.8958595866993, -0.094, 0.986, 0.264, 192.0, 0.0, 0.0, 0.0, 0.0, 0.0, 0.0, 0.0, 0.0, 0.0, 1.7068831907345393E9, 0.0, 2024-02-02 15:13:10.734
146.0, 62835.693399392774, 65034.278039250145, -30831.906894672742, -5914.428045085436, 17148.772436234052, 6191.366158886691, 24594.227921274654, 5651.4150680798375, 39762.74755749077, 47187.93001031042, 37435.12629689292, 49333.071629175145, 23374.82850251538, 27023.124935999505, -8562.796838616949, -2087.2282489810286, -0.098, 0.986, 0.264, 192.0, 126.0, 120.0, 15.0, 104.0, 4.0, 32.0, 0.0, 0.0, 0.0, 1.7068831907426052E9, 0.0, 2024-02-02 15:13:10.742
148.0, 62796.64490182936, 65004.572570869044, -30830.275217327504, -5919.300725376693, 17148.995953678605, 6193.087243209749, 24589.95873808369, 5651.549178546569, 39527.67426105431, 47172.52965838071, 37412.752200693154, 49319.3923615685, 23367.966516967597, 27019.7274708423, -8568.69769915315, -2092.8161850948554, -0.098, 0.986, 0.264, 192.0, 0.0, 0.0, 0.0, 0.0, 0.0, 0.0, 0.0, 0.0, 0.0, 1.706883190750877E9, 0.0, 2024-02-02 15:13:10.750
150.0, 62816.60500962794, 64994.82721028653, -30823.56969399091, -5919.636001543522, 17149.10771240088, 6194.584810088255, 24595.77019164207, 5658.701736772267, 39347.83212516691, 47172.90963803645, 37414.78620943859, 49328.28835586171, 23369.888766990756, 27019.258084208737, -8570.239969520566, -2093.777310106434, -0.098, 0.986, 0.264, 192.0, 0.0, 0.0, 0.0, 0.0, 0.0, 0.0, 0.0, 0.0, 0.0, 1.7068831907586389E9, 0.0, 2024-02-02 15:13:10.758
152.0, 62829.4796144342, 64891.04806078054, -30802.38024024728, -5908.907164204975, 17164.68687828623, 6210.365141673701, 24618.054880864012, 5685.4567748852705, 39080.818185903816, 47179.83867881759, 37431.66177650235, 49345.230978158834, 23382.942185752654, 27031.328026214604, -8553.409105945719, -2079.9862837775095, -0.098, 0.986, 0.264, 192.0, 0.0, 0.0, 0.0, 0.0, 0.0, 0.0, 0.0, 0.0, 0.0, 1.706883190765714E9, 0.0, 2024-02-02 15:13:10.765
154.0, 62786.47485810219, 64688.04951763744, -30807.230568794083, -5922.184100411428, 17157.82489273845, 6206.65475209412, 24602.363956256388, 5684.6968155737895, 38773.45934789888, 47153.776544782704, 37429.67247124582, 49341.02885020123, 23384.193883442153, 27021.58266563209, -8557.901806581236, -2082.7579000899673, -0.098, 0.986, 0.264, 192.0, 0.0, 0.0, 0.0, 0.0, 0.0, 0.0, 0.0, 0.0, 0.0, 1.7068831907746775E9, 0.0, 2024-02-02 15:13:10.774
156.0, 62747.73928496114, 64497.88087581169, -30817.355909032336, -5929.180196425938, 17155.45560782619, 6208.621705606188, 24590.405772972797, 5687.066100486052, 38573.72415944626, 47135.47046607381, 37412.99806988217, 49334.92682396494, 23389.49124687806, 27016.330005685093, -8563.512094439518, -2086.9153245586544, -0.096, 0.986, 0.268, 192.0, 126.5, 0.0, 15.0, 104.0, 4.0, 48.0, 0.0, 0.0, 0.0, 1.7068831907829463E9, 0.0, 2024-02-02 15:13:10.782
158.0, 62744.677095970765, 64329.57224006322, -30819.367566033314, -5934.209338928383, 17157.556671804985, 6209.918106784596, 24583.029697302547, 5685.099146973986, 38482.39493160188, 47126.93209969188, 37407.70070644626, 49344.605129314084, 23388.01603174401, 27015.324177184604, -8563.333280483876, -2091.2068594940733, -0.096, 0.986, 0.268, 192.0, 0.0, 0.0, 0.0, 0.0, 0.0, 0.0, 0.0, 0.0, 0.0, 1.706883190789722E9, 0.0, 2024-02-02 15:13:10.789
160.0, 62758.78104672206, 64180.08377314613, -30810.180999062184, -5929.023734214751, 17164.01632595257, 6216.8024440768295, 24583.946118825213, 5692.519926133147, 38433.310500778025, 47129.256681115236, 37408.05833435754, 49358.9996527433, 23394.274520191495, 27024.30957845564, -8553.856140834825, -2082.064996011853, -0.096, 0.986, 0.268, 192.0, 0.0, 0.0, 0.0, 0.0, 0.0, 0.0, 0.0, 0.0, 0.0, 1.7068831907977135E9, 0.0, 2024-02-02 15:13:10.797
162.0, 62713.18348803324, 64004.443765216325, -30818.406441021736, -5938.255004674793, 17162.786980007528, 6213.114406241704, 24580.72746762365, 5690.016530754153, 38382.63909609784, 47117.99140190976, 37399.698781931256, 49359.15611495449, 23402.58936912887, 27020.7780028317, -8549.631661132773, -2080.254504710973, -0.096, 0.986, 0.268, 192.0, 0.0, 0.0, 0.0, 0.0, 0.0, 0.0, 0.0, 0.0, 0.0, 1.7068831908067555E9, 0.0, 2024-02-02 15:13:10.806
164.0, 62759.54100603354, 63941.76947376365, -30811.23153105158, -5930.521301093257, 17167.123218431858, 6220.512833656411, 24588.796447372013, 5702.779376838133, 38358.67802604175, 47102.814567424604, 37390.758084149136, 49355.62453933055, 23403.706956351634, 27022.05205226565, -8542.859082562814, -2078.0863854988083, -0.096, 0.986, 0.268, 192.0, 0.0, 0.0, 0.0, 0.0, 0.0, 0.0, 0.0, 0.0, 0.0, 1.706883190814724E9, 0.0, 2024-02-02 15:13:10.814
166.0, 62731.89189814233, 63852.13897849787, -30828.5764847489, -5947.262757690282, 17149.979430434636, 6205.827737549274, 24563.270755204056, 5693.950437778287, 38356.50990682959, 47118.52784377669, 37396.43542724078, 49359.58079809914, 23407.260883720028, 27024.622502878014, -8548.558777398917, -2087.0717867698418, -0.1, 0.984, 0.266, 192.0, 126.0, 112.0, 15.0, 96.0, 4.0, 40.0, 0.0, 0.0, 0.0, 1.7068831908217545E9, 0.0, 2024-02-02 15:13:10.821
168.0, 62707.774365875055, 63807.949579709726, -30829.269388827015, -5950.07907749165, 17150.940555446214, 6207.593525361243, 24559.38155166883, 5698.13021399143, 38350.96667420467, 47087.66008468391, 37382.420883467305, 49340.827684501135, 23400.756526083533, 27008.68570908138, -8561.433382205174, -2102.695656144101, -0.1, 0.984, 0.266, 192.0, 0.0, 0.0, 0.0, 0.0, 0.0, 0.0, 0.0, 0.0, 0.0, 1.7068831908307495E9, 0.0, 2024-02-02 15:13:10.830
170.0, 62709.450746709204, 63839.57729811398, -30828.598836493355, -5945.139341967028, 17155.120331659356, 6213.94142078655, 24576.19006349922, 5709.887231574921, 38432.12585832189, 47080.35106424702, 37378.30816248753, 49338.525454822244, 23404.668081363212, 27009.579778859592, -8559.958167071125, -2099.387597964716, -0.1, 0.984, 0.266, 192.0, 0.0, 0.0, 0.0, 0.0, 0.0, 0.0, 0.0, 0.0, 0.0, 1.7068831908388035E9, 0.0, 2024-02-02 15:13:10.838
172.0, 62728.76265391859, 63907.70541521376, -30830.744603961066, -5946.122818723062, 17154.82975898144, 6216.08718825426, 24576.033601288036, 5714.2234699992505, 38517.91185354136, 47085.626075938475, 37374.50836593012, 49339.218358900354, 23403.63990111827, 27014.81008706213, -8557.253605992033, -2095.2972287293946, -0.1, 0.984, 0.266, 192.0, 0.0, 0.0, 0.0, 0.0, 0.0, 0.0, 0.0, 0.0, 0.0, 1.7068831908470075E9, 0.0, 2024-02-02 15:13:10.847
174.0, 62733.8588516544, 63970.402058410895, -30837.71834823112, -5958.908016551497, 17148.370104833855, 6199.770414801886, 24565.32711569394, 5707.27207747365, 38616.192473911346, 47093.20331730883, 37384.4772439572, 49344.44866710289, 23411.39595644426, 27016.218246962817, -8563.668556650706, -2106.1378247902185, -0.1, 0.984, 0.266, 192.0, 0.0, 0.0, 0.0, 0.0, 0.0, 0.0, 0.0, 0.0, 0.0, 1.7068831908537824E9, 0.0, 2024-02-02 15:13:10.853
176.0, 62722.235944537635, 64004.46611696078, -30837.785403464488, -5960.919673552475, 17147.923069944747, 6195.9035630111175, 24569.216319229166, 5710.222507741751, 38666.70741638034, 47083.882639870964, 37364.047749525045, 49326.12023664954, 23402.187037728672, 27000.05793572163, -8576.36434750132, -2121.5605284643802, -0.098, 0.98, 0.268, 192.0, 126.0, 120.0, 15.0, 80.0, 4.0, 48.0, 0.0, 0.0, 0.0, 1.706883190862908E9, 0.0, 2024-02-02 15:13:10.862
178.0, 62744.6100407374, 64082.98779523228, -30832.465688284123, -5956.315214194681, 17151.52170080205, 6204.8219090487855, 24565.48357790513, 5715.430464199837, 38766.485603628826, 47085.42491023838, 37372.65317114034, 49332.021097185745, 23407.752622098044, 27007.456363136338, -8571.692832910161, -2117.2689935289613, -0.098, 0.98, 0.268, 192.0, 0.0, 0.0, 0.0, 0.0, 0.0, 0.0, 0.0, 0.0, 0.0, 1.7068831908698192E9, 0.0, 2024-02-02 15:13:10.869
180.0, 62732.115415586886, 64140.02944708222, -30845.407348323748, -5967.044051533228, 17143.698590242697, 6201.580906102766, 24571.76441809707, 5720.928993335842, 38906.586337874694, 47084.62024743799, 37362.371368690896, 49324.57796628213, 23404.958654041133, 27004.237711934773, -8583.405147004742, -2127.930775634143, -0.098, 0.98, 0.268, 192.0, 0.0, 0.0, 0.0, 0.0, 0.0, 0.0, 0.0, 0.0, 0.0, 1.7068831908779924E9, 0.0, 2024-02-02 15:13:10.877
182.0, 62772.75088700663, 64270.49657946785, -30836.779574964, -5953.945929282419, 17155.366200848366, 6222.926822057584, 24596.731316653648, 5752.556711740102, 39107.573224016814, 47092.756282419716, 37360.87380181239, 49327.23782387231, 23404.44456391866, 27014.07247949511, -8586.13205982829, -2125.51678723297, -0.098, 0.98, 0.268, 192.0, 0.0, 0.0, 0.0, 0.0, 0.0, 0.0, 0.0, 0.0, 0.0, 1.7068831908858025E9, 0.0, 2024-02-02 15:13:10.885
184.0, 62800.690567575766, 64370.900615561084, -30841.24992385506, -5954.683536849444, 17150.381761834833, 6218.7917493333525, 24590.897511350813, 5758.859903676499, 39399.50935834758, 47100.84761391254, 37380.38687472187, 49341.4982368348, 23404.19869472965, 27022.29792145466, -8588.881324396292, -2130.3671157797717, -0.098, 0.98, 0.268, 192.0, 0.0, 0.0, 0.0, 0.0, 0.0, 0.0, 0.0, 0.0, 0.0, 1.7068831908950872E9, 0.0, 2024-02-02 15:13:10.895
186.0, 62802.03167224309, 64440.63805826165, -30839.305322087446, -5950.995499014319, 17151.901680457795, 6217.607106877221, 24589.355240983397, 5769.007595659208, 39639.83531473104, 47117.56671876511, 37375.49184268616, 49338.41369609996, 23401.136505739272, 27021.560313887636, -8601.264190824531, -2146.7285927210564, -0.10200000000000001, 0.986, 0.27, 192.0, 126.0, 104.0, 15.0, 104.0, 4.0, 56.0, 0.0, 0.0, 0.0, 1.7068831909018843E9, 0.0, 2024-02-02 15:13:10.901
188.0, 62818.59431488447, 64511.984826562984, -30828.174153348704, -5942.345373910114, 17162.608166051887, 6222.815063335307, 24600.77698240006, 5783.089194666051, 39931.100896728145, 47108.31309656061, 37383.98550557918, 49338.86073098907, 23405.986834286075, 27021.20268597635, -8592.502306998053, -2145.990985154031, -0.10200000000000001, 0.986, 0.27, 192.0, 0.0, 0.0, 0.0, 0.0, 0.0, 0.0, 0.0, 0.0, 0.0, 1.7068831909098687E9, 0.0, 2024-02-02 15:13:10.909
190.0, 62829.03257954509, 64570.92637669163, -30845.116775645827, -5957.186932228438, 17142.268078597557, 6202.452624136523, 24582.940290324725, 5768.918188681387, 40321.49646538454, 47117.723180976296, 37383.471415456705, 49342.68287929093, 23405.651558119247, 27022.20851447684, -8596.860897166836, -2151.3554038233046, -0.10200000000000001, 0.986, 0.27, 192.0, 0.0, 0.0, 0.0, 0.0, 0.0, 0.0, 0.0, 0.0, 0.0, 1.7068831909188604E9, 0.0, 2024-02-02 15:13:10.918
192.0, 62838.5320709386, 64647.23523226205, -30837.494830786567, -5950.392001914025, 17150.91820370176, 6207.057083494316, 24588.707040394194, 5779.915246953398, 40702.63841183644, 47121.45592230033, 37381.07977879998, 49340.22418740085, 23397.940206282165, 27016.598226618557, -8605.08633912639, -2160.1619911386956, -0.10200000000000001, 0.986, 0.27, 192.0, 0.0, 0.0, 0.0, 0.0, 0.0, 0.0, 0.0, 0.0, 0.0, 1.7068831909258611E9, 0.0, 2024-02-02 15:13:10.925
194.0, 62851.02669608912, 64723.275866899, -30833.71738597362, -5949.7214495803655, 17155.567366548465, 6205.358350915712, 24603.19097080123, 5790.2417528917495, 40957.2694846713, 47119.600727510544, 37396.547185963056, 49349.14253343851, 23405.62920637479, 27015.592398118068, -8599.788975690482, -2151.601273012313, -0.10200000000000001, 0.986, 0.27, 192.0, 0.0, 0.0, 0.0, 0.0, 0.0, 0.0, 0.0, 0.0, 0.0, 1.7068831909341404E9, 0.0, 2024-02-02 15:13:10.934
196.0, 62861.777885172116, 64773.67905064572, -30843.97683667861, -5956.695193850422, 17147.00664842208, 6198.317551412291, 24602.028680089556, 5789.034758691163, 41090.32941941374, 47132.20711138334, 37398.76000866413, 49349.12018169406, 23402.991700529063, 27012.53020912769, -8603.499365270063, -2151.6236247567685, -0.098, 0.984, 0.258, 192.0, 126.0, 120.0, 15.0, 96.0, 4.0, 8.0, 0.0, 0.0, 0.0, 1.7068831909428935E9, 0.0, 2024-02-02 15:13:10.942
198.0, 62883.593187760496, 64824.70808323719, -30838.05362439795, -5950.1908362139275, 17150.784093235026, 6201.960885758506, 24607.30369178101, 5795.315598883105, 41172.561487264815, 47122.48410254528, 37396.547185963056, 49336.6926117769, 23395.325052180895, 27008.05986023663, -8613.89292644178, -2156.1386771367406, -0.098, 0.984, 0.258, 192.0, 0.0, 0.0, 0.0, 0.0, 0.0, 0.0, 0.0, 0.0, 0.0, 1.7068831909509602E9, 0.0, 2024-02-02 15:13:10.950
200.0, 62900.82638273554, 64870.70797332621, -30830.521086516514, -5935.08105696214, 17161.177654406747, 6207.504118383422, 24624.693348967237, 5806.089139710562, 41259.241552262494, 47142.243044643765, 37414.87561641641, 49347.399097370995, 23407.05971801993, 27022.409680176937, -8601.219487335622, -2141.610043240791, -0.098, 0.984, 0.258, 192.0, 0.0, 0.0, 0.0, 0.0, 0.0, 0.0, 0.0, 0.0, 0.0, 1.706883190958187E9, 0.0, 2024-02-02 15:13:10.958
202.0, 62913.61158056398, 64917.93720936027, -30854.19158389468, -5936.198644184905, 17156.81906423796, 6201.983237502961, 24627.21909609069, 5798.802471018133, 41314.74093374502, 47152.23427441529, 37413.75802919365, 49337.474922832844, 23407.7749738425, 27021.806183076646, -8604.214621092633, -2143.6217002417684, -0.098, 0.984, 0.258, 192.0, 0.0, 0.0, 0.0, 0.0, 0.0, 0.0, 0.0, 0.0, 0.0, 1.706883190965928E9, 0.0, 2024-02-02 15:13:10.965
204.0, 62924.630990580445, 64951.10719813195, -30851.263505371036, -5926.520338835757, 17167.480846343144, 6206.140661971648, 24643.714683498703, 5803.809261776121, 41385.86418460181, 47170.51800137973, 37438.81433472804, 49352.07061196215, 23420.73898562658, 27044.26968625423, -8582.421670248708, -2121.7169906755676, -0.098, 0.984, 0.258, 192.0, 0.0, 0.0, 0.0, 0.0, 0.0, 0.0, 0.0, 0.0, 0.0, 1.7068831909749572E9, 0.0, 2024-02-02 15:13:10.974
206.0, 62936.07508374156, 64978.421029856334, -30866.97678172312, -5936.019830229263, 17155.38855259282, 6192.215525175992, 24627.19674434623, 5780.563447542602, 41424.018612387015, 47166.82996354461, 37424.88919793239, 49328.467169817355, 23403.505790651536, 27030.031625036198, -8600.280714068498, -2138.3243368058606, -0.098, 0.99, 0.262, 192.0, 126.0, 120.0, 15.0, 120.0, 4.0, 24.0, 0.0, 0.0, 0.0, 1.7068831909821699E9, 0.0, 2024-02-02 15:13:10.982
208.0, 62955.56580490659, 64997.82234404354, -30860.293610130982, -5925.715676035366, 17166.564424820474, 6200.977409002472, 24634.930447927767, 5781.52457255418, 41494.51601439906, 47183.05733001916, 37443.35173885247, 49340.268890889754, 23413.094689022862, 27041.386311219492, -8591.585885475384, -2126.7237814335563, -0.098, 0.99, 0.262, 192.0, 0.0, 0.0, 0.0, 0.0, 0.0, 0.0, 0.0, 0.0, 0.0, 1.706883190989968E9, 0.0, 2024-02-02 15:13:10.989
210.0, 62957.93508981885, 65008.05944300407, -30861.567659564935, -5928.464940603369, 17166.34090737592, 6198.496365367933, 24638.618485762894, 5777.814182974599, 41538.325433531456, 47191.21571674535, 37447.41975634334, 49341.69940253489, 23420.87309609331, 27048.471814211825, -8584.388623760775, -2120.934679619632, -0.098, 0.99, 0.262, 192.0, 0.0, 0.0, 0.0, 0.0, 0.0, 0.0, 0.0, 0.0, 0.0, 1.7068831909979916E9, 0.0, 2024-02-02 15:13:10.997
212.0, 62955.252880484215, 65008.975864526736, -30868.474348601623, -5929.895452248508, 17162.094075929414, 6197.624647334176, 24634.0140264051, 5770.415755559892, 41571.13779439185, 47195.61901040304, 37442.6364830299, 49340.00066995629, 23413.29585472296, 27041.989808319788, -8593.105804098344, -2129.763618679478, -0.098, 0.99, 0.262, 192.0, 0.0, 0.0, 0.0, 0.0, 0.0, 0.0, 0.0, 0.0, 0.0, 1.7068831910071845E9, 0.0, 2024-02-02 15:13:11.007
214.0, 62960.349078220024, 65020.53171641013, -30881.97480225263, -5937.964431996874, 17153.57806129194, 6188.0357489628495, 24618.568970986486, 5755.015403630186, 41595.5682510815, 47182.163260240945, 37439.686052761805, 49339.46422808936, 23410.21131398813, 27040.648703652467, -8598.693740212171, -2133.272842558961, -0.098, 0.99, 0.262, 192.0, 0.0, 0.0, 0.0, 0.0, 0.0, 0.0, 0.0, 0.0, 0.0, 1.70688319101403E9, 0.0, 2024-02-02 15:13:11.014
216.0, 62969.24507251324, 65032.4004927159, -30880.29842141848, -5940.93721400943, 17162.898738729804, 6187.409900118101, 24638.283209596066, 5759.463400776792, 41628.96175729773, 47189.38287370001, 37439.97662543972, 49336.96083271037, 23411.150087255253, 27038.21236350684, -8600.079548368401, -2134.9492233931096, -0.10200000000000001, 0.986, 0.256, 192.0, 126.0, 104.0, 15.0, 104.0, 4.0, 0.0, 0.0, 0.0, 0.0, 1.706883191022035E9, 0.0, 2024-02-02 15:13:11.022
218.0, 62981.69499417484, 65050.32659176906, -30873.414084126245, -5931.281260404738, 17166.676183542753, 6197.267019422891, 24638.193802618243, 5763.978453156764, 41663.7857751591, 47194.255553991265, 37448.202067399274, 49339.17365541145, 23415.575732657402, 27046.214288021838, -8592.301141297954, -2130.0094878684868, -0.10200000000000001, 0.986, 0.256, 192.0, 0.0, 0.0, 0.0, 0.0, 0.0, 0.0, 0.0, 0.0, 0.0, 1.7068831910310628E9, 0.0, 2024-02-02 15:13:11.031
220.0, 62978.27517727318, 65055.802769160604, -30881.505415619067, -5942.814760543676, 17156.372029348855, 6181.956074471006, 24625.229790834164, 5746.0970575925185, 41693.044208651096, 47200.20111801638, 37447.75503251017, 49338.592510055605, 23418.19088675867, 27048.091834556086, -8595.60919947734, -2127.8860721452324, -0.10200000000000001, 0.986, 0.256, 192.0, 0.0, 0.0, 0.0, 0.0, 0.0, 0.0, 0.0, 0.0, 0.0, 1.7068831910380576E9, 0.0, 2024-02-02 15:13:11.038
222.0, 62993.45201175833, 65086.80463872012, -30882.891223775296, -5944.424086144458, 17154.427427581242, 6177.798650002319, 24625.900343167825, 5739.615051700479, 41713.093723427504, 47195.55195516968, 37434.925131192824, 49330.76939949625, 23409.496058165558, 27031.842116337077, -8613.535298530496, -2145.052211886908, -0.10200000000000001, 0.986, 0.256, 192.0, 0.0, 0.0, 0.0, 0.0, 0.0, 0.0, 0.0, 0.0, 0.0, 1.7068831910463188E9, 0.0, 2024-02-02 15:13:11.046
224.0, 63015.021445157705, 65111.90564774343, -30883.762941809055, -5944.98287975584, 17154.20391013669, 6175.339958112235, 24629.856601936415, 5735.1223510649625, 41749.41530816738, 47195.037865047205, 37446.525686565124, 49341.07355369015, 23408.15495349824, 27034.54667741617, -8607.969714161125, -2141.341822307327, -0.10200000000000001, 0.986, 0.256, 192.0, 0.0, 0.0, 0.0, 0.0, 0.0, 0.0, 0.0, 0.0, 0.0, 1.7068831910540943E9, 0.0, 2024-02-02 15:13:11.054
226.0, 63004.963160152816, 65114.07376695559, -30889.484988389613, -5951.666051347977, 17147.83366296693, 6168.813248731286, 24623.955741400212, 5724.929955593343, 41766.62615139796, 47206.81723437515, 37444.75989875316, 49340.17948391193, 23403.39403192926, 27035.932485572397, -8614.205850864155, -2145.611005498291, -0.096, 0.99, 0.256, 192.0, 126.5, 0.0, 15.0, 120.0, 4.0, 0.0, 0.0, 0.0, 0.0, 1.706883191063076E9, 0.0, 2024-02-02 15:13:11.063
228.0, 63002.41506128491, 65127.70833107333, -30880.92427026323, -5941.540711109724, 17156.796712493506, 6181.956074471006, 24631.35416881492, 5730.629650429446, 41785.22280278478, 47203.39741747349, 37440.40130858437, 49335.53032106523, 23406.09859300835, 27042.928581586908, -8612.931801430203, -2147.734421221545, -0.096, 0.99, 0.256, 192.0, 0.0, 0.0, 0.0, 0.0, 0.0, 0.0, 0.0, 0.0, 0.0, 1.70688319107011E9, 0.0, 2024-02-02 15:13:11.070
230.0, 63060.64135559099, 65184.14648582298, -30874.263450415547, -5931.6388883160225, 17159.68008752824, 6185.465298350489, 24633.58934326045, 5730.964926596275, 41825.858274204526, 47230.5994904756, 37457.61215181496, 49357.47973412034, 23417.453279191646, 27057.39016024949, -8602.56059200294, -2138.3019850614055, -0.096, 0.99, 0.256, 192.0, 0.0, 0.0, 0.0, 0.0, 0.0, 0.0, 0.0, 0.0, 0.0, 1.7068831910783901E9, 0.0, 2024-02-02 15:13:11.078
232.0, 63071.03491676271, 65192.77425918273, -30874.82224402693, -5923.525205078746, 17157.333154360433, 6188.125155940671, 24632.49410778214, 5730.0708568180635, 41858.24595192027, 47235.06983936666, 37463.736529795715, 49362.75474581179, 23412.11121226683, 27044.515555443235, -8610.003722906557, -2138.6149094837797, -0.096, 0.99, 0.256, 192.0, 0.0, 0.0, 0.0, 0.0, 0.0, 0.0, 0.0, 0.0, 0.0, 1.7068831910861433E9, 0.0, 2024-02-02 15:13:11.086
234.0, 63068.509169639256, 65201.46908777584, -30865.59097356689, -5919.971277710352, 17161.289413129023, 6192.997836231928, 24635.0645583945, 5734.652964431401, 41891.10301626957, 47233.99695563281, 37472.23019268873, 49368.946179025916, 23417.92266582521, 27052.87510786952, -8601.420653035719, -2130.8812059022434, -0.096, 0.99, 0.256, 192.0, 0.0, 0.0, 0.0, 0.0, 0.0, 0.0, 0.0, 0.0, 0.0, 1.7068831910943594E9, 0.0, 2024-02-02 15:13:11.094
236.0, 63046.02331471722, 65190.22616031482, -30884.612308098356, -5943.84294078862, 17140.524642530043, 6179.139754669637, 24609.1588865708, 5714.759911866178, 41906.48101645482, 47238.91433941297, 37459.37793962693, 49358.731431809836, 23407.10442150884, 27053.188032291895, -8615.65871425375, -2138.927833906154, -0.097, 0.987, 0.258, 192.0, 126.0, 120.0, 15.0, 96.0, 4.0, 16.0, 0.0, 0.0, 0.0, 1.7068831911021705E9, 0.0, 2024-02-02 15:13:11.102
238.0, 63074.83471332011, 65227.62062878855, -30865.076883444417, -5926.989725469319, 17156.416732837766, 6194.875382766174, 24622.592284988437, 5728.908566106387, 41928.60924346557, 47240.121333613555, 37464.004750729175, 49359.58079809914, 23403.63990111827, 27055.087930570597, -8613.378836319309, -2140.179531595651, -0.097, 0.987, 0.258, 192.0, 0.0, 0.0, 0.0, 0.0, 0.0, 0.0, 0.0, 0.0, 0.0, 1.706883191110144E9, 0.0, 2024-02-02 15:13:11.110
240.0, 63077.20399823237, 65232.538012568715, -30867.91555499024, -5931.415370871469, 17149.53239554553, 6184.884152994651, 24612.533999983552, 5718.291487490116, 41950.78217396524, 47249.30790058469, 37471.917268266356, 49374.13178373955, 23406.791497086466, 27055.5349654597, -8608.282638583498, -2133.831636170344, -0.097, 0.987, 0.258, 192.0, 0.0, 0.0, 0.0, 0.0, 0.0, 0.0, 0.0, 0.0, 0.0, 1.7068831911182096E9, 0.0, 2024-02-02 15:13:11.118
242.0, 63058.67440207892, 65210.49919253578, -30869.68134280221, -5935.12576045105, 17148.213642622668, 6180.883190737151, 24611.2599505496, 5714.737560121723, 41960.72870024785, 47237.036792878724, 37462.14955593939, 49361.99478650031, 23395.034479502974, 27047.600096178066, -8616.0833973984, -2143.085258374841, -0.097, 0.987, 0.258, 192.0, 0.0, 0.0, 0.0, 0.0, 0.0, 0.0, 0.0, 0.0, 0.0, 1.7068831911261673E9, 0.0, 2024-02-02 15:13:11.126
244.0, 63019.849421960054, 65194.18241908341, -30874.15169169327, -5937.986783741329, 17137.44010179521, 6176.859876735196, 24593.825589874457, 5703.2487634716945, 41968.84238348513, 47237.9979178903, 37457.925076237334, 49359.066707976664, 23396.554398125936, 27051.39989273547, -8612.440063052185, -2138.212578083584, -0.097, 0.987, 0.258, 192.0, 0.0, 0.0, 0.0, 0.0, 0.0, 0.0, 0.0, 0.0, 0.0, 1.7068831911344612E9, 0.0, 2024-02-02 15:13:11.134
246.0, 63077.3381086991, 65246.23963191982, -30851.598781537865, -5915.7915014972095, 17150.53822404602, 6189.84624026373, 24615.462078507197, 5714.625801399446, 41983.32631389217, 47237.48382776783, 37464.161212940366, 49365.928693524445, 23390.184150956175, 27047.510689200248, -8615.2340311091, -2138.0337641279416, -0.0955, 0.9915, 0.255, 192.0, 126.5, 8.0, 15.5, 16.0, 3.5, 112.0, 0.0, 0.0, 0.0, 1.7068831911422334E9, 0.0, 2024-02-02 15:13:11.142
248.0, 63069.85027430657, 65241.92574523995, -30839.99822616556, -5902.268696101749, 17162.83168349644, 6201.335036913757, 24636.986808417656, 5722.694781147812, 41997.67613383247, 47262.11545015758, 37487.11645449596, 49391.54379267023, 23404.24339821856, 27072.5893464791, -8583.427498749197, -2108.41770272466, -0.0955, 0.9915, 0.255, 192.0, 0.0, 0.0, 0.0, 0.0, 0.0, 0.0, 0.0, 0.0, 0.0, 1.70688319114919E9, 0.0, 2024-02-02 15:13:11.149
250.0, 63005.454898530836, 65182.11247707754, -30843.216877367126, -5910.538841550212, 17155.477959570642, 6191.5002693534225, 24623.55341000002, 5703.2487634716945, 41985.539136593245, 47247.944444172914, 37495.18543424433, 49381.664321620985, 23409.38429944328, 27065.21327080885, -8571.782239887982, -2103.835595111322, -0.0955, 0.9915, 0.255, 192.0, 0.0, 0.0, 0.0, 0.0, 0.0, 0.0, 0.0, 0.0, 0.0, 1.7068831911583133E9, 0.0, 2024-02-02 15:13:11.158
252.0, 63022.19635512786, 65144.874470815004, -30832.264522584024, -5904.593277525101, 17154.02509618105, 6194.137775199149, 24610.745860427127, 5683.534524862114, 41903.79880712018, 47247.29624358371, 37475.15827121237, 49364.36407141257, 23400.130677238783, 27059.06654108364, -8570.754059643037, -2102.2709729994504, -0.0955, 0.9915, 0.255, 192.0, 0.0, 0.0, 0.0, 0.0, 0.0, 0.0, 0.0, 0.0, 0.0, 1.7068831911662006E9, 0.0, 2024-02-02 15:13:11.166
254.0, 63010.975779411296, 65037.094359051516, -30813.801981663943, -5902.179289123927, 17158.29427937201, 6196.730577555964, 24602.743935912127, 5665.898998486877, 41777.57850618107, 47248.88321744004, 37487.2505649627, 49378.28920820823, 23402.790534828968, 27065.280326042215, -8561.567492671908, -2085.8871443137105, -0.0955, 0.9915, 0.255, 192.0, 0.0, 0.0, 0.0, 0.0, 0.0, 0.0, 0.0, 0.0, 0.0, 1.7068831911742394E9, 0.0, 2024-02-02 15:13:11.174
0.0, 62979.39276449595, 64849.429112604754, -30817.49001949907, -5925.134530679528, 17145.82200596595, 6184.526525083366, 24592.372726484864, 5644.441323809782, 41495.343028943906, 47227.269080551756, 37477.52755612464, 49368.81206855918, 23400.510656894527, 27057.054884082663, -8566.306062496431, -2082.1096995007633, -0.09875, 0.98975, 0.2535, 192.0, 126.0, 104.0, 15.0, 112.0, 3.5, 112.0, 0.0, 0.0, 0.0, 1.7068831911812408E9, 0.0, 2024-02-02 15:13:11.181
2.0, 62931.18005170585, 64609.5501911104, -30805.509484471022, -5927.5932225696115, 17151.63345952433, 6191.276751908869, 24591.702174151204, 5638.607518506947, 41150.50031548743, 47196.20015575888, 37455.0417012026, 49359.80431554369, 23388.708935822124, 27045.8343083661, -8576.006719590036, -2092.8832403282213, -0.09875, 0.98975, 0.2535, 192.0, 0.0, 0.0, 0.0, 0.0, 0.0, 0.0, 0.0, 0.0, 0.0, 1.7068831911902812E9, 0.0, 2024-02-02 15:13:11.190
4.0, 62953.285926972145, 64409.47972649094, -30779.782626602966, -5913.757492751777, 17163.63634629683, 6206.542993371844, 24595.747839897616, 5645.1342278878965, 40924.2112546219, 47197.98829531531, 37469.36916939845, 49381.91019080999, 23399.504828394038, 27074.422189524437, -8558.92998682618, -2078.0640337543527, -0.09875, 0.98975, 0.2535, 192.0, 0.0, 0.0, 0.0, 0.0, 0.0, 0.0, 0.0, 0.0, 0.0, 1.7068831911982927E9, 0.0, 2024-02-02 15:13:11.198
6.0, 62934.063426740584, 64222.37327365557, -30787.85160635133, -5927.548519080701, 17151.20877637968, 6192.6178565761875, 24572.77024659756, 5625.978782889698, 40684.354684872, 47180.82215557363, 37467.31280890856, 49377.77511808576, 23397.850799304342, 27041.520421686226, -8566.082545051879, -2084.322522201839, -0.09875, 0.98975, 0.2535, 192.0, 0.0, 0.0, 0.0, 0.0, 0.0, 0.0, 0.0, 0.0, 0.0, 1.7068831912053099E9, 0.0, 2024-02-02 15:13:11.205
