%OpenBCI Raw EXG Data
%Number of channels = 16
%Sample Rate = 125 Hz
%Board = OpenBCI_GUI$BoardCytonSerialDaisy
Sample Index, EXG Channel 0, EXG Channel 1, EXG Channel 2, EXG Channel 3, EXG Channel 4, EXG Channel 5, EXG Channel 6, EXG Channel 7, EXG Channel 8, EXG Channel 9, EXG Channel 10, EXG Channel 11, EXG Channel 12, EXG Channel 13, EXG Channel 14, EXG Channel 15, Accel Channel 0, Accel Channel 1, Accel Channel 2, Other, Other, Other, Other, Other, Other, Other, Analog Channel 0, Analog Channel 1, Analog Channel 2, Timestamp, Other, Timestamp (Formatted)
196.0, 63684.16561891623, 65805.18970551368, -29056.150204676414, -16281.345937412494, 16454.616660430034, 5093.873154386658, 22610.04121423259, 4777.573618599608, 41716.91587172936, 47396.11415816715, 37480.20976545927, 50540.177588484, 22781.434390715887, 27618.284835610968, -8991.190372847364, -4020.7882548318216, 0.0, 0.0, 0.0, 192.0, 0.0, 0.0, 0.0, 0.0, 0.0, 0.0, 0.0, 0.0, 0.0, 1.7068834036363692E9, 0.0, 2024-02-02 15:16:43.636
198.0, 63680.008194447546, 65801.99340605657, -29064.822681525075, -16288.431440404827, 16445.25127950326, 5084.6195321821615, 22596.22783615921, 4768.565865584119, 41725.52129334465, 47403.356123370664, 37482.08731199352, 50545.38554494209, 22780.070934304113, 27620.81058273442, -8995.951294416343, -4020.363571687171, 0.0, 0.0, 0.0, 192.0, 0.0, 0.0, 0.0, 0.0, 0.0, 0.0, 0.0, 0.0, 0.0, 1.7068834036363888E9, 0.0, 2024-02-02 15:16:43.636
0.0, 31994.264661582074, 32900.94082366715, -14855.326992908358, -8209.326351800722, 8235.232023624423, 2479.5684194050336, 11215.770091506254, 2371.1624587967945, 20861.777169916295, 23700.985157607218, 18735.65688558303, 25269.250603824927, 11387.163267989548, 13806.001997709513, -4504.569411822487, -2017.2672888359177, -0.128, 0.978, 0.276, 192.0, 126.0, 0.0, 15.0, 72.0, 4.0, 80.0, 0.0, 0.0, 0.0, 1.7068834037472513E9, 0.0, 2024-02-02 15:16:43.747
2.0, 63980.28152946014, 65791.48808616259, -29721.427526644176, -16431.147328751962, 16458.997602343276, 4942.328326979677, 22412.67531069223, 4726.0304958856705, 41976.68784578894, 47482.39189176463, 37489.262221963676, 50609.02096140635, 22697.905921686404, 27711.44690650069, -8987.882314667979, -4142.24763420196, -0.128, 0.978, 0.276, 192.0, 0.0, 0.0, 0.0, 0.0, 0.0, 0.0, 0.0, 0.0, 0.0, 1.7068834037543898E9, 0.0, 2024-02-02 15:16:43.754
4.0, 63983.120201005964, 65793.4773914191, -29721.606340599817, -16433.047227030664, 16461.59040470009, 4946.6198619150955, 22410.730708924617, 4728.869167431494, 41967.50127881781, 47467.08094681275, 37483.98721027222, 50601.42136829154, 22696.184837363344, 27705.590749453397, -8996.64419849446, -4155.859846575242, -0.128, 0.978, 0.276, 192.0, 0.0, 0.0, 0.0, 0.0, 0.0, 0.0, 0.0, 0.0, 0.0, 1.7068834037612376E9, 0.0, 2024-02-02 15:16:43.761
6.0, 63977.66637535887, 65792.40450768525, -29725.9649307686, -16436.735264865787, 16461.21042504435, 4947.513931693307, 22424.56643874245, 4735.887615190461, 41964.126165405054, 47470.52311545886, 37482.4449399048, 50601.443720036, 22696.743630974728, 27707.848275643384, -8994.654893237936, -4151.210683728538, -0.128, 0.978, 0.276, 192.0, 0.0, 0.0, 0.0, 0.0, 0.0, 0.0, 0.0, 0.0, 0.0, 1.7068834037694428E9, 0.0, 2024-02-02 15:16:43.769
8.0, 63973.08426774553, 65787.39771692725, -29728.40127091423, -16437.182299754895, 16457.678849420412, 4945.12229503659, 22417.592694472398, 4730.769065710195, 41955.27487460076, 47471.35013000371, 37478.332218925025, 50598.11331011216, 22691.468619283274, 27706.171894809235, -8997.82884095059, -4153.177637240606, -0.128, 0.976, 0.28, 192.0, 126.0, 0.0, 15.0, 64.0, 4.0, 96.0, 0.0, 0.0, 0.0, 1.7068834037782855E9, 0.0, 2024-02-02 15:16:43.778
10.0, 63979.968605037764, 65792.51626640753, -29725.517895879497, -16432.95782005284, 16459.668154676932, 4945.725792136883, 22411.44596474719, 4726.857510430516, 41946.96002566338, 47457.91673158607, 37479.33804742552, 50595.36404554416, 22691.088639627535, 27705.613101197854, -8998.857021195534, -4155.569273897323, -0.128, 0.976, 0.28, 192.0, 0.0, 0.0, 0.0, 0.0, 0.0, 0.0, 0.0, 0.0, 0.0, 1.7068834037866523E9, 0.0, 2024-02-02 15:16:43.786
12.0, 63973.21837821227, 65786.01190877103, -29731.843439560347, -16438.09872127756, 16452.359134240047, 4939.534358922763, 22407.62381644533, 4722.901251661927, 41949.50812453129, 47469.0031968359, 37481.08148349303, 50599.02973163483, 22693.793200706627, 27705.970729109136, -8999.39346306246, -4153.557616896345, -0.128, 0.976, 0.28, 192.0, 0.0, 0.0, 0.0, 0.0, 0.0, 0.0, 0.0, 0.0, 0.0, 1.7068834037932837E9, 0.0, 2024-02-02 15:16:43.793
14.0, 63974.04539275711, 65785.7213360931, -29729.45180290363, -16436.936430565886, 16455.868358119533, 4944.228225258377, 22416.273941549534, 4727.706876719818, 41935.98531913583, 47451.948815816504, 37472.85604153348, 50593.620609476646, 22683.82432267956, 27695.934795848705, -9005.428434065394, -4157.335061709293, -0.128, 0.976, 0.28, 192.0, 0.0, 0.0, 0.0, 0.0, 0.0, 0.0, 0.0, 0.0, 0.0, 1.7068834038013155E9, 0.0, 2024-02-02 15:16:43.801
16.0, 63976.079401502546, 65790.63871987328, -29721.628692344275, -16431.639067129978, 16457.00829708675, 4947.64804216004, 22416.609217716363, 4732.646612244441, 41940.70153721589, 47460.46483045397, 37482.534346882625, 50603.63419099262, 22692.183875105846, 27703.62379594133, -8993.202029848342, -4146.24859645946, -0.128, 0.976, 0.28, 192.0, 0.0, 0.0, 0.0, 0.0, 0.0, 0.0, 0.0, 0.0, 0.0, 1.7068834038104382E9, 0.0, 2024-02-02 15:16:43.810
18.0, 63986.91999756337, 65803.42391770172, -29711.570407339386, -16417.244543700763, 16466.284271035704, 4956.767553897805, 22419.380834028823, 4739.285080347667, 41939.53924650422, 47476.64749343962, 37488.99400103021, 50608.842147450705, 22695.78250596315, 27707.602406454374, -8989.357529802028, -4142.493503390969, -0.13, 0.974, 0.278, 192.0, 125.5, 120.0, 15.0, 56.0, 4.0, 88.0, 0.0, 0.0, 0.0, 1.706883403817494E9, 0.0, 2024-02-02 15:16:43.817
20.0, 63990.4515731873, 65805.12265028032, -29705.602491569818, -16413.735319821277, 16474.64382346199, 4964.456553990431, 22427.338055054912, 4746.191769384357, 41942.57908375014, 47476.423975995065, 37498.42643719035, 50614.56419403126, 22704.231465367255, 27720.3429007939, -8982.316730298608, -4132.569328852812, -0.13, 0.974, 0.278, 192.0, 0.0, 0.0, 0.0, 0.0, 0.0, 0.0, 0.0, 0.0, 0.0, 1.7068834038254373E9, 0.0, 2024-02-02 15:16:43.825
22.0, 63983.20960798379, 65797.92538856571, -29714.476134118577, -16423.637142614978, 16464.898462879475, 4953.481847462875, 22415.893961893795, 4736.491112290753, 41939.20397033739, 47481.07313884177, 37496.12420751145, 50613.84893820869, 22701.906883943902, 27717.973615881638, -8983.926055899388, -4130.781189296387, -0.13, 0.974, 0.278, 192.0, 0.0, 0.0, 0.0, 0.0, 0.0, 0.0, 0.0, 0.0, 0.0, 1.706883403833358E9, 0.0, 2024-02-02 15:16:43.833
24.0, 63991.34564296552, 65807.67074914822, -29707.100058448323, -16412.796546554157, 16474.800285673176, 4969.485696492875, 22431.115499867858, 4751.422077586899, 41928.4974847433, 47475.88753412814, 37492.41381793187, 50608.551574772784, 22703.136229888943, 27715.090240846905, -8989.849268180045, -4136.6373463436785, -0.13, 0.974, 0.278, 192.0, 0.0, 0.0, 0.0, 0.0, 0.0, 0.0, 0.0, 0.0, 0.0, 1.7068834038425984E9, 0.0, 2024-02-02 15:16:43.842
26.0, 63982.069669016564, 65800.9875775561, -29715.16903819669, -16423.01129377023, 16466.999526858275, 4958.198065542944, 22422.845354419394, 4744.068353661103, 41931.38085977803, 47487.599848222715, 37499.9016523244, 50618.54280454431, 22711.607541037505, 27727.361348552866, -8978.807506419123, -4125.729695049488, -0.13, 0.974, 0.278, 192.0, 0.0, 0.0, 0.0, 0.0, 0.0, 0.0, 0.0, 0.0, 0.0, 1.7068834038494086E9, 0.0, 2024-02-02 15:16:43.849
28.0, 63977.71107884778, 65795.9807867981, -29719.25940743201, -16428.7780438397, 16462.439770989393, 4948.318594493699, 22413.3905665148, 4733.831254700573, 41914.88527237002, 47479.553220218804, 37484.5460038836, 50604.61766774865, 22698.978805420258, 27711.87158964534, -8995.727776971791, -4145.9133202926305, -0.132, 0.974, 0.28400000000000003, 192.0, 125.5, 112.0, 15.0, 56.0, 4.0, 112.0, 0.0, 0.0, 0.0, 1.7068834038574271E9, 0.0, 2024-02-02 15:16:43.857
30.0, 63984.170732995364, 65799.9817490556, -29710.050488716424, -16422.988942025775, 16469.88290189301, 4953.3700887405985, 22421.90658115227, 4742.436676315865, 41916.40519099298, 47469.494935213916, 37491.18447198683, 50608.5962782617, 22704.745555489728, 27706.931854120718, -8986.54121000066, -4142.605262113245, -0.132, 0.974, 0.28400000000000003, 192.0, 0.0, 0.0, 0.0, 0.0, 0.0, 0.0, 0.0, 0.0, 0.0, 1.706883403866405E9, 0.0, 2024-02-02 15:16:43.866
32.0, 63980.30388120459, 65794.9302548087, -29712.01744222849, -16423.637142614978, 16471.492227493793, 4951.470190461897, 22430.132023111826, 4743.151932138435, 41918.215682293856, 47477.8544876402, 37486.98234402923, 50608.149243372594, 22710.177029392366, 27713.458563501667, -8985.155401844431, -4141.197102212561, -0.132, 0.974, 0.28400000000000003, 192.0, 0.0, 0.0, 0.0, 0.0, 0.0, 0.0, 0.0, 0.0, 0.0, 1.7068834038736188E9, 0.0, 2024-02-02 15:16:43.873
34.0, 63984.41660218437, 65800.74170836707, -29707.614148570796, -16418.093909990064, 16475.560244984656, 4952.341908495654, 22433.44008129121, 4745.856493217528, 41915.756990403774, 47470.65722592559, 37489.50809115268, 50610.183252118026, 22712.009872437702, 27708.429420999222, -8980.953273886833, -4142.560558624335, -0.132, 0.974, 0.28400000000000003, 192.0, 0.0, 0.0, 0.0, 0.0, 0.0, 0.0, 0.0, 0.0, 0.0, 1.706883403881424E9, 0.0, 2024-02-02 15:16:43.881
36.0, 63977.04052651412, 65796.07019377591, -29716.532494608462, -16424.91119204893, 16465.6360704465, 4947.983318326869, 22423.00181663058, 4742.324917593589, 41911.17488279044, 47474.23350503844, 37488.56931788556, 50610.58558351822, 22708.768869491683, 27715.984310625114, -8982.808468676623, -4139.319555678315, -0.132, 0.974, 0.28400000000000003, 192.0, 0.0, 0.0, 0.0, 0.0, 0.0, 0.0, 0.0, 0.0, 0.0, 1.70688340388944E9, 0.0, 2024-02-02 15:16:43.889
38.0, 63977.64402361441, 65793.70090886366, -29717.426564386675, -16424.754729837743, 16464.40672450146, 4951.559597439718, 22423.046520119493, 4742.03434491567, 41901.00483906327, 47477.07217658427, 37483.8978032944, 50606.2940485828, 22703.806782222604, 27708.96586286615, -8989.044605379655, -4141.845302801765, -0.128, 0.97, 0.29, 192.0, 126.0, 0.0, 15.0, 40.0, 4.5, 8.0, 0.0, 0.0, 0.0, 1.7068834038977644E9, 0.0, 2024-02-02 15:16:43.897
40.0, 63979.54392189311, 65795.26553097554, -29716.957177753113, -16422.832479814588, 16468.184169314405, 4950.2184927724, 22424.745252698096, 4742.727248993784, 41898.81436810665, 47472.82534513776, 37486.89293705141, 50608.998609661896, 22705.59492177903, 27705.65780468676, -8991.771518203203, -4146.002727270452, -0.128, 0.97, 0.29, 192.0, 0.0, 0.0, 0.0, 0.0, 0.0, 0.0, 0.0, 0.0, 0.0, 1.7068834039054549E9, 0.0, 2024-02-02 15:16:43.905
42.0, 63975.52060789116, 65792.47156291861, -29718.96883475409, -16424.73237809329, 16466.21721580234, 4943.401210713531, 22421.571304985442, 4737.049905902137, 41896.71330412785, 47479.73203417445, 37483.83074806103, 50607.25517359438, 22703.11387814449, 27713.01152861256, -8992.978512403788, -4147.29912844886, -0.128, 0.97, 0.29, 192.0, 0.0, 0.0, 0.0, 0.0, 0.0, 0.0, 0.0, 0.0, 0.0, 1.7068834039134831E9, 0.0, 2024-02-02 15:16:43.913
44.0, 63980.14741899341, 65793.41033618574, -29710.430468372164, -16418.004503012242, 16472.25218680527, 4949.011498571814, 22428.366235299854, 4742.302565849133, 41893.27113548174, 47473.630007938154, 37487.496434151704, 50609.15507187308, 22706.82426772407, 27708.71999367714, -8989.893971668957, -4148.796695327365, -0.128, 0.97, 0.29, 192.0, 0.0, 0.0, 0.0, 0.0, 0.0, 0.0, 0.0, 0.0, 0.0, 1.7068834039225116E9, 0.0, 2024-02-02 15:16:43.922
46.0, 63981.28735796063, 65796.11489726484, -29709.938729994148, -16418.898572790455, 16468.74296292579, 4950.173789283489, 22427.71803471065, 4742.973118182793, 41896.6909523834, 47472.512420715386, 37493.06201852107, 50610.07149339575, 22713.462735827296, 27712.87741814583, -8982.584951232071, -4141.554730123846, -0.128, 0.97, 0.29, 192.0, 0.0, 0.0, 0.0, 0.0, 0.0, 0.0, 0.0, 0.0, 0.0, 1.7068834039288497E9, 0.0, 2024-02-02 15:16:43.928
48.0, 63984.57306439556, 65799.75823161105, -29708.083535204358, -16419.39031116847, 16471.58163447161, 4950.419658472498, 22430.377892300832, 4742.615490271508, 41899.127292529025, 47479.79908940782, 37496.14655925591, 50613.6477725086, 22714.535619561153, 27711.06692684495, -8979.790983175157, -4139.34190742277, -0.13, 0.976, 0.29, 192.0, 125.5, 120.0, 15.0, 64.0, 4.5, 8.0, 0.0, 0.0, 0.0, 1.7068834039375222E9, 0.0, 2024-02-02 15:16:43.937
50.0, 63988.19404699732, 65802.57455141241, -29707.725907293072, -16417.78098556769, 16473.21331181685, 4951.64900441754, 22427.785089944016, 4744.761257739217, 41893.137025015, 47472.512420715386, 37496.437131933824, 50612.73135098593, 22715.00500619471, 27709.72582217763, -8982.62965472098, -4140.414791156625, -0.13, 0.976, 0.29, 192.0, 0.0, 0.0, 0.0, 0.0, 0.0, 0.0, 0.0, 0.0, 0.0, 1.7068834039455297E9, 0.0, 2024-02-02 15:16:43.945
52.0, 63990.38451795394, 65805.61438865833, -29704.97664272507, -16415.612866355525, 16474.6885269509, 4954.331213752176, 22425.795784687496, 4746.4599903178205, 41894.88046108252, 47482.6601126981, 37500.23692849123, 50620.196833634, 22720.25766614171, 27721.14756359429, -8982.741413443258, -4135.922090521109, -0.13, 0.976, 0.29, 192.0, 0.0, 0.0, 0.0, 0.0, 0.0, 0.0, 0.0, 0.0, 0.0, 1.7068834039535549E9, 0.0, 2024-02-02 15:16:43.953
54.0, 63990.42922144285, 65805.63674040278, -29700.88627348975, -16414.49527913276, 16477.884826408008, 4956.432277730975, 22425.25934282057, 4748.650461274441, 41890.34305695809, 47474.747595160916, 37502.740323870225, 50619.25806036688, 22724.280980143667, 27717.414822270253, -8980.77445993119, -4134.1115992202285, -0.13, 0.976, 0.29, 192.0, 0.0, 0.0, 0.0, 0.0, 0.0, 0.0, 0.0, 0.0, 0.0, 1.706883403961538E9, 0.0, 2024-02-02 15:16:43.961
56.0, 63976.817009069564, 65795.55610365345, -29713.090325962345, -16424.017122270718, 16465.233739046304, 4942.417733957498, 22417.659749705763, 4737.27342334669, 41886.29739121168, 47473.71941491597, 37500.147521513405, 50618.22988012194, 22722.381081864965, 27715.067889102447, -8985.311864055619, -4140.325384178804, -0.13, 0.976, 0.29, 192.0, 0.0, 0.0, 0.0, 0.0, 0.0, 0.0, 0.0, 0.0, 0.0, 1.706883403969677E9, 0.0, 2024-02-02 15:16:43.969
58.0, 63979.56627363757, 65796.45017343166, -29713.939692251646, -16425.20176472685, 16468.11711408104, 4945.926957836981, 22422.308912552468, 4740.737943737262, 41872.30519918266, 47470.478411969954, 37487.96582078526, 50607.50104278339, 22713.59684629403, 27706.66363318725, -8994.319617071107, -4150.048393016862, -0.13, 0.972, 0.294, 192.0, 125.5, 120.0, 15.0, 48.0, 4.5, 24.0, 0.0, 0.0, 0.0, 1.706883403978578E9, 0.0, 2024-02-02 15:16:43.978
60.0, 63977.55461663659, 65793.49974316356, -29717.806544042414, -16428.39806418396, 16464.853759390564, 4943.155341524523, 22416.609217716363, 4738.234548358268, 41873.556896872156, 47462.230618265945, 37491.36328594247, 50608.149243372594, 22711.629892781963, 27706.77539190953, -8990.609227491526, -4144.01342201393, -0.13, 0.972, 0.294, 192.0, 0.0, 0.0, 0.0, 0.0, 0.0, 0.0, 0.0, 0.0, 0.0, 1.7068834039847138E9, 0.0, 2024-02-02 15:16:43.984
62.0, 63977.77813408115, 65794.6843856197, -29715.32550040788, -16428.129843250495, 16471.11224783805, 4948.184484026967, 22429.506174267077, 4745.163589139413, 41868.505402625255, 47467.41622297958, 37485.23890796172, 50604.34944681519, 22712.568666049083, 27704.87549363083, -8992.978512403788, -4147.9696807825185, -0.13, 0.972, 0.294, 192.0, 0.0, 0.0, 0.0, 0.0, 0.0, 0.0, 0.0, 0.0, 0.0, 1.706883403993585E9, 0.0, 2024-02-02 15:16:43.993
64.0, 63993.267892988675, 65809.50359219356, -29698.673450788672, -16408.460308129826, 16482.846913677087, 4961.9978621003465, 22440.369122072356, 4760.139257924468, 41874.33920792809, 47474.479374227456, 37499.27580347965, 50613.670124253054, 22721.174087664378, 27714.33028153542, -8980.68505295337, -4138.96192776703, -0.13, 0.972, 0.294, 192.0, 0.0, 0.0, 0.0, 0.0, 0.0, 0.0, 0.0, 0.0, 0.0, 1.7068834040017757E9, 0.0, 2024-02-02 15:16:44.001
66.0, 63986.49531441872, 65804.34033922438, -29706.40715437021, -16416.261066944728, 16474.39795427298, 4953.750068396338, 22429.617932989353, 4751.735002009274, 41882.207021976355, 47484.180031321055, 37507.0542105501, 50626.07534242575, 22732.34995989203, 27726.556685752475, -8974.717137183803, -4129.1271602066945, -0.13, 0.972, 0.294, 192.0, 0.0, 0.0, 0.0, 0.0, 0.0, 0.0, 0.0, 0.0, 0.0, 1.7068834040096595E9, 0.0, 2024-02-02 15:16:44.009
68.0, 63966.44579964231, 65787.86710356083, -29724.489715634554, -16436.69056137688, 16461.769218655732, 4940.607242656618, 22415.469278749144, 4736.692277990852, 41864.19151594538, 47474.54642946082, 37487.161157984876, 50608.88685093962, 22717.798974251626, 27710.105801833368, -8994.118451371009, -4144.7286778365, -0.126, 0.97, 0.292, 192.0, 126.0, 8.0, 15.0, 40.0, 4.5, 16.0, 0.0, 0.0, 0.0, 1.7068834040179148E9, 0.0, 2024-02-02 15:16:44.017
70.0, 63975.297090446606, 65796.74074610959, -29710.721041050085, -16425.40293042695, 16478.60008223058, 4958.555693454229, 22426.555743998975, 4752.204388642835, 41856.14488794147, 47457.80497286379, 37482.22142246025, 50599.968504901946, 22718.55893356311, 27708.451772743676, -8993.157326359431, -4146.650927859656, -0.126, 0.97, 0.292, 192.0, 0.0, 0.0, 0.0, 0.0, 0.0, 0.0, 0.0, 0.0, 0.0, 1.7068834040256329E9, 0.0, 2024-02-02 15:16:44.025
72.0, 63963.94240426331, 65788.00121402755, -29721.986320255557, -16433.717779364324, 16469.36881177054, 4950.866693361604, 22426.82396493244, 4746.482342062276, 41862.13515545549, 47470.09843231421, 37486.55766088458, 50603.96946715945, 22730.83004126907, 27715.313758291457, -8988.508163512726, -4138.716058578022, -0.126, 0.97, 0.292, 192.0, 0.0, 0.0, 0.0, 0.0, 0.0, 0.0, 0.0, 0.0, 0.0, 1.7068834040339363E9, 0.0, 2024-02-02 15:16:44.033
74.0, 63965.998764753196, 65789.49878090605, -29718.946483009637, -16427.369883939016, 16472.296890294183, 4958.667452176506, 22431.271962079045, 4753.053754932136, 41850.35578612755, 47454.65337689559, 37480.38857941492, 50598.47093802344, 22717.530753318162, 27710.083450088914, -8995.146631615953, -4143.6781458471, -0.126, 0.97, 0.292, 192.0, 0.0, 0.0, 0.0, 0.0, 0.0, 0.0, 0.0, 0.0, 0.0, 1.7068834040417912E9, 0.0, 2024-02-02 15:16:44.041
76.0, 63955.53814834812, 65778.88170228979, -29725.696709835138, -16436.64585788797, 16465.6360704465, 4945.032888058769, 22423.225334075134, 4743.576615283086, 41851.741594283776, 47456.73208912994, 37483.92015503885, 50599.02973163483, 22717.597808551527, 27715.179647824723, -8986.518858256204, -4137.352602166248, -0.126, 0.97, 0.292, 192.0, 0.0, 0.0, 0.0, 0.0, 0.0, 0.0, 0.0, 0.0, 0.0, 1.7068834040500827E9, 0.0, 2024-02-02 15:16:44.050
78.0, 63960.835511784026, 65783.88849304778, -29724.512067379008, -16434.611849142533, 16467.91594838094, 4947.715097393406, 22424.25351432008, 4745.3424030950555, 41837.86116097703, 47454.27339723986, 37472.49841362219, 50589.70905419697, 22716.63668353995, 27691.73266789111, -8998.007654906232, -4151.277738961904, -0.125, 0.972, 0.28800000000000003, 192.0, 126.0, 16.0, 15.0, 56.0, 4.0, 112.0, 0.0, 0.0, 0.0, 1.7068834040567691E9, 0.0, 2024-02-02 15:16:44.056
80.0, 63963.8977007744, 65785.94485353767, -29721.65104408873, -16431.147328751962, 16471.64868970498, 4951.69370790645, 22427.87449692184, 4750.5056560642315, 41842.510323823735, 47458.92256008656, 37480.38857941492, 50599.543821757296, 22722.090509187045, 27704.897845375282, -8990.028082135688, -4143.566387124823, -0.125, 0.972, 0.28800000000000003, 192.0, 0.0, 0.0, 0.0, 0.0, 0.0, 0.0, 0.0, 0.0, 0.0, 1.7068834040657544E9, 0.0, 2024-02-02 15:16:44.065
82.0, 63958.35446814948, 65785.09548724837, -29728.423622658687, -16435.34945670956, 16465.39020125749, 4946.530454937274, 22421.77247068554, 4744.56009203912, 41834.84367547556, 47467.37151949066, 37470.06207347656, 50593.15122284308, 22716.994311451235, 27706.618929698343, -8997.426509550394, -4148.506122649446, -0.125, 0.972, 0.28800000000000003, 192.0, 0.0, 0.0, 0.0, 0.0, 0.0, 0.0, 0.0, 0.0, 0.0, 1.706883404073754E9, 0.0, 2024-02-02 15:16:44.073
84.0, 63955.20287218128, 65787.48712390508, -29730.524686637484, -16434.880070075997, 16462.372715756024, 4947.357469482121, 22417.25741830557, 4741.788475726661, 41830.23921611777, 47459.52605718685, 37471.64904733289, 50595.78872868881, 22714.468564327784, 27709.859932644362, -9000.533402029681, -4151.121276750717, -0.125, 0.972, 0.28800000000000003, 192.0, 0.0, 0.0, 0.0, 0.0, 0.0, 0.0, 0.0, 0.0, 0.0, 1.7068834040810387E9, 0.0, 2024-02-02 15:16:44.081
86.0, 63957.57215709355, 65787.86710356083, -29732.245770960544, -16436.601154399057, 16460.517520966234, 4947.469228204397, 22418.86674390635, 4742.6378420159635, 41827.84757946105, 47458.96726357547, 37471.38082639943, 50594.648789721585, 22714.759137005705, 27707.78122041002, -9003.68499799788, -4155.524570408413, -0.125, 0.972, 0.28800000000000003, 192.0, 0.0, 0.0, 0.0, 0.0, 0.0, 0.0, 0.0, 0.0, 0.0, 1.7068834040887628E9, 0.0, 2024-02-02 15:16:44.088
88.0, 63956.052238470584, 65787.64358611628, -29736.64906461824, -16437.025837543708, 16456.807131386653, 4945.792847370249, 22416.00572061607, 4740.447371059343, 41823.824265459094, 47463.01292932188, 37469.883259520924, 50593.30768505427, 22707.986558435747, 27709.457601244165, -9007.663608510926, -4154.809314585843, -0.1295, 0.975, 0.281, 192.0, 125.5, 104.0, 15.0, 72.0, 4.0, 72.0, 0.0, 0.0, 0.0, 1.70688340409778E9, 0.0, 2024-02-02 15:16:44.097
90.0, 63964.50119787469, 65796.96426355414, -29725.98728251306, -16428.934506050886, 16466.843064647088, 4953.861827118615, 22425.594618987398, 4748.203426385335, 41818.54925376764, 47454.876894340145, 37473.593649100505, 50592.72653969843, 22713.68625327185, 27707.66946168774, -9006.769538732713, -4153.91524480763, -0.1295, 0.975, 0.281, 192.0, 0.0, 0.0, 0.0, 0.0, 0.0, 0.0, 0.0, 0.0, 0.0, 1.7068834041049435E9, 0.0, 2024-02-02 15:16:44.104
92.0, 63961.12608446194, 65792.87389431881, -29731.73168083807, -16435.729436365298, 16457.45533197586, 4943.110638035612, 22416.20688631617, 4741.810827471117, 41820.80677995763, 47467.885609613135, 37475.73941656821, 50599.99085664641, 22721.062328942102, 27707.267130287546, -9003.752053231246, -4150.58483488379, -0.1295, 0.975, 0.281, 192.0, 0.0, 0.0, 0.0, 0.0, 0.0, 0.0, 0.0, 0.0, 0.0, 1.7068834041127887E9, 0.0, 2024-02-02 15:16:44.112
94.0, 63978.76161083718, 65807.46958344812, -29716.219570186087, -16421.20080246935, 16471.11224783805, 4958.309824265221, 22428.656807977775, 4754.171342154902, 41820.069172390606, 47459.81662986477, 37481.215593959765, 50602.20367934748, 22718.91656147439, 27703.62379594133, -9002.343893330562, -4153.937596552086, -0.1295, 0.975, 0.281, 192.0, 0.0, 0.0, 0.0, 0.0, 0.0, 0.0, 0.0, 0.0, 0.0, 1.7068834041218464E9, 0.0, 2024-02-02 15:16:44.121
96.0, 63973.531302634634, 65803.35686246835, -29724.623826101284, -16429.560354895635, 16459.24347153228, 4947.7374491378605, 22411.289502536, 4742.07904840458, 41828.18285562788, 47465.359862489684, 37492.749094098705, 50613.29014459731, 22728.930142990368, 27711.37985126732, -8995.347797316052, -4147.34383193777, -0.1295, 0.975, 0.281, 192.0, 0.0, 0.0, 0.0, 0.0, 0.0, 0.0, 0.0, 0.0, 0.0, 1.7068834041298528E9, 0.0, 2024-02-02 15:16:44.129
98.0, 63968.68097408784, 65797.8359815879, -29733.519820394496, -16436.154119509953, 16453.25320401826, 4945.055239803224, 22407.75792691206, 4738.256900102723, 41817.69988747834, 47461.6494729101, 37479.78508231462, 50601.66723748056, 22719.54241031914, 27705.635452942308, -9007.864774211022, -4155.412811686136, -0.13075, 0.9755, 0.2775, 192.0, 125.5, 112.0, 15.0, 64.0, 4.0, 72.0, 0.0, 0.0, 0.0, 1.706883404137144E9, 0.0, 2024-02-02 15:16:44.137
100.0, 63977.30874744758, 65805.81555435843, -29725.02615750148, -16428.375712439505, 16464.45142799037, 4952.051335817735, 22426.779261443528, 4750.528007808686, 41811.68726821987, 47453.08875478373, 37479.740378825714, 50603.83535669272, 22716.30140737312, 27698.66170867225, -9003.908515442434, -4151.925939551108, -0.13075, 0.9755, 0.2775, 192.0, 0.0, 0.0, 0.0, 0.0, 0.0, 0.0, 0.0, 0.0, 0.0, 1.7068834041448565E9, 0.0, 2024-02-02 15:16:44.144
102.0, 63973.77717182365, 65804.67561539121, -29725.070860990392, -16430.25325897375, 16464.11615182354, 4951.537245695263, 22425.169935842747, 4749.030440930181, 41815.71058222182, 47465.11399330068, 37484.903631794885, 50611.68081899653, 22723.051634198622, 27715.403165269276, -8997.471213039305, -4147.097962748761, -0.13075, 0.9755, 0.2775, 192.0, 0.0, 0.0, 0.0, 0.0, 0.0, 0.0, 0.0, 0.0, 0.0, 1.7068834041538486E9, 0.0, 2024-02-02 15:16:44.153
104.0, 63978.515741648174, 65807.96132182614, -29716.644253330738, -16426.364055438527, 16468.273576292228, 4955.515856208308, 22431.137851612315, 4751.578539798086, 41810.413218785914, 47457.134420530136, 37485.90946029538, 50608.708036983975, 22726.02441621118, 27706.171894809235, -8995.571314760604, -4150.473076161513, -0.13075, 0.9755, 0.2775, 192.0, 0.0, 0.0, 0.0, 0.0, 0.0, 0.0, 0.0, 0.0, 0.0, 1.7068834041610875E9, 0.0, 2024-02-02 15:16:44.161
106.0, 63973.531302634634, 65802.0381095455, -29724.579122612373, -16436.19882299886, 16460.29400352168, 4945.032888058769, 22422.644188719296, 4741.028516415181, 41816.0235066442, 47462.56589443277, 37492.391466187415, 50613.91599344206, 22732.148794191933, 27712.743307679095, -8989.156364101931, -4142.6276138577, -0.13075, 0.9755, 0.2775, 192.0, 0.0, 0.0, 0.0, 0.0, 0.0, 0.0, 0.0, 0.0, 0.0, 1.706883404168914E9, 0.0, 2024-02-02 15:16:44.168
108.0, 63979.87919805994, 65809.97297882712, -29719.281759176465, -16425.604096127045, 16469.74879142628, 4951.805466628726, 22429.81909868945, 4748.60575778553, 41807.50749200672, 47465.73984214543, 37484.27778295014, 50610.96556317396, 22729.01954996819, 27702.975595352127, -8995.884239182978, -4148.215549971527, -0.12837500000000002, 0.97375, 0.27675000000000005, 192.0, 126.0, 8.0, 15.0, 48.0, 4.0, 80.0, 0.0, 0.0, 0.0, 1.70688340417788E9, 0.0, 2024-02-02 15:16:44.177
110.0, 63978.62750037045, 65809.61535091583, -29722.142782466744, -16430.4767764183, 16464.674945434923, 4944.831722358671, 22417.14565958329, 4740.693240248352, 41804.78057918317, 47458.810801364285, 37487.004695773685, 50613.2454411084, 22731.21002092481, 27700.38279299531, -8995.504259527237, -4149.310785449838, -0.12837500000000002, 0.97375, 0.27675000000000005, 192.0, 0.0, 0.0, 0.0, 0.0, 0.0, 0.0, 0.0, 0.0, 0.0, 1.7068834041858938E9, 0.0, 2024-02-02 15:16:44.185
112.0, 63975.721773591256, 65807.60369391486, -29725.473192390586, -16432.890764819476, 16455.264861019237, 4939.020268800291, 22409.657825190763, 4733.808902956117, 41807.17221583989, 47473.71941491597, 37488.681076607834, 50617.20169987699, 22727.678445300873, 27707.892979132295, -9000.287532840674, -4149.86957906122, -0.12837500000000002, 0.97375, 0.27675000000000005, 192.0, 0.0, 0.0, 0.0, 0.0, 0.0, 0.0, 0.0, 0.0, 0.0, 1.7068834041933112E9, 0.0, 2024-02-02 15:16:44.193
114.0, 63988.66343363088, 65819.22660103162, -29714.096154462834, -16420.843174558064, 16466.485436735802, 4955.158228297023, 22422.82300267494, 4748.829275230083, 41805.27231756119, 47468.73497590244, 37493.26318422117, 50617.13464464363, 22729.533640090664, 27706.551874464974, -8996.331274072085, -4148.506122649446, -0.12837500000000002, 0.97375, 0.27675000000000005, 192.0, 0.0, 0.0, 0.0, 0.0, 0.0, 0.0, 0.0, 0.0, 0.0, 1.706883404201027E9, 0.0, 2024-02-02 15:16:44.201
116.0, 63983.835456828536, 65813.39279572878, -29715.571369596884, -16423.592439126067, 16467.178340813916, 4952.476018962386, 22428.00860738857, 4751.51148456472, 41807.060457117615, 47474.36761550517, 37496.28066972264, 50619.056894666785, 22740.93302976287, 27712.653900701276, -8991.235076336274, -4142.091171990773, -0.12837500000000002, 0.97375, 0.27675000000000005, 192.0, 0.0, 0.0, 0.0, 0.0, 0.0, 0.0, 0.0, 0.0, 0.0, 1.7068834042099771E9, 0.0, 2024-02-02 15:16:44.209
118.0, 63983.56723589507, 65820.56770569894, -29711.2127794281, -16419.34560767956, 16478.443620019392, 4961.930806866981, 22436.5469737705, 4760.22866490229, 41804.80293092763, 47482.34718827572, 37493.017315032164, 50617.40286557709, 22741.044788485146, 27712.542141978996, -8988.485811768272, -4143.476980147002, -0.1291875, 0.971875, 0.27637500000000004, 192.0, 125.5, 120.0, 15.0, 40.0, 4.0, 80.0, 0.0, 0.0, 0.0, 1.7068834042169652E9, 0.0, 2024-02-02 15:16:44.216
120.0, 63980.125067248955, 65819.80774638745, -29714.45378237412, -16420.127918735496, 16471.089896093596, 4961.170847555501, 22432.233087090623, 4756.428868344888, 41803.193605326844, 47475.798127150316, 37498.13586451243, 50619.39217083361, 22741.916506518904, 27720.186438582714, -8984.618959977504, -4138.090209733273, -0.1291875, 0.971875, 0.27637500000000004, 192.0, 0.0, 0.0, 0.0, 0.0, 0.0, 0.0, 0.0, 0.0, 0.0, 1.7068834042250695E9, 0.0, 2024-02-02 15:16:44.225
122.0, 63973.28543344563, 65813.12457479532, -29723.774459811983, -16429.91798280692, 16457.924718609418, 4947.826856115682, 22412.965883370147, 4741.475551304287, 41802.724218693285, 47482.861278398195, 37494.693695866314, 50617.62638302164, 22740.88832627396, 27715.805496669473, -8993.671416481902, -4141.197102212561, -0.1291875, 0.971875, 0.27637500000000004, 192.0, 0.0, 0.0, 0.0, 0.0, 0.0, 0.0, 0.0, 0.0, 0.0, 1.7068834042341523E9, 0.0, 2024-02-02 15:16:44.234
124.0, 63973.73246833473, 65814.21981027363, -29722.008672000014, -16426.051131016153, 16460.584576199602, 4948.45270496043, 22422.73359569712, 4745.476513561787, 41791.14601506544, 47466.52215320136, 37489.50809115268, 50609.51269978437, 22730.226544168778, 27706.820095398438, -9001.49452704126, -4150.540131394879, -0.1291875, 0.971875, 0.27637500000000004, 192.0, 0.0, 0.0, 0.0, 0.0, 0.0, 0.0, 0.0, 0.0, 0.0, 1.7068834042410035E9, 0.0, 2024-02-02 15:16:44.241
126.0, 63981.13089574944, 65825.57449645693, -29709.089363704847, -16414.741148321766, 16473.369774028037, 4956.946367853448, 22438.804499960483, 4757.412345100921, 41793.24707904424, 47472.93710386004, 37496.61594588947, 50618.4981010554, 22737.110881461012, 27711.849237900882, -8992.173849603398, -4143.409924913636, -0.1291875, 0.971875, 0.27637500000000004, 192.0, 0.0, 0.0, 0.0, 0.0, 0.0, 0.0, 0.0, 0.0, 0.0, 1.7068834042490237E9, 0.0, 2024-02-02 15:16:44.249
128.0, 63971.98903226722, 65817.50551670857, -29717.851247531325, -16421.178450724896, 16465.92664312442, 4948.40800147152, 22423.605313730874, 4742.839007716061, 41791.90597437692, 47480.22377255247, 37496.459483678285, 50622.767284246365, 22747.772663566193, 27714.95613038017, -8989.581047246582, -4142.538206879879, -0.12759375, 0.9759375, 0.27718750000000003, 192.0, 126.0, 8.0, 15.0, 80.0, 4.0, 88.0, 0.0, 0.0, 0.0, 1.7068834042572353E9, 0.0, 2024-02-02 15:16:44.257
130.0, 63976.61584336947, 65818.37723474232, -29718.11946846479, -16419.01033151273, 16467.334803025104, 4950.8443416171485, 22423.2923893085, 4744.962423439315, 41782.093558561035, 47463.23644676643, 37489.77631208614, 50613.91599344206, 22739.524869862184, 27704.271996530533, -8999.102890384542, -4148.684936605088, -0.12759375, 0.9759375, 0.27718750000000003, 192.0, 0.0, 0.0, 0.0, 0.0, 0.0, 0.0, 0.0, 0.0, 0.0, 1.706883404266022E9, 0.0, 2024-02-02 15:16:44.266
132.0, 63968.926843276844, 65811.35878698334, -29726.613131357808, -16428.934506050886, 16461.098666322072, 4944.004707813824, 22412.29533103649, 4738.905100691927, 41789.60374469802, 47477.27334228437, 37490.916251053364, 50614.96652543146, 22742.45294838583, 27709.502304733076, -8999.348759573551, -4145.220416214516, -0.12759375, 0.9759375, 0.27718750000000003, 192.0, 0.0, 0.0, 0.0, 0.0, 0.0, 0.0, 0.0, 0.0, 0.0, 1.7068834042730138E9, 0.0, 2024-02-02 15:16:44.273
134.0, 63978.80631432609, 65821.39472024378, -29717.851247531325, -16420.61965711351, 16472.341593783094, 4955.560559697218, 22432.05427313498, 4753.031403187681, 41787.52503246368, 47465.18104853405, 37485.395370172904, 50609.06566489526, 22741.469471629796, 27704.3390517639, -9000.913381685423, -4146.561520881834, -0.12759375, 0.9759375, 0.27718750000000003, 192.0, 0.0, 0.0, 0.0, 0.0, 0.0, 0.0, 0.0, 0.0, 0.0, 1.706883404281279E9, 0.0, 2024-02-02 15:16:44.281
136.0, 63973.598357868, 65816.03030157452, -29721.02519524398, -16427.14636649446, 16467.893596636488, 4948.922091593992, 22427.136889354813, 4750.773876997695, 41800.556099481124, 47469.74080440293, 37489.06105626358, 50612.84310970821, 22746.25274494323, 27712.363328023355, -8996.577143261093, -4145.0863057477845, -0.12759375, 0.9759375, 0.27718750000000003, 192.0, 0.0, 0.0, 0.0, 0.0, 0.0, 0.0, 0.0, 0.0, 0.0, 1.706883404289058E9, 0.0, 2024-02-02 15:16:44.289
138.0, 63979.00748002619, 65821.66294117724, -29718.41004114271, -16424.240639715274, 16468.586500714602, 4951.0231555727905, 22433.64124699131, 4754.551321810642, 41812.82720718708, 47477.318045773274, 37486.311791695574, 50612.418426563556, 22739.413111139907, 27707.043612842994, -8999.885201440478, -4147.634404615689, -0.125796875, 0.97796875, 0.28059375000000003, 192.0, 126.0, 16.0, 15.0, 80.0, 4.0, 112.0, 0.0, 0.0, 0.0, 1.706883404297058E9, 0.0, 2024-02-02 15:16:44.297
140.0, 63983.85780857299, 65824.25574353406, -29714.431430629666, -16423.30186644815, 16468.653555947967, 4949.458533460919, 22434.06593013596, 4756.764144511717, 41833.56962604161, 47474.99346434992, 37497.95705055679, 50619.83920572272, 22741.201250696333, 27716.878380403326, -8988.73168095728, -4140.1018667342505, -0.125796875, 0.97796875, 0.28059375000000003, 192.0, 0.0, 0.0, 0.0, 0.0, 0.0, 0.0, 0.0, 0.0, 0.0, 1.7068834043053193E9, 0.0, 2024-02-02 15:16:44.305
142.0, 63980.1027155045, 65819.56187719844, -29723.282721433967, -16429.8285758291, 16454.951936596863, 4944.652908403028, 22417.279770050023, 4747.376411840488, 41842.24210289027, 47479.843792896725, 37485.66359110637, 50611.233784107426, 22732.64053256995, 27699.399316239276, -9003.103852642042, -4151.0765732618065, -0.125796875, 0.97796875, 0.28059375000000003, 192.0, 0.0, 0.0, 0.0, 0.0, 0.0, 0.0, 0.0, 0.0, 0.0, 1.706883404313064E9, 0.0, 2024-02-02 15:16:44.313
144.0, 63993.67022438887, 65832.74940642707, -29713.917340507192, -16419.43501465738, 16465.8372361466, 4955.940539352959, 22429.260305078067, 4755.89242647796, 41865.95730375735, 47490.326761046264, 37493.19612898781, 50619.21335687797, 22734.875707015482, 27714.933778635717, -8997.694730483858, -4144.05812550284, -0.125796875, 0.97796875, 0.28059375000000003, 192.0, 0.0, 0.0, 0.0, 0.0, 0.0, 0.0, 0.0, 0.0, 0.0, 1.706883404322113E9, 0.0, 2024-02-02 15:16:44.322
146.0, 63994.07255578906, 65834.67165645024, -29717.15834345321, -16422.29603794766, 16465.792532657688, 4950.911396850514, 22430.176726600734, 4752.5620165541195, 41890.588926147095, 47493.72422620347, 37499.67813487985, 50628.37757210465, 22738.25082042823, 27722.376909539333, -8991.59270424756, -4135.653869587644, -0.125796875, 0.97796875, 0.28059375000000003, 192.0, 0.0, 0.0, 0.0, 0.0, 0.0, 0.0, 0.0, 0.0, 0.0, 1.706883404328221E9, 0.0, 2024-02-02 15:16:44.328
148.0, 63997.13474477944, 65832.68235119371, -29720.89108477725, -16426.25229671625, 16464.07144833463, 4951.291376506255, 22417.793860172496, 4746.907025206927, 41906.01162982126, 47493.50070875892, 37497.33120171204, 50626.0976941702, 22732.327608147574, 27712.072755345438, -8997.314750828118, -4140.504198134447, -0.12789843750000002, 0.976984375, 0.283296875, 192.0, 125.5, 120.0, 15.0, 64.0, 4.0, 120.0, 0.0, 0.0, 0.0, 1.7068834043373923E9, 0.0, 2024-02-02 15:16:44.337
150.0, 63997.96175932429, 65829.2401825476, -29722.947445267135, -16429.850927573556, 16462.953861111862, 4946.888082848559, 22420.654883462776, 4745.834141473072, 41923.513045729764, 47484.85058365471, 37499.56637615757, 50622.2978976128, 22731.63470406946, 27711.44690650069, -8997.11358512802, -4144.415753414125, -0.12789843750000002, 0.976984375, 0.283296875, 192.0, 0.0, 0.0, 0.0, 0.0, 0.0, 0.0, 0.0, 0.0, 0.0, 1.7068834043451731E9, 0.0, 2024-02-02 15:16:44.345
152.0, 63991.658567387894, 65821.81940338844, -29733.810393072417, -16439.886860833987, 16452.24737551777, 4930.906585563014, 22414.28463629301, 4732.020763399692, 41929.123333588046, 47482.52600223136, 37487.54113764061, 50612.08315039673, 22720.72705277527, 27709.658766944263, -9006.434262565883, -4155.859846575242, -0.12789843750000002, 0.976984375, 0.283296875, 192.0, 0.0, 0.0, 0.0, 0.0, 0.0, 0.0, 0.0, 0.0, 0.0, 1.7068834043531861E9, 0.0, 2024-02-02 15:16:44.353
154.0, 64011.66337867539, 65839.61139197486, -29717.046584730935, -16420.239677457772, 16465.569015213136, 4949.4361817164645, 22423.650017219785, 4746.795266484651, 41944.23311283984, 47484.40354876561, 37498.31467846807, 50621.51558655687, 22729.108956946013, 27716.3419385364, -8999.415814806916, -4151.478904662002, -0.12789843750000002, 0.976984375, 0.283296875, 192.0, 0.0, 0.0, 0.0, 0.0, 0.0, 0.0, 0.0, 0.0, 0.0, 1.7068834043611712E9, 0.0, 2024-02-02 15:16:44.361
156.0, 64010.63519843045, 65838.40439777427, -29714.096154462834, -16415.188183210874, 16466.64189894699, 4954.018289329802, 22428.43329053322, 4752.517313065209, 41961.06397641468, 47500.25093558442, 37510.8540071075, 50635.127798930145, 22738.094358217044, 27730.33413056542, -8986.854134423034, -4137.374953910703, -0.12789843750000002, 0.976984375, 0.283296875, 192.0, 0.0, 0.0, 0.0, 0.0, 0.0, 0.0, 0.0, 0.0, 0.0, 1.7068834043692265E9, 0.0, 2024-02-02 15:16:44.369
158.0, 64010.0093495857, 65838.15852858526, -29714.006747485015, -16412.975360509798, 16469.435867003904, 4956.991071342358, 22433.998874902594, 4754.663080532919, 41957.75591823529, 47502.62022049668, 37502.874434336954, 50632.825569251254, 22730.472413357784, 27724.656787473774, -8988.8210879351, -4138.2243202000045, -0.12794921875, 0.9754921875, 0.2836484375, 192.0, 126.0, 0.0, 15.0, 56.0, 4.0, 112.0, 0.0, 0.0, 0.0, 1.7068834043784137E9, 0.0, 2024-02-02 15:16:44.378
160.0, 64006.09779430602, 65832.48118549361, -29718.857076031814, -16415.143479721963, 16465.904291379964, 4952.073687562191, 22428.00860738857, 4747.287004862667, 41963.2544473713, 47492.74074944744, 37505.958975071786, 50629.69632502751, 22729.488936601752, 27729.015377642558, -8983.702538454836, -4132.636384086178, -0.12794921875, 0.9754921875, 0.2836484375, 192.0, 0.0, 0.0, 0.0, 0.0, 0.0, 0.0, 0.0, 0.0, 0.0, 1.7068834043843064E9, 0.0, 2024-02-02 15:16:44.384
162.0, 64004.77904138315, 65830.40247325927, -29727.03781450246, -16420.06086350213, 16454.639012174488, 4947.424524715487, 22410.887171135804, 4737.452237302332, 41965.93665670594, 47495.959400649, 37501.980364558745, 50626.611784292676, 22721.84463999804, 27726.355520052377, -8991.704462969836, -4139.297203933859, -0.12794921875, 0.9754921875, 0.2836484375, 192.0, 0.0, 0.0, 0.0, 0.0, 0.0, 0.0, 0.0, 0.0, 0.0, 1.7068834043932154E9, 0.0, 2024-02-02 15:16:44.393
164.0, 64014.63616068794, 65839.18670883021, -29716.77836379747, -16410.002578497242, 16469.145294325983, 4957.751030653838, 22430.132023111826, 4751.779705498184, 41968.21653464038, 47489.94678139053, 37503.54498667061, 50626.27650812585, 22713.64154978294, 27722.600426983885, -8994.58783800457, -4144.885140047686, -0.12794921875, 0.9754921875, 0.2836484375, 192.0, 0.0, 0.0, 0.0, 0.0, 0.0, 0.0, 0.0, 0.0, 0.0, 1.7068834044012444E9, 0.0, 2024-02-02 15:16:44.401
166.0, 64010.255218774706, 65835.25280180607, -29721.628692344275, -16415.9257907779, 16465.434904746402, 4950.486713705864, 22423.62766547533, 4745.074182161592, 41983.2592586588, 47502.73197921896, 37514.31852749807, 50639.955775732495, 22733.266381414698, 27735.832659701427, -8978.382823274473, -4134.648041087155, -0.12794921875, 0.9754921875, 0.2836484375, 192.0, 0.0, 0.0, 0.0, 0.0, 0.0, 0.0, 0.0, 0.0, 0.0, 1.7068834044094007E9, 0.0, 2024-02-02 15:16:44.409
168.0, 64013.49622172073, 65836.16922332875, -29720.086421976855, -16419.278552446194, 16471.44752400488, 4950.799638128238, 22429.372063800343, 4744.515388550209, 41976.17375566647, 47497.34520880523, 37501.71214362528, 50626.79059824832, 22724.996235966235, 27717.414822270253, -8991.883276925479, -4148.7296400939995, -0.126974609375, 0.97674609375, 0.28482421875, 192.0, 126.0, 8.0, 15.0, 72.0, 4.0, 120.0, 0.0, 0.0, 0.0, 1.7068834044162617E9, 0.0, 2024-02-02 15:16:44.416
170.0, 64018.48066073426, 65838.71732219665, -29715.526666107973, -16411.254276186737, 16477.527198496726, 4958.443934731953, 22433.86476443586, 4751.399725842443, 41988.80249128371, 47494.75240644842, 37512.597443175015, 50633.54082507382, 22735.97094249379, 27728.814211942463, -8978.651044207936, -4138.894872533664, -0.126974609375, 0.97674609375, 0.28482421875, 192.0, 0.0, 0.0, 0.0, 0.0, 0.0, 0.0, 0.0, 0.0, 0.0, 1.7068834044252505E9, 0.0, 2024-02-02 15:16:44.425
172.0, 64006.76834663968, 65825.52979296801, -29733.206895972122, -16425.35822693804, 16458.707029665355, 4943.3341554801655, 22417.3915287723, 4737.1840163688685, 41987.2602209163, 47499.490976272944, 37502.740323870225, 50629.29399362731, 22723.096337687533, 27724.63443572932, -8987.390576289961, -4142.515855135423, -0.126974609375, 0.97674609375, 0.28482421875, 192.0, 0.0, 0.0, 0.0, 0.0, 0.0, 0.0, 0.0, 0.0, 0.0, 1.706883404433522E9, 0.0, 2024-02-02 15:16:44.433
174.0, 64008.44472747383, 65825.03805459, -29730.859962804316, -16423.637142614978, 16460.092837821583, 4947.201007270934, 22415.491630493598, 4738.435714058365, 41980.97938072436, 47483.263609798385, 37492.34676269851, 50615.19004287601, 22713.082756171556, 27717.414822270253, -8999.415814806916, -4152.462381418036, -0.126974609375, 0.97674609375, 0.28482421875, 192.0, 0.0, 0.0, 0.0, 0.0, 0.0, 0.0, 0.0, 0.0, 0.0, 1.706883404440318E9, 0.0, 2024-02-02 15:16:44.440
176.0, 64002.72268089327, 65816.20911553015, -29731.016425015503, -16427.101663005553, 16458.572919198625, 4945.5022746923305, 22419.604351473376, 4737.966327424804, 41991.97643899637, 47488.91860114558, 37498.2476232347, 50619.1463016446, 22719.318892874588, 27721.080508360927, -8989.11166061302, -4142.649965602156, -0.126974609375, 0.97674609375, 0.28482421875, 192.0, 0.0, 0.0, 0.0, 0.0, 0.0, 0.0, 0.0, 0.0, 0.0, 1.7068834044493191E9, 0.0, 2024-02-02 15:16:44.449
178.0, 64008.020044329176, 65819.65128417627, -29725.763765068506, -16422.698369347854, 16467.24539604728, 4952.543074195752, 22431.62958999033, 4746.437638573366, 41990.32240990668, 47484.7611766769, 37491.56445164257, 50613.2454411084, 22713.14981140492, 27716.58780772541, -8994.16315485992, -4148.282605204893, -0.126974609375, 0.97674609375, 0.28482421875, 192.0, 0.0, 0.0, 0.0, 0.0, 0.0, 0.0, 0.0, 0.0, 0.0, 1.7068834044573038E9, 0.0, 2024-02-02 15:16:44.457
180.0, 64005.069614061074, 65819.8300981319, -29728.960064525614, -16423.234811214785, 16464.65259369047, 4949.369126483099, 22423.515906753055, 4743.777780983184, 42000.984192011856, 47480.402586508106, 37501.24275699172, 50621.20266213449, 22718.98361670776, 27722.645130472796, -8984.663663466414, -4138.29137543337, -0.13, 0.978, 0.28800000000000003, 192.0, 125.5, 120.0, 15.0, 72.0, 4.5, 0.0, 0.0, 0.0, 0.0, 1.7068834044657E9, 0.0, 2024-02-02 15:16:44.465
182.0, 63999.57108492507, 65818.15371729777, -29732.55869538292, -16428.48747116178, 16461.366887255535, 4945.904606092526, 22422.73359569712, 4742.146103637946, 42003.68875309095, 47492.83015642526, 37499.63343139093, 50622.141435401616, 22717.44134634034, 27722.175743839234, -8990.363358302517, -4139.34190742277, -0.13, 0.978, 0.28800000000000003, 192.0, 0.0, 0.0, 0.0, 0.0, 0.0, 0.0, 0.0, 0.0, 0.0, 1.7068834044723463E9, 0.0, 2024-02-02 15:16:44.472
184.0, 63996.24067500123, 65813.61631317333, -29732.335177938367, -16429.314485706625, 16460.986907599796, 4943.669431646995, 22422.264209063556, 4740.536778037164, 41994.81511054219, 47473.94293236052, 37490.08923650852, 50607.43398755002, 22710.378195092464, 27705.501342475578, -8999.616980507015, -4152.082401762295, -0.13, 0.978, 0.28800000000000003, 192.0, 0.0, 0.0, 0.0, 0.0, 0.0, 0.0, 0.0, 0.0, 0.0, 1.7068834044813411E9, 0.0, 2024-02-02 15:16:44.481
186.0, 64002.43210821535, 65818.10901380885, -29728.44597440314, -16426.811090327632, 16463.423247745424, 4947.782152626772, 22416.318645038446, 4741.8778827044825, 42005.00750601381, 47486.50461274441, 37499.07463777955, 50617.648734766095, 22717.10607017351, 27720.655825216276, -8988.910494912923, -4143.834608058287, -0.13, 0.978, 0.28800000000000003, 192.0, 0.0, 0.0, 0.0, 0.0, 0.0, 0.0, 0.0, 0.0, 0.0, 1.7068834044883504E9, 0.0, 2024-02-02 15:16:44.488
188.0, 63999.57108492507, 65813.72807189562, -29730.994073271046, -16432.30961946364, 16466.708954180354, 4946.038716559257, 22425.77343294304, 4742.481379804776, 42007.57795662618, 47489.65620871261, 37496.884166822936, 50616.821720221255, 22716.2120003953, 27716.051365858482, -8988.888143168468, -4143.521683635912, -0.13, 0.978, 0.28800000000000003, 192.0, 0.0, 0.0, 0.0, 0.0, 0.0, 0.0, 0.0, 0.0, 0.0, 1.70688340449662E9, 0.0, 2024-02-02 15:16:44.496
190.0, 64002.38740472644, 65816.2314672746, -29732.022253515992, -16431.97434329681, 16464.473779734824, 4945.770495625794, 22421.124270096338, 4743.9342431943705, 42009.07552350468, 47476.08869982824, 37496.90651856739, 50610.36206607367, 22712.63572128245, 27714.665557702254, -8986.787079189668, -4143.499331891458, -0.128, 0.98, 0.278, 192.0, 126.0, 0.0, 15.0, 80.0, 4.0, 88.0, 0.0, 0.0, 0.0, 1.706883404505386E9, 0.0, 2024-02-02 15:16:44.505
192.0, 63997.42531745736, 65811.09056604988, -29735.330311695376, -16435.751788109756, 16466.038401846698, 4944.004707813824, 22424.56643874245, 4745.677679261885, 42008.85200606013, 47482.16837432008, 37490.62567837544, 50611.077321896235, 22710.44525032583, 27710.463429744654, -8989.357529802028, -4144.594567369767, -0.128, 0.98, 0.278, 192.0, 0.0, 0.0, 0.0, 0.0, 0.0, 0.0, 0.0, 0.0, 0.0, 1.7068834045135536E9, 0.0, 2024-02-02 15:16:44.513
194.0, 64007.9082856069, 65822.57936269991, -29723.640349345253, -16421.91605829192, 16474.82263741763, 4957.728678909383, 22436.72578772614, 4759.625167801996, 42007.779122326276, 47478.34622601822, 37491.87737606494, 50613.334848086226, 22709.193552636334, 27711.536313478508, -8982.361433787517, -4136.659698088133, -0.128, 0.98, 0.278, 192.0, 0.0, 0.0, 0.0, 0.0, 0.0, 0.0, 0.0, 0.0, 0.0, 1.7068834045204113E9, 0.0, 2024-02-02 15:16:44.520
196.0, 64008.73530015175, 65823.04874933348, -29725.942579024148, -16424.128880992994, 16470.620509460034, 4953.1689230405, 22430.713168467664, 4753.031403187681, 42021.391334699554, 47489.633856968154, 37503.61204190398, 50627.03646743733, 22722.02345395368, 27730.82586894344, -8974.337157528062, -4123.807445026332, -0.128, 0.98, 0.278, 192.0, 0.0, 0.0, 0.0, 0.0, 0.0, 0.0, 0.0, 0.0, 0.0, 1.7068834045283885E9, 0.0, 2024-02-02 15:16:44.528
198.0, 64004.53317219415, 65815.31504575194, -29735.03973901746, -16428.889802561975, 16464.853759390564, 4946.55280668173, 22413.234104303614, 4738.4133623139105, 42013.925852051485, 47488.20334532301, 37495.76657960017, 50620.867385967664, 22712.97099744928, 27722.175743839234, -8988.530515257182, -4138.447837644558, -0.128, 0.98, 0.278, 192.0, 0.0, 0.0, 0.0, 0.0, 0.0, 0.0, 0.0, 0.0, 0.0, 1.7068834045373995E9, 0.0, 2024-02-02 15:16:44.537
200.0, 64011.75278565321, 65822.60171444438, -29725.808468557414, -16420.373787924505, 16475.202617073373, 4954.465324218908, 22430.10967136737, 4749.142199652458, 42012.718857850894, 47479.3073510298, 37498.694658123815, 50621.6496970236, 22713.82036373858, 27719.158258337768, -8986.63061697848, -4142.2699859464155, -0.128, 0.974, 0.28, 192.0, 126.0, 0.0, 15.0, 56.0, 4.0, 96.0, 0.0, 0.0, 0.0, 1.7068834045444663E9, 0.0, 2024-02-02 15:16:44.544
202.0, 64000.129878536456, 65813.59396142888, -29733.519820394496, -16429.940334551375, 16467.24539604728, 4943.557672924719, 22426.086357365413, 4741.98964142676, 42014.57405264069, 47497.07698787177, 37499.56637615757, 50625.02481043635, 22716.25670388421, 27724.701490962685, -8984.261332066219, -4138.805465555843, -0.128, 0.974, 0.28, 192.0, 0.0, 0.0, 0.0, 0.0, 0.0, 0.0, 0.0, 0.0, 0.0, 1.706883404552778E9, 0.0, 2024-02-02 15:16:44.552
204.0, 64003.750861138215, 65815.94089459669, -29730.278817448478, -16424.799433326654, 16470.821675160132, 4947.223359015388, 22429.95320915618, 4745.185940883868, 42001.11830247859, 47481.27430454187, 37493.307887710085, 50612.86546145266, 22706.60075027952, 27715.313758291457, -8987.211762334318, -4143.767552824921, -0.128, 0.974, 0.28, 192.0, 0.0, 0.0, 0.0, 0.0, 0.0, 0.0, 0.0, 0.0, 0.0, 1.7068834045604773E9, 0.0, 2024-02-02 15:16:44.560
206.0, 64001.314520992586, 65816.20911553015, -29727.618959858297, -16419.323255935105, 16469.145294325983, 4950.129085794579, 22429.036787633515, 4746.951728695837, 42003.442883901946, 47487.21986856698, 37500.5498529136, 50622.65552552409, 22708.791221236137, 27731.295255577, -8980.752108186736, -4133.508102119935, -0.128, 0.974, 0.28, 192.0, 0.0, 0.0, 0.0, 0.0, 0.0, 0.0, 0.0, 0.0, 0.0, 1.7068834045694752E9, 0.0, 2024-02-02 15:16:44.569
208.0, 64005.360186738995, 65821.99821734408, -29724.199142956633, -16415.85873554453, 16471.939262382897, 4951.7831148842715, 22429.282656822525, 4750.3938973419545, 41997.45261638792, 47490.192650579535, 37499.99105930222, 50623.661354024574, 22704.96907293428, 27723.449793273187, -8985.982416389277, -4137.352602166248, -0.128, 0.974, 0.28, 192.0, 0.0, 0.0, 0.0, 0.0, 0.0, 0.0, 0.0, 0.0, 0.0, 1.7068834045767455E9, 0.0, 2024-02-02 15:16:44.576
210.0, 64010.23286703025, 65825.9321243682, -29719.952311510126, -16414.472927388302, 16476.07433510713, 4954.442972474453, 22431.38372080132, 4755.13246716648, 41997.85494778812, 47486.79518542233, 37504.841387849025, 50624.242499380416, 22710.266436370188, 27727.741328208605, -8985.0212913777, -4138.090209733273, -0.126, 0.976, 0.27, 192.0, 126.0, 8.0, 15.0, 64.0, 4.0, 56.0, 0.0, 0.0, 0.0, 1.7068834045846555E9, 0.0, 2024-02-02 15:16:44.584
212.0, 64011.2610472752, 65826.80384240196, -29718.45474463162, -16417.132784978483, 16476.29785255168, 4955.135876552567, 22435.518793525553, 4757.993490456759, 42004.94045078045, 47501.815557696296, 37509.33408848454, 50628.22110989346, 22721.665826042394, 27738.671331247253, -8979.142782585954, -4135.251538187449, -0.126, 0.976, 0.27, 192.0, 0.0, 0.0, 0.0, 0.0, 0.0, 0.0, 0.0, 0.0, 0.0, 1.7068834045934887E9, 0.0, 2024-02-02 15:16:44.593
214.0, 64005.226076272265, 65818.15371729777, -29723.774459811983, -16421.379616424994, 16475.090858351097, 4951.827818373182, 22435.407034803276, 4757.188827656368, 41995.97740125387, 47487.97982787846, 37504.684925637834, 50624.77894124734, 22714.602674794518, 27727.182534597225, -8982.562599487615, -4142.9181865356195, -0.126, 0.976, 0.27, 192.0, 0.0, 0.0, 0.0, 0.0, 0.0, 0.0, 0.0, 0.0, 0.0, 1.7068834046006289E9, 0.0, 2024-02-02 15:16:44.600
216.0, 63999.39227096943, 65812.76694688403, -29726.859000546814, -16425.514689149226, 16469.905253637466, 4945.3905159700535, 22427.829793432928, 4754.707784021829, 41992.06584597419, 47484.78352842135, 37501.91330932538, 50619.615688278165, 22712.859238727004, 27717.57128448144, -8983.9707593883, -4144.952195281052, -0.126, 0.976, 0.27, 192.0, 0.0, 0.0, 0.0, 0.0, 0.0, 0.0, 0.0, 0.0, 0.0, 1.7068834046085095E9, 0.0, 2024-02-02 15:16:44.608
218.0, 64006.0083873282, 65818.55604869795, -29724.757936568018, -16420.262029202226, 16475.180265328916, 4953.392440485053, 22430.981389401128, 4758.775801512695, 41990.300058162225, 47487.3092755448, 37495.36424819997, 50616.12881614314, 22705.81843922358, 27717.34776703689, -8988.262294323718, -4147.433238915592, -0.126, 0.976, 0.27, 192.0, 0.0, 0.0, 0.0, 0.0, 0.0, 0.0, 0.0, 0.0, 0.0, 1.7068834046166253E9, 0.0, 2024-02-02 15:16:44.616
220.0, 64005.53900069464, 65816.29852250798, -29722.45570688912, -16419.993808268762, 16478.30950955266, 4954.97941434138, 22432.076624879435, 4761.458010847332, 41997.92200302148, 47482.68246444255, 37501.75684711419, 50622.342601101715, 22716.25670388421, 27725.081470618425, -8979.187486074863, -4138.090209733273, -0.126, 0.982, 0.268, 192.0, 126.0, 8.0, 15.0, 88.0, 4.0, 48.0, 0.0, 0.0, 0.0, 1.7068834046256728E9, 0.0, 2024-02-02 15:16:44.625
222.0, 64003.10266054901, 65814.13040329581, -29726.88135229127, -16421.11139549153, 16470.866378649043, 4948.765629382805, 22422.554781741477, 4756.741792767262, 41995.97740125387, 47492.62899072516, 37495.386599944424, 50617.447569066, 22714.62502653897, 27724.857953173872, -8985.0212913777, -4140.258328945438, -0.126, 0.982, 0.268, 192.0, 0.0, 0.0, 0.0, 0.0, 0.0, 0.0, 0.0, 0.0, 0.0, 1.706883404632566E9, 0.0, 2024-02-02 15:16:44.632
224.0, 64005.986035583745, 65818.7348626536, -29724.824991801383, -16418.987979768273, 16475.202617073373, 4953.951234096437, 22436.457566792677, 4762.888522492472, 41990.16594769549, 47484.470603998976, 37494.42547493285, 50615.45826380948, 22710.177029392366, 27723.62860722883, -8989.044605379655, -4143.074648746807, -0.126, 0.982, 0.268, 192.0, 0.0, 0.0, 0.0, 0.0, 0.0, 0.0, 0.0, 0.0, 0.0, 1.7068834046405752E9, 0.0, 2024-02-02 15:16:44.640
226.0, 63996.061861045586, 65811.64935966127, -29733.184544227668, -16429.49329966227, 16467.9383001254, 4943.736486880361, 22429.282656822525, 4753.523141565698, 41991.685866318454, 47488.67273195657, 37498.62760289045, 50622.99080169092, 22713.887418971946, 27726.48963051911, -8981.087384353565, -4139.654831845144, -0.126, 0.982, 0.268, 192.0, 0.0, 0.0, 0.0, 0.0, 0.0, 0.0, 0.0, 0.0, 0.0, 1.7068834046485846E9, 0.0, 2024-02-02 15:16:44.648
228.0, 64000.889837847935, 65815.91854285223, -29726.568427868897, -16424.508860648737, 16477.54955024118, 4952.855998618126, 22437.97748541564, 4759.893388735461, 41981.09113944664, 47483.24125805393, 37485.350666684, 50612.70899924148, 22703.985596178245, 27717.3924705258, -8992.173849603398, -4154.362279696737, -0.126, 0.982, 0.268, 192.0, 0.0, 0.0, 0.0, 0.0, 0.0, 0.0, 0.0, 0.0, 0.0, 1.7068834046568172E9, 0.0, 2024-02-02 15:16:44.656
230.0, 64001.98507332624, 65817.10318530837, -29725.294378434945, -16426.00642752724, 16476.029631618218, 4953.258330018321, 22432.277790579534, 4759.245188146257, 41989.96478199539, 47480.93902837503, 37496.168911000364, 50619.99566793391, 22713.57449454957, 27721.751060694583, -8980.863866909012, -4142.135875479684, -0.13, 0.986, 0.272, 192.0, 125.5, 120.0, 15.0, 104.0, 4.0, 64.0, 0.0, 0.0, 0.0, 1.706883404664626E9, 0.0, 2024-02-02 15:16:44.664
232.0, 63995.83834360103, 65811.55995268344, -29732.64810236074, -16430.901459562952, 16470.73226818231, 4947.223359015388, 22430.891982423305, 4753.791362499162, 41989.517747106285, 47487.73395868945, 37491.81032083158, 50616.79936847679, 22714.289750372143, 27726.176706096736, -8986.854134423034, -4143.454628402546, -0.13, 0.986, 0.272, 192.0, 0.0, 0.0, 0.0, 0.0, 0.0, 0.0, 0.0, 0.0, 0.0, 1.7068834046726377E9, 0.0, 2024-02-02 15:16:44.672
234.0, 63996.844172101526, 65810.19649627167, -29736.045567517947, -16433.069578775117, 16469.771143170732, 4945.658736903517, 22431.718996968153, 4752.5620165541195, 41984.130976692555, 47482.68246444255, 37490.08923650852, 50611.27848759633, 22705.55021829012, 27719.471182760142, -8988.77638444619, -4149.8472273167645, -0.13, 0.986, 0.272, 192.0, 0.0, 0.0, 0.0, 0.0, 0.0, 0.0, 0.0, 0.0, 0.0, 1.7068834046816518E9, 0.0, 2024-02-02 15:16:44.681
236.0, 63997.96175932429, 65813.37044398433, -29734.97268378409, -16431.192032240873, 16471.626337960523, 4945.971661325892, 22432.411901046267, 4754.41721134391, 41980.82291851317, 47481.520173730874, 37488.59166963001, 50611.05497015178, 22702.800953722115, 27720.879342660828, -8992.330311814585, -4153.065878518329, -0.13, 0.986, 0.272, 192.0, 0.0, 0.0, 0.0, 0.0, 0.0, 0.0, 0.0, 0.0, 0.0, 1.7068834046889155E9, 0.0, 2024-02-02 15:16:44.688
238.0, 63997.179448268354, 65814.66684516273, -29733.676282605684, -16426.274648460705, 16474.576768228624, 4951.7831148842715, 22434.06593013596, 4759.871036991005, 41983.013389469794, 47495.44531052653, 37491.87737606494, 50619.906260956086, 22712.83688698255, 27726.26611307456, -8983.68018671038, -4142.068820246318, -0.13, 0.986, 0.272, 192.0, 0.0, 0.0, 0.0, 0.0, 0.0, 0.0, 0.0, 0.0, 0.0, 1.706883404696695E9, 0.0, 2024-02-02 15:16:44.696
240.0, 64001.918018092874, 65819.69598766518, -29727.104869735824, -16422.8771833035, 16478.108343852564, 4951.827818373182, 22432.38954930181, 4758.641691045963, 41973.98328470985, 47483.196554565024, 37491.966783042764, 50619.39217083361, 22713.283921871654, 27722.667482217254, -8983.367262288006, -4145.622747614711, -0.126, 0.988, 0.272, 192.0, 126.0, 8.0, 15.0, 112.0, 4.0, 64.0, 0.0, 0.0, 0.0, 1.7068834047046995E9, 0.0, 2024-02-02 15:16:44.704
242.0, 64000.82278261457, 65819.87480162083, -29731.284645948966, -16428.465119417324, 16471.492227493793, 4944.719963636394, 22428.857973677874, 4752.94199620986, 41978.11835743408, 47500.22858383997, 37496.97357380075, 50624.48836856942, 22716.748442262226, 27733.48572653362, -8980.550942486638, -4144.840436558776, -0.126, 0.988, 0.272, 192.0, 0.0, 0.0, 0.0, 0.0, 0.0, 0.0, 0.0, 0.0, 0.0, 1.7068834047128103E9, 0.0, 2024-02-02 15:16:44.712
244.0, 64002.990901826735, 65819.00308358707, -29729.45180290363, -16424.888840304477, 16479.22593107533, 4950.799638128238, 22442.269020351057, 4760.94392072486, 41971.18931665293, 47487.3092755448, 37498.35938195698, 50622.409656335076, 22714.803840494616, 27718.934740893215, -8982.987282632266, -4147.768515082421, -0.126, 0.988, 0.272, 192.0, 0.0, 0.0, 0.0, 0.0, 0.0, 0.0, 0.0, 0.0, 0.0, 1.7068834047209442E9, 0.0, 2024-02-02 15:16:44.720
246.0, 63995.0560325451, 65813.41514747324, -29734.905628550725, -16430.700293862858, 16472.475704249824, 4942.484789190864, 22431.786052201518, 4751.667946775907, 41970.33995036363, 47487.532792989354, 37498.269974979165, 50624.3989615916, 22716.815497495594, 27726.91431366376, -8981.556770987127, -4143.968718525019, -0.126, 0.988, 0.272, 192.0, 0.0, 0.0, 0.0, 0.0, 0.0, 0.0, 0.0, 0.0, 0.0, 1.706883404728742E9, 0.0, 2024-02-02 15:16:44.728
248.0, 63999.95106458081, 65816.74555739708, -29731.12818373778, -16426.654628116445, 16471.291061793694, 4944.854074103127, 22425.460508520664, 4750.304490364134, 41964.05911017169, 47489.94678139053, 37493.46434992127, 50618.25223186639, 22711.853410226515, 27719.180610082225, -8990.609227491526, -4150.830704072798, -0.126, 0.988, 0.272, 192.0, 0.0, 0.0, 0.0, 0.0, 0.0, 0.0, 0.0, 0.0, 0.0, 1.7068834047377574E9, 0.0, 2024-02-02 15:16:44.737
250.0, 64011.59632344203, 65827.16147031325, -29716.085459719357, -16417.557468123134, 16484.143314855493, 4958.93567310997, 22445.375912830343, 4763.961406226326, 41969.1553079075, 47489.87972615716, 37506.27189949416, 50623.169615646555, 22716.770794006683, 27719.739403693606, -8978.248712807741, -4137.844340544265, -0.126, 0.98, 0.28400000000000003, 192.0, 126.0, 8.0, 15.0, 80.0, 4.0, 112.0, 0.0, 0.0, 0.0, 1.7068834047447422E9, 0.0, 2024-02-02 15:16:44.744
252.0, 63998.83347735804, 65813.75042364007, -29728.356567425322, -16428.86745081752, 16468.720611181332, 4946.7986758707375, 22422.39831953029, 4750.125676408491, 41969.71410151888, 47497.36756054969, 37507.81416986158, 50625.74006625892, 22723.968055721292, 27726.4449270302, -8976.661738951414, -4134.7597998094325, -0.126, 0.98, 0.28400000000000003, 192.0, 0.0, 0.0, 0.0, 0.0, 0.0, 0.0, 0.0, 0.0, 0.0, 1.7068834047529829E9, 0.0, 2024-02-02 15:16:44.752
254.0, 63995.637177900935, 65810.84469686088, -29731.530515137973, -16428.19689848386, 16472.721573438834, 4948.631518916073, 22432.25543883508, 4751.399725842443, 41952.615017010576, 47481.90015338662, 37495.65482087789, 50614.519490542356, 22711.048747426124, 27719.940569393704, -8985.669491966903, -4144.169884225116, -0.126, 0.98, 0.28400000000000003, 192.0, 0.0, 0.0, 0.0, 0.0, 0.0, 0.0, 0.0, 0.0, 0.0, 1.706883404760758E9, 0.0, 2024-02-02 15:16:44.760
0.0, 64000.24163725873, 65816.41028123024, -29728.535381380963, -16426.989904283273, 16481.863436921052, 4955.64996667504, 22440.63734300582, 4765.280159149189, 41953.97847342235, 47483.17420282057, 37498.94052731282, 50616.24057486541, 22717.463698084797, 27719.91821764925, -8978.695747696847, -4134.737448064977, -0.126, 0.98, 0.28400000000000003, 192.0, 0.0, 0.0, 0.0, 0.0, 0.0, 0.0, 0.0, 0.0, 0.0, 1.7068834047677815E9, 0.0, 2024-02-02 15:16:44.767
2.0, 63994.2066662558, 65809.28007474901, -29739.711253608617, -16441.607945157044, 16470.262881548748, 4946.083420048168, 22425.661674220763, 4755.646557288952, 41950.91628443197, 47484.738824932436, 37493.82197783256, 50610.22795560693, 22719.810631252603, 27717.414822270253, -8986.027119878188, -4142.046468501862, -0.126, 0.98, 0.28400000000000003, 192.0, 0.0, 0.0, 0.0, 0.0, 0.0, 0.0, 0.0, 0.0, 0.0, 1.7068834047768793E9, 0.0, 2024-02-02 15:16:44.776
4.0, 63998.498201191214, 65812.11874629483, -29734.615055872808, -16439.797453856165, 16472.565111227646, 4949.056202060724, 22428.366235299854, 4756.898254978449, 41945.23894134032, 47472.82534513776, 37494.31371621057, 50611.01026666287, 22716.167296906387, 27706.507170976067, -8988.441108279361, -4147.835570315787, -0.128, 0.98, 0.28400000000000003, 192.0, 126.0, 0.0, 15.0, 80.0, 4.0, 112.0, 0.0, 0.0, 0.0, 1.7068834047850215E9, 0.0, 2024-02-02 15:16:44.785
6.0, 63989.557503409094, 65808.72128113762, -29737.83370707437, -16438.12107302202, 16468.45239024787, 4943.870597347092, 22421.81717417445, 4750.550359553142, 41937.505237758785, 47479.419109752074, 37489.95512604179, 50610.40676956258, 22710.713471259292, 27712.25156930108, -8991.9726839033, -4150.6295383727, -0.128, 0.98, 0.28400000000000003, 192.0, 0.0, 0.0, 0.0, 0.0, 0.0, 0.0, 0.0, 0.0, 0.0, 1.7068834047928045E9, 0.0, 2024-02-02 15:16:44.792
8.0, 63995.86069534549, 65815.22563877412, -29731.083480248868, -16430.767349096222, 16475.26967230674, 4951.246673017344, 22430.15437485628, 4756.071240433603, 41930.77736267774, 47483.53183073185, 37494.76075109968, 50614.00540041988, 22709.908808458902, 27714.844371657895, -8986.563561745115, -4145.510988892435, -0.128, 0.98, 0.28400000000000003, 192.0, 0.0, 0.0, 0.0, 0.0, 0.0, 0.0, 0.0, 0.0, 0.0, 1.7068834048000736E9, 0.0, 2024-02-02 15:16:44.800
10.0, 63989.44574468682, 65806.82138285892, -29736.291436706953, -16440.49035793428, 16467.9383001254, 4940.182559511967, 22419.00085437308, 4745.118885650502, 41931.38085977803, 47481.69898768652, 37496.861815078475, 50613.29014459731, 22714.714433516794, 27716.833676914415, -8987.189410589865, -4145.801561570354, -0.128, 0.98, 0.28400000000000003, 192.0, 0.0, 0.0, 0.0, 0.0, 0.0, 0.0, 0.0, 0.0, 0.0, 1.7068834048091145E9, 0.0, 2024-02-02 15:16:44.809
12.0, 63989.602206898, 65808.45306020416, -29738.526611152487, -16442.502014935257, 16464.20555880136, 4940.5178356787965, 22416.653921205274, 4744.448333316843, 41924.697688185894, 47478.43563299604, 37489.61984987496, 50605.37762706014, 22711.607541037505, 27708.451772743676, -8996.420681049905, -4157.1785994981055, -0.128, 0.98, 0.28400000000000003, 192.0, 0.0, 0.0, 0.0, 0.0, 0.0, 0.0, 0.0, 0.0, 0.0, 1.7068834048171842E9, 0.0, 2024-02-02 15:16:44.817
14.0, 63992.73145112175, 65815.44915621867, -29730.479983148576, -16432.331971208092, 16468.385335014504, 4946.753972381827, 22418.598522972887, 4750.773876997695, 41920.83083639513, 47471.70775791499, 37493.82197783256, 50611.88198469663, 22713.64154978294, 27712.028051856527, -8994.654893237936, -4154.831666330298, -0.13, 0.98, 0.28, 192.0, 125.5, 120.0, 15.0, 80.0, 4.0, 96.0, 0.0, 0.0, 0.0, 1.7068834048238797E9, 0.0, 2024-02-02 15:16:44.823
16.0, 63995.0560325451, 65816.76790914153, -29730.3682244263, -16431.97434329681, 16470.01701235974, 4945.926957836981, 22425.549915498486, 4753.903121221438, 41925.10001958609, 47486.32579878876, 37500.013411046675, 50621.716752256965, 22718.938913218848, 27716.945435636695, -8986.094175111553, -4143.320517935815, -0.13, 0.98, 0.28, 192.0, 0.0, 0.0, 0.0, 0.0, 0.0, 0.0, 0.0, 0.0, 0.0, 1.7068834048331544E9, 0.0, 2024-02-02 15:16:44.833
18.0, 63990.02689004265, 65814.15275504027, -29737.163154740712, -16439.77510211171, 16465.434904746402, 4939.824931600682, 22410.373081013335, 4744.425981572388, 41914.214720036354, 47474.59113294973, 37494.44782667731, 50614.45243530899, 22709.595884036527, 27700.941586606692, -8993.805526948634, -4151.523608150913, -0.13, 0.98, 0.28, 192.0, 0.0, 0.0, 0.0, 0.0, 0.0, 0.0, 0.0, 0.0, 0.0, 1.706883404840881E9, 0.0, 2024-02-02 15:16:44.840
20.0, 63991.81502959908, 65815.85148761887, -29737.36432044081, -16437.741093366276, 16469.055887348164, 4942.507140935319, 22420.364310784855, 4748.851626974539, 41915.6452316815, 47477.27334228437, 37495.23013773324, 50615.905298698584, 22719.34124461904, 27712.139810578803, -8991.369186803006, -4147.679108104599, -0.13, 0.98, 0.28, 192.0, 0.0, 0.0, 0.0, 0.0, 0.0, 0.0, 0.0, 0.0, 0.0, 1.706883404848912E9, 0.0, 2024-02-02 15:16:44.848
22.0, 63995.43601220084, 65819.785394643, -29730.770555826493, -16432.644895630467, 16477.326032796627, 4949.950271838936, 22428.29918006649, 4755.6689090334075, 41910.90666185697, 47483.59888596522, 37493.28553596563, 50616.64290626561, 22716.949607962324, 27713.413860012755, -8991.168021102909, -4148.126142993706, -0.13, 0.98, 0.28, 192.0, 0.0, 0.0, 0.0, 0.0, 0.0, 0.0, 0.0, 0.0, 0.0, 1.706883404856032E9, 0.0, 2024-02-02 15:16:44.856
24.0, 63994.98897731173, 65816.72320565263, -29735.866753562303, -16431.97434329681, 16471.514579238246, 4944.652908403028, 22418.66557820625, 4749.589234541564, 41911.59956593509, 47478.14506031812, 37499.83459709103, 50620.241537122914, 22715.988482950746, 27721.929874650228, -8988.977550146288, -4142.381744668692, -0.128, 0.977, 0.28, 192.0, 126.0, 8.0, 15.0, 56.0, 4.0, 96.0, 0.0, 0.0, 0.0, 1.70688340486496E9, 0.0, 2024-02-02 15:16:44.864
26.0, 63993.6031691555, 65815.87383936332, -29737.654893118728, -16435.26004973174, 16465.39020125749, 4941.031925801269, 22418.86674390635, 4745.6329757729745, 41905.63165016552, 47483.062444098294, 37493.55375689909, 50614.96652543146, 22717.10607017351, 27718.375947281835, -8997.202992105842, -4149.86957906122, -0.128, 0.977, 0.28, 192.0, 0.0, 0.0, 0.0, 0.0, 0.0, 0.0, 0.0, 0.0, 0.0, 1.7068834048729777E9, 0.0, 2024-02-02 15:16:44.872
28.0, 63999.01229131369, 65822.02056908853, -29734.97268378409, -16433.96364855333, 16470.955785626862, 4946.7986758707375, 22421.90658115227, 4749.544531052653, 41904.91639434295, 47477.69802542902, 37495.45365517779, 50611.39024631861, 22715.787317250648, 27712.139810578803, -8995.437204293872, -4147.723811593511, -0.128, 0.977, 0.28, 192.0, 0.0, 0.0, 0.0, 0.0, 0.0, 0.0, 0.0, 0.0, 0.0, 1.706883404879948E9, 0.0, 2024-02-02 15:16:44.879
30.0, 63994.877218589456, 65821.39472024378, -29734.860925061814, -16433.58366889759, 16474.39795427298, 4947.893911349048, 22424.119403853347, 4753.3219758656, 41911.845435124094, 47486.124633088664, 37501.28746048063, 50617.91695569956, 22722.604599309518, 27724.053290373482, -8985.513029755715, -4140.414791156625, -0.128, 0.977, 0.28, 192.0, 0.0, 0.0, 0.0, 0.0, 0.0, 0.0, 0.0, 0.0, 0.0, 1.7068834048889349E9, 0.0, 2024-02-02 15:16:44.888
32.0, 63990.89860807641, 65817.01377833054, -29735.442070417652, -16433.36015145304, 16471.78280017171, 4948.989146827358, 22420.364310784855, 4751.936167709371, 41898.635554151006, 47483.21890630948, 37491.87737606494, 50611.30083934079, 22717.620160295985, 27715.805496669473, -8993.358492059528, -4145.421581914614, -0.128, 0.977, 0.28, 192.0, 0.0, 0.0, 0.0, 0.0, 0.0, 0.0, 0.0, 0.0, 0.0, 1.706883404896975E9, 0.0, 2024-02-02 15:16:44.896
34.0, 63992.68674763283, 65818.71251090914, -29734.100965750335, -16430.34266595157, 16472.07337284963, 4950.821989872693, 22420.520772996042, 4752.897292720949, 41900.06606579615, 47477.765080662386, 37502.2038820033, 50618.92278420005, 22726.605561567016, 27718.733575193117, -8986.16123034492, -4137.7549335664435, -0.126, 0.9764999999999999, 0.28, 192.0, 126.0, 16.0, 15.0, 64.0, 4.0, 96.0, 0.0, 0.0, 0.0, 1.70688340490401E9, 0.0, 2024-02-02 15:16:44.904
36.0, 63988.46226793078, 65813.95158934017, -29740.493564664554, -16437.629334644, 16464.049096590174, 4940.763704867805, 22408.897865879284, 4742.3472693380445, 41891.66180988095, 47481.453118497506, 37494.38077144394, 50612.5972405192, 22715.67555852837, 27714.553798979974, -9000.220477607309, -4147.254424959949, -0.126, 0.9764999999999999, 0.28, 192.0, 0.0, 0.0, 0.0, 0.0, 0.0, 0.0, 0.0, 0.0, 0.0, 1.7068834049122748E9, 0.0, 2024-02-02 15:16:44.912
38.0, 63997.581779668544, 65819.3830632428, -29728.40127091423, -16430.141500251473, 16476.767239185243, 4948.072725304691, 22422.510078252566, 4750.975042697793, 41895.90864132746, 47474.14409806062, 37501.51097792518, 50612.17255737455, 22722.87282024298, 27719.895865904793, -8996.934771172379, -4144.751029580954, -0.126, 0.9764999999999999, 0.28, 192.0, 0.0, 0.0, 0.0, 0.0, 0.0, 0.0, 0.0, 0.0, 0.0, 1.7068834049210312E9, 0.0, 2024-02-02 15:16:44.921
40.0, 63993.49141043323, 65818.48899346459, -29724.713233079106, -16429.761520595734, 16477.907178152465, 4944.965832825403, 22428.500345766588, 4753.120810165502, 41897.87559483953, 47478.949723118516, 37508.37296347296, 50616.195871376505, 22734.60748608202, 27726.132002607825, -8987.904666412434, -4139.028983000396, -0.126, 0.9764999999999999, 0.28, 192.0, 0.0, 0.0, 0.0, 0.0, 0.0, 0.0, 0.0, 0.0, 0.0, 1.7068834049290562E9, 0.0, 2024-02-02 15:16:44.929
42.0, 63991.233884243244, 65816.52203995253, -29732.78221282747, -16436.26587823223, 16468.273576292228, 4940.920167078993, 22413.256456048068, 4743.263690860712, 41889.02430403523, 47481.56487721978, 37502.6509168924, 50610.16090037357, 22728.907791245914, 27716.408993769764, -8990.989207147266, -4145.756858081443, -0.126, 0.9764999999999999, 0.28, 192.0, 0.0, 0.0, 0.0, 0.0, 0.0, 0.0, 0.0, 0.0, 0.0, 1.706883404936185E9, 0.0, 2024-02-02 15:16:44.936
44.0, 63992.3067679771, 65818.9807318426, -29733.005730272023, -16432.756654352743, 16470.6875646934, 4945.1669985255, 22416.3409967829, 4747.063487418114, 41878.988370774794, 47469.65139742511, 37498.895823823914, 50609.69151374001, 22721.509363831206, 27711.335147778413, -8994.49843102675, -4152.708250607044, -0.126, 0.97725, 0.279, 192.0, 126.0, 8.0, 15.0, 72.0, 4.0, 88.0, 0.0, 0.0, 0.0, 1.706883404944036E9, 0.0, 2024-02-02 15:16:44.944
46.0, 63997.179448268354, 65826.89324937979, -29728.557733125417, -16425.849965316054, 16477.907178152465, 4956.678146919983, 22424.097052108893, 4759.13342942398, 41881.648228364975, 47485.54348773283, 37499.65578313539, 50617.73814174392, 22727.142003433946, 27715.78314492502, -8992.218553092307, -4144.415753414125, -0.126, 0.97725, 0.279, 192.0, 0.0, 0.0, 0.0, 0.0, 0.0, 0.0, 0.0, 0.0, 0.0, 1.7068834049533343E9, 0.0, 2024-02-02 15:16:44.953
48.0, 63997.604131413005, 65824.97099935664, -29723.327424922878, -16422.586610625578, 16486.199675345382, 4959.8297428881815, 22436.569325514953, 4764.810772515628, 41882.16231848745, 47480.08966208573, 37504.59551866001, 50618.431045822035, 22730.49476510224, 27722.91335140626, -8985.602436733538, -4137.218491699516, -0.126, 0.97725, 0.279, 192.0, 0.0, 0.0, 0.0, 0.0, 0.0, 0.0, 0.0, 0.0, 0.0, 1.7068834049601035E9, 0.0, 2024-02-02 15:16:44.960
50.0, 63989.557503409094, 65821.35001675488, -29731.239942460055, -16429.87327931801, 16472.16277982745, 4945.3905159700535, 22418.39735727279, 4749.611586286019, 41877.75902482975, 47482.19072606453, 37505.3554779715, 50620.26388886737, 22726.605561567016, 27721.90752290577, -8986.898837911946, -4139.051334744851, -0.126, 0.97725, 0.279, 192.0, 0.0, 0.0, 0.0, 0.0, 0.0, 0.0, 0.0, 0.0, 0.0, 1.7068834049682608E9, 0.0, 2024-02-02 15:16:44.968
52.0, 63998.74407038022, 65827.65320869126, -29722.567465611395, -16427.101663005553, 16478.085992108106, 4952.967757340402, 22421.97363638564, 4752.517313065209, 41879.01072251925, 47491.22083082448, 37509.26703325117, 50623.1472639021, 22734.74159654875, 27725.81907818545, -8985.624788477991, -4137.620823099712, -0.126, 0.97725, 0.279, 192.0, 0.0, 0.0, 0.0, 0.0, 0.0, 0.0, 0.0, 0.0, 0.0, 1.7068834049760869E9, 0.0, 2024-02-02 15:16:44.976
54.0, 63985.04245102912, 65817.46081321964, -29730.994073271046, -16437.96461081083, 16471.626337960523, 4944.5635014252075, 22418.956150884173, 4748.382240340977, 41869.01949274773, 47473.71941491597, 37506.27189949416, 50614.43008356453, 22729.488936601752, 27710.508133233565, -8988.038776879166, -4143.275814446904, -0.124, 0.978625, 0.28150000000000003, 192.0, 126.0, 24.0, 15.0, 80.0, 4.0, 112.0, 0.0, 0.0, 0.0, 1.7068834049853003E9, 0.0, 2024-02-02 15:16:44.985
56.0, 63984.79658184011, 65822.80288014447, -29731.999901771534, -16430.43207292939, 16473.906215894964, 4949.145609038545, 22421.593656729896, 4752.7408305097615, 41860.86110602154, 47481.6095807087, 37500.23692849123, 50615.704132998486, 22724.2139249103, 27714.665557702254, -8993.090271126064, -4143.655794102645, -0.124, 0.978625, 0.28150000000000003, 192.0, 0.0, 0.0, 0.0, 0.0, 0.0, 0.0, 0.0, 0.0, 0.0, 1.7068834049921641E9, 0.0, 2024-02-02 15:16:44.992
58.0, 63983.92486380636, 65820.8806301213, -29734.324483194887, -16427.503994405746, 16473.01214611675, 4953.414792229509, 22419.760813684563, 4753.880769476983, 41859.408242631944, 47486.415205766585, 37504.483759937735, 50621.60499353469, 22724.146869676933, 27725.237932829612, -8988.485811768272, -4137.710230077533, -0.124, 0.978625, 0.28150000000000003, 192.0, 0.0, 0.0, 0.0, 0.0, 0.0, 0.0, 0.0, 0.0, 0.0, 1.7068834050005841E9, 0.0, 2024-02-02 15:16:45.000
60.0, 63985.44478242932, 65821.30531326596, -29736.246733218046, -16432.846061330565, 16467.558320469656, 4950.464361961408, 22411.87064789184, 4750.6844700198735, 41854.08852745158, 47488.89624940113, 37499.78989360212, 50617.581679532734, 22722.045805698133, 27718.331243792923, -8995.616018249515, -4141.420619657114, -0.124, 0.978625, 0.28150000000000003, 192.0, 0.0, 0.0, 0.0, 0.0, 0.0, 0.0, 0.0, 0.0, 0.0, 1.7068834050091455E9, 0.0, 2024-02-02 15:16:45.009
62.0, 63978.87336955946, 65815.44915621867, -29736.984340785068, -16440.669171889924, 16470.285233293205, 4941.680126390473, 22422.19715383019, 4748.672813018896, 41852.23333266179, 47488.650380212115, 37497.55471915659, 50614.07245565325, 22729.31012264611, 27719.337072293412, -8997.53826827267, -4144.348698180759, -0.124, 0.978625, 0.28150000000000003, 192.0, 0.0, 0.0, 0.0, 0.0, 0.0, 0.0, 0.0, 0.0, 0.0, 1.7068834050161648E9, 0.0, 2024-02-02 15:16:45.016
64.0, 63984.885988817936, 65819.04778707598, -29724.713233079106, -16428.845099073067, 16483.584521244113, 4952.274853262288, 22436.05523539248, 4760.765106769217, 41850.13226868299, 47472.24419978192, 37500.70631512479, 50607.88102243913, 22730.986503480257, 27714.039708857505, -8988.463460023817, -4142.24763420196, -0.123, 0.9783124999999999, 0.28175000000000006, 192.0, 126.0, 24.0, 15.0, 72.0, 4.0, 104.0, 0.0, 0.0, 0.0, 1.706883405024287E9, 0.0, 2024-02-02 15:16:45.024
66.0, 63986.16003825189, 65822.1323278108, -29727.015462758, -16423.659494359435, 16484.523294511237, 4958.779210898782, 22436.010531903572, 4764.564903326619, 41852.72507103981, 47485.67759819956, 37503.94731807081, 50616.35233358769, 22735.12157620449, 27728.635397986818, -8981.422660520395, -4133.508102119935, -0.123, 0.9783124999999999, 0.28175000000000006, 192.0, 0.0, 0.0, 0.0, 0.0, 0.0, 0.0, 0.0, 0.0, 0.0, 1.7068834050321934E9, 0.0, 2024-02-02 15:16:45.032
68.0, 63984.304843462094, 65822.9816941001, -29733.139840738757, -16422.988942025775, 16480.522332253735, 4963.987167356869, 22434.132985369324, 4766.442449860865, 41851.451021605855, 47483.44242375403, 37502.449751192304, 50617.17934813254, 22732.50642210322, 27729.95415090968, -8982.674358209892, -4129.708305562533, -0.123, 0.9783124999999999, 0.28175000000000006, 192.0, 0.0, 0.0, 0.0, 0.0, 0.0, 0.0, 0.0, 0.0, 0.0, 1.7068834050402129E9, 0.0, 2024-02-02 15:16:45.040
70.0, 63975.47590440225, 65816.70085390817, -29742.03583503197, -16432.689599119378, 16470.888730393497, 4955.828780630682, 22426.57809574343, 4762.463839347821, 41842.018585445716, 47478.43563299604, 37491.13976849792, 50609.91503118456, 22722.314026631597, 27726.176706096736, -8993.582009504082, -4133.262232930927, -0.123, 0.9783124999999999, 0.28175000000000006, 192.0, 0.0, 0.0, 0.0, 0.0, 0.0, 0.0, 0.0, 0.0, 0.0, 1.7068834050482724E9, 0.0, 2024-02-02 15:16:45.048
72.0, 63986.696480118815, 65828.05554009146, -29727.46249764711, -16423.48068040379, 16482.109306110062, 4964.680071434984, 22436.68108423723, 4769.594045829063, 41844.29846338015, 47483.97886562096, 37492.525576654145, 50610.4961765404, 22727.611390067505, 27724.790897940507, -8989.49164026876, -4129.730657306988, -0.123, 0.9783124999999999, 0.28175000000000006, 192.0, 0.0, 0.0, 0.0, 0.0, 0.0, 0.0, 0.0, 0.0, 0.0, 1.7068834050564456E9, 0.0, 2024-02-02 15:16:45.056
74.0, 63990.07159353157, 65827.96613311364, -29726.993111013548, -16423.190107725874, 16478.577730486122, 4962.556655711729, 22431.227258590134, 4765.101345193547, 41850.9816349723, 47481.74369117543, 37504.23789074873, 50616.57585103224, 22737.915544261403, 27732.234028844123, -8980.126259341987, -4125.349715393748, -0.1255, 0.97915625, 0.28387500000000004, 192.0, 126.0, 0.0, 15.0, 80.0, 4.0, 120.0, 0.0, 0.0, 0.0, 1.7068834050652423E9, 0.0, 2024-02-02 15:16:45.065
76.0, 63985.04245102912, 65821.55118245498, -29737.900762307738, -16432.689599119378, 16464.987869857297, 4947.670393904495, 22413.34586302589, 4749.499827563743, 41848.433536104385, 47487.3092755448, 37498.851120335, 50614.74300798691, 22737.580268094574, 27726.19905784119, -8991.950332158844, -4135.318593420815, -0.1255, 0.97915625, 0.28387500000000004, 192.0, 0.0, 0.0, 0.0, 0.0, 0.0, 0.0, 0.0, 0.0, 0.0, 1.7068834050722544E9, 0.0, 2024-02-02 15:16:45.072
78.0, 63985.66829987387, 65822.04292083299, -29738.88423906377, -16430.141500251473, 16466.86541639154, 4950.7325828948715, 22418.53146773952, 4751.6232432869965, 41839.29167262217, 47477.92154287357, 37495.52071041116, 50611.05497015178, 22729.734805790762, 27716.319586791946, -8997.717082228313, -4139.34190742277, -0.1255, 0.97915625, 0.28387500000000004, 192.0, 0.0, 0.0, 0.0, 0.0, 0.0, 0.0, 0.0, 0.0, 0.0, 1.7068834050805268E9, 0.0, 2024-02-02 15:16:45.080
80.0, 63977.57696838105, 65815.47150796313, -29740.270047219998, -16434.500090420257, 16466.82071290263, 4944.921129336492, 22419.67140670674, 4746.907025206927, 41837.21296038783, 47472.75828990439, 37492.458521420784, 50608.68568523952, 22728.34899763453, 27721.035804872015, -8996.867715939012, -4140.079514989796, -0.1255, 0.97915625, 0.28387500000000004, 192.0, 0.0, 0.0, 0.0, 0.0, 0.0, 0.0, 0.0, 0.0, 0.0, 1.7068834050882564E9, 0.0, 2024-02-02 15:16:45.088
82.0, 63983.20960798379, 65817.10318530837, -29733.050433760935, -16432.331971208092, 16477.59425373009, 4951.0231555727905, 22428.72386321114, 4754.46191483282, 41833.88255046398, 47474.479374227456, 37493.598460388006, 50607.90337418358, 22731.724111047282, 27720.029976371527, -8990.363358302517, -4137.017325999418, -0.1255, 0.97915625, 0.28387500000000004, 192.0, 0.0, 0.0, 0.0, 0.0, 0.0, 0.0, 0.0, 0.0, 0.0, 1.706883405096324E9, 0.0, 2024-02-02 15:16:45.096
84.0, 63987.41173594138, 65822.80288014447, -29729.720023837093, -16429.24743047326, 16481.349346798583, 4955.69467016395, 22429.43911903371, 4760.072202691103, 41836.18478014288, 47471.99833059291, 37503.23206224824, 50615.50296729839, 22742.274134430187, 27719.53823799351, -8981.44501226485, -4128.747180550955, -0.12675, 0.976578125, 0.28493750000000007, 192.0, 126.0, 0.0, 15.0, 56.0, 4.0, 120.0, 0.0, 0.0, 0.0, 1.7068834051042717E9, 0.0, 2024-02-02 15:16:45.104
86.0, 63987.61290164148, 65827.04971159098, -29734.771518083995, -16426.40875892744, 16479.695317708887, 4957.393402742553, 22433.86476443586, 4763.290853892667, 41830.529788795684, 47483.08479584275, 37498.35938195698, 50619.056894666785, 22736.708550060815, 27720.96874963865, -8985.647140222447, -4127.696648561555, -0.12675, 0.976578125, 0.28493750000000007, 192.0, 0.0, 0.0, 0.0, 0.0, 0.0, 0.0, 0.0, 0.0, 0.0, 1.7068834051123312E9, 0.0, 2024-02-02 15:16:45.112
88.0, 63982.47200041676, 65826.3344557684, -29732.268122704998, -16424.53121239319, 16478.957710141865, 4957.50516146483, 22431.115499867858, 4762.79911551465, 41831.177989384894, 47480.894324886125, 37504.08142853754, 50620.308592356276, 22738.07200647259, 27725.327339807434, -8983.836648921568, -4127.003744483441, -0.12675, 0.976578125, 0.28493750000000007, 192.0, 0.0, 0.0, 0.0, 0.0, 0.0, 0.0, 0.0, 0.0, 0.0, 1.7068834051216135E9, 0.0, 2024-02-02 15:16:45.121
90.0, 63984.90834056239, 65831.29654303749, -29729.563561625906, -16423.838308315077, 16478.30950955266, 4954.890007363559, 22428.09801436639, 4762.352080625544, 41833.03318417468, 47480.335531274744, 37507.009507061186, 50621.02384817885, 22748.152643221933, 27727.696624719698, -8985.334215800074, -4128.76953229541, -0.12675, 0.976578125, 0.28493750000000007, 192.0, 0.0, 0.0, 0.0, 0.0, 0.0, 0.0, 0.0, 0.0, 0.0, 1.7068834051273255E9, 0.0, 2024-02-02 15:16:45.127
92.0, 63983.36607019497, 65829.01666510304, -29731.843439560347, -16431.10262526305, 16477.147218840983, 4954.7782486412825, 22431.920162668248, 4762.665005047918, 41827.93698643887, 47481.63193245315, 37502.47210293676, 50617.76049348837, 22742.251782685733, 27718.264188559555, -8989.871619924501, -4131.585852096779, -0.12675, 0.976578125, 0.28493750000000007, 192.0, 0.0, 0.0, 0.0, 0.0, 0.0, 0.0, 0.0, 0.0, 0.0, 1.7068834051363237E9, 0.0, 2024-02-02 15:16:45.136
94.0, 63986.696480118815, 65834.2916767945, -29729.541209881452, -16424.55356413765, 16479.516503753246, 4960.008556843824, 22432.121328368346, 4765.101345193547, 41825.791218971164, 47475.52990621685, 37505.824864605056, 50618.74397024441, 22743.54818386414, 27718.130078092825, -8985.043643122155, -4128.836587528776, -0.12537500000000001, 0.9782890625, 0.28446875000000005, 192.0, 126.0, 16.0, 15.0, 80.0, 4.0, 112.0, 0.0, 0.0, 0.0, 1.7068834051446662E9, 0.0, 2024-02-02 15:16:45.144
96.0, 63982.80727658359, 65827.541449969, -29737.632541374274, -16429.87327931801, 16474.107381595062, 4952.967757340402, 22431.718996968153, 4760.340423624566, 41824.76303872622, 47486.19168832203, 37502.114475025475, 50621.8955662126, 22743.905811775425, 27724.321511306945, -8988.374053045995, -4129.730657306988, -0.12537500000000001, 0.9782890625, 0.28446875000000005, 192.0, 0.0, 0.0, 0.0, 0.0, 0.0, 0.0, 0.0, 0.0, 0.0, 1.7068834051523595E9, 0.0, 2024-02-02 15:16:45.152
98.0, 63978.53809339263, 65819.89715336528, -29742.706387365626, -16433.181337497394, 16475.560244984656, 4948.832684616171, 22431.607238245873, 4755.959481711327, 41813.9224426654, 47475.48520272794, 37497.04062903412, 50617.15699638808, 22740.88832627396, 27714.240874557603, -8989.625750735493, -4136.257366687938, -0.12537500000000001, 0.9782890625, 0.28446875000000005, 192.0, 0.0, 0.0, 0.0, 0.0, 0.0, 0.0, 0.0, 0.0, 0.0, 1.7068834051604104E9, 0.0, 2024-02-02 15:16:45.160
100.0, 63973.598357868, 65816.38792948579, -29748.383730457277, -16440.289192234184, 16471.82750366062, 4945.457571203419, 22427.650979477286, 4754.774839255195, 41801.56192798161, 47466.633911923636, 37488.27874520764, 50607.67985673903, 22736.0156459827, 27708.71999367714, -8993.939637415366, -4140.7500673234545, -0.12537500000000001, 0.9782890625, 0.28446875000000005, 192.0, 0.0, 0.0, 0.0, 0.0, 0.0, 0.0, 0.0, 0.0, 0.0, 1.7068834051683831E9, 0.0, 2024-02-02 15:16:45.168
102.0, 63983.38842193943, 65826.46856623514, -29738.995997786045, -16427.39223568347, 16477.951881641377, 4953.973585840891, 22428.701511466686, 4762.3073771366335, 41805.40642802792, 47472.981807348944, 37489.68690510833, 50608.46216779497, 22735.814480282603, 27709.926987877727, -8994.409024048928, -4137.263195188427, -0.12537500000000001, 0.9782890625, 0.28446875000000005, 192.0, 0.0, 0.0, 0.0, 0.0, 0.0, 0.0, 0.0, 0.0, 0.0, 1.706883405177552E9, 0.0, 2024-02-02 15:16:45.177
104.0, 63991.18918075433, 65833.93404888321, -29731.50816339352, -16420.105566991042, 16479.315338053148, 4957.840437631659, 22434.49061328061, 4768.744679539762, 41811.19552984185, 47475.26168528339, 37503.74615237071, 50621.18031039004, 22743.436425141863, 27722.19809558369, -8988.77638444619, -4130.1776921960945, -0.1236875, 0.97914453125, 0.28123437500000004, 192.0, 126.0, 24.0, 15.0, 80.0, 4.0, 88.0, 0.0, 0.0, 0.0, 1.7068834051834245E9, 0.0, 2024-02-02 15:16:45.183
106.0, 63990.63038714295, 65834.60460121687, -29731.195238971144, -16421.133747235985, 16476.32020429614, 4954.822952130193, 22437.01636040406, 4766.08482194958, 41811.17317809739, 47485.0070458659, 37506.160140771884, 50629.78573200533, 22748.532622877672, 27724.097993862393, -8985.267160566707, -4125.126197949195, -0.1236875, 0.97914453125, 0.28123437500000004, 192.0, 0.0, 0.0, 0.0, 0.0, 0.0, 0.0, 0.0, 0.0, 0.0, 1.7068834051924405E9, 0.0, 2024-02-02 15:16:45.192
108.0, 63991.09977377651, 65835.87865065082, -29731.239942460055, -16422.29603794766, 16479.315338053148, 4954.93471085247, 22435.272924336547, 4766.688319049874, 41805.47348326129, 47481.83309815325, 37504.416704704374, 50625.91888021456, 22740.55305010713, 27720.67817696073, -8989.692805968858, -4130.267099173916, -0.1236875, 0.97914453125, 0.28123437500000004, 192.0, 0.0, 0.0, 0.0, 0.0, 0.0, 0.0, 0.0, 0.0, 0.0, 1.7068834052004528E9, 0.0, 2024-02-02 15:16:45.200
110.0, 63985.42243068486, 65829.75427267006, -29734.100965750335, -16430.610886885035, 16475.962576384853, 4945.055239803224, 22424.857011420372, 4759.289891635167, 41807.64160247345, 47481.92250513107, 37503.20971050378, 50620.64386852311, 22748.666733344406, 27720.320549049444, -8988.552867001637, -4137.48671263298, -0.1236875, 0.97914453125, 0.28123437500000004, 192.0, 0.0, 0.0, 0.0, 0.0, 0.0, 0.0, 0.0, 0.0, 0.0, 1.7068834052084572E9, 0.0, 2024-02-02 15:16:45.208
112.0, 63989.13282026444, 65833.46466224965, -29727.015462758, -16422.564258881124, 16485.462067778357, 4956.164056797512, 22439.363293571867, 4769.504638851242, 41809.161521096416, 47482.21307780899, 37500.013411046675, 50614.74300798691, 22750.36546592301, 27714.77731642453, -8991.168021102909, -4140.459494645535, -0.1236875, 0.97914453125, 0.28123437500000004, 192.0, 0.0, 0.0, 0.0, 0.0, 0.0, 0.0, 0.0, 0.0, 0.0, 1.7068834052166092E9, 0.0, 2024-02-02 15:16:45.216
114.0, 63989.04341328662, 65833.37525527182, -29733.16219248321, -16422.29603794766, 16481.863436921052, 4955.806428886227, 22435.183517358724, 4768.185885928379, 41816.291727577656, 47476.714548672986, 37504.26024249318, 50616.531147543334, 22757.070989259602, 27719.784107182517, -8985.624788477991, -4133.128122464195, -0.12384375, 0.980572265625, 0.27761718750000003, 192.0, 126.0, 16.0, 15.0, 88.0, 4.0, 72.0, 0.0, 0.0, 0.0, 1.7068834052246733E9, 0.0, 2024-02-02 15:16:45.224
116.0, 63980.57210213806, 65827.22852554661, -29740.426509431185, -16434.120110764517, 16477.482495007815, 4951.559597439718, 22428.187421344213, 4762.150914925446, 41821.54438752466, 47488.69508370103, 37497.353553456494, 50613.20073761949, 22754.612297369516, 27728.30012181999, -8992.419718792406, -4131.787017796876, -0.12384375, 0.980572265625, 0.27761718750000003, 192.0, 0.0, 0.0, 0.0, 0.0, 0.0, 0.0, 0.0, 0.0, 0.0, 1.7068834052314827E9, 0.0, 2024-02-02 15:16:45.231
118.0, 63983.72369810626, 65833.39760701629, -29738.97364604159, -16434.231869486794, 16479.40474503097, 4957.661623676017, 22436.59167725941, 4771.13631619648, 41827.84757946105, 47476.3569207617, 37493.19612898781, 50604.46120553747, 22744.64341934245, 27709.63641519981, -8999.415814806916, -4139.766590567421, -0.12384375, 0.980572265625, 0.27761718750000003, 192.0, 0.0, 0.0, 0.0, 0.0, 0.0, 0.0, 0.0, 0.0, 0.0, 1.7068834052394829E9, 0.0, 2024-02-02 15:16:45.239
120.0, 63987.121163263466, 65835.47631925062, -29739.823012330893, -16435.148291009464, 16475.895521151488, 4955.046469574746, 22432.81423244646, 4770.577522585097, 41851.518076839224, 47485.05174935481, 37501.24275699172, 50611.68081899653, 22745.604544354028, 27724.902656662784, -8993.716119970813, -4131.362334652225, -0.12384375, 0.980572265625, 0.27761718750000003, 192.0, 0.0, 0.0, 0.0, 0.0, 0.0, 0.0, 0.0, 0.0, 0.0, 1.7068834052486966E9, 0.0, 2024-02-02 15:16:45.248
122.0, 63982.80727658359, 65829.15077556977, -29746.528535667487, -16442.457311446346, 16466.708954180354, 4949.346774738643, 22422.219505574645, 4762.106211436536, 41864.90677176795, 47488.20334532301, 37495.386599944424, 50605.01999914885, 22736.84266052755, 27722.15339209478, -9000.175774118397, -4137.129084721695, -0.12384375, 0.980572265625, 0.27761718750000003, 192.0, 0.0, 0.0, 0.0, 0.0, 0.0, 0.0, 0.0, 0.0, 0.0, 1.7068834052565272E9, 0.0, 2024-02-02 15:16:45.256
124.0, 63992.82085809957, 65837.97971462962, -29740.471212920096, -16434.120110764517, 16471.22400656033, 4956.275815519788, 22437.91043018227, 4773.036214475181, 41877.69196959639, 47481.87780164216, 37494.53723365512, 50606.22699334944, 22736.753253549727, 27715.24670305809, -9000.086367140577, -4139.9230527786085, -0.12384375, 0.980572265625, 0.27761718750000003, 192.0, 0.0, 0.0, 0.0, 0.0, 0.0, 0.0, 0.0, 0.0, 0.0, 1.706883405263525E9, 0.0, 2024-02-02 15:16:45.263
126.0, 63994.38548021144, 65840.37135128633, -29742.728739110084, -16433.270744475216, 16469.413515259446, 4947.245710759844, 22430.57905800093, 4764.743717282262, 41903.329420486625, 47497.389912294144, 37499.588727902024, 50614.45243530899, 22743.190555952857, 27727.4954590196, -8996.040701394166, -4133.508102119935, -0.124, 0.988, 0.274, 192.0, 126.0, 16.0, 15.0, 112.0, 4.0, 72.0, 0.0, 0.0, 0.0, 1.70688340527152E9, 0.0, 2024-02-02 15:16:45.271
128.0, 63997.91705583538, 65842.02538037603, -29738.638369874763, -16429.515651406724, 16473.861512406052, 4952.341908495654, 22435.004703403083, 4768.2976446506555, 41918.43919973841, 47490.84085116874, 37500.32633546905, 50616.30763009878, 22736.88736401646, 27721.415784527755, -8997.985303161777, -4136.033849243385, -0.124, 0.988, 0.274, 192.0, 0.0, 0.0, 0.0, 0.0, 0.0, 0.0, 0.0, 0.0, 0.0, 1.706883405280759E9, 0.0, 2024-02-02 15:16:45.280
130.0, 63992.12795402145, 65832.34707502689, -29744.94156181116, -16440.758578867742, 16468.810018159154, 4945.994013070347, 22425.080528864924, 4761.70388003634, 41934.375993535046, 47489.38798777914, 37502.94148957032, 50618.140473144114, 22736.39562563844, 27722.95805489517, -8995.101928127042, -4134.335116664782, -0.124, 0.988, 0.274, 192.0, 0.0, 0.0, 0.0, 0.0, 0.0, 0.0, 0.0, 0.0, 0.0, 1.7068834052876062E9, 0.0, 2024-02-02 15:16:45.287
132.0, 63998.56525642458, 65835.31985703945, -29739.55479139743, -16433.33779970858, 16479.672965964433, 4954.666489919006, 22442.090206395413, 4771.046909218659, 41942.86965642806, 47491.73492094695, 37495.967745300266, 50612.66429575256, 22732.93110524787, 27721.326377549933, -8993.716119970813, -4136.324421921304, -0.124, 0.988, 0.274, 192.0, 0.0, 0.0, 0.0, 0.0, 0.0, 0.0, 0.0, 0.0, 0.0, 1.7068834052955592E9, 0.0, 2024-02-02 15:16:45.295
134.0, 64000.66632040338, 65835.543374484, -29742.773442598995, -16435.21534624283, 16475.135561840005, 4956.924016108992, 22441.978447673137, 4768.968196984315, 41948.9493309199, 47487.28692380034, 37502.22623374775, 50616.57585103224, 22734.875707015482, 27729.73063346513, -8989.335178057574, -4132.994011997463, -0.124, 0.988, 0.274, 192.0, 0.0, 0.0, 0.0, 0.0, 0.0, 0.0, 0.0, 0.0, 0.0, 1.706883405304564E9, 0.0, 2024-02-02 15:16:45.304
136.0, 63990.8539045875, 65826.82619414642, -29755.670399149705, -16446.815901615133, 16463.333840767606, 4947.133952037568, 22419.805517173474, 4753.478438076787, 41952.23503735483, 47495.13238610415, 37495.610117388984, 50612.86546145266, 22729.176012179378, 27728.30012181999, -8998.432338050883, -4139.833645800787, -0.132, 0.982, 0.276, 192.0, 125.5, 112.0, 15.0, 88.0, 4.0, 80.0, 0.0, 0.0, 0.0, 1.7068834053128877E9, 0.0, 2024-02-02 15:16:45.312
138.0, 63993.06672728858, 65829.0390168475, -29752.585858414874, -16445.474796947812, 16468.631204203513, 4953.12421955159, 22432.81423244646, 4761.279196891689, 41947.96585416387, 47480.626103952665, 37487.58584112953, 50600.10261536868, 22717.2625323847, 27717.928912392726, -9005.003750920743, -4148.483770904991, -0.132, 0.982, 0.276, 192.0, 0.0, 0.0, 0.0, 0.0, 0.0, 0.0, 0.0, 0.0, 0.0, 1.706883405319614E9, 0.0, 2024-02-02 15:16:45.319
140.0, 63993.8043348556, 65831.00597035956, -29750.820070602906, -16440.73622712329, 16465.68077393541, 4953.861827118615, 22429.752043456083, 4763.492019592764, 41960.371072336566, 47490.03618836834, 37496.928870311844, 50608.90920268407, 22725.242105155245, 27727.473107275142, -8992.240904836763, -4131.876424774698, -0.132, 0.982, 0.276, 192.0, 0.0, 0.0, 0.0, 0.0, 0.0, 0.0, 0.0, 0.0, 0.0, 1.7068834053276696E9, 0.0, 2024-02-02 15:16:45.327
142.0, 64000.08517504754, 65834.24697330559, -29748.56254441292, -16437.45052068836, 16471.64868970498, 4958.063955076213, 22433.10480512438, 4765.816601016117, 41961.82393572616, 47490.41616802409, 37493.576108643545, 50604.997647404394, 22721.84463999804, 27721.14756359429, -8997.426509550394, -4134.223357942505, -0.132, 0.982, 0.276, 192.0, 0.0, 0.0, 0.0, 0.0, 0.0, 0.0, 0.0, 0.0, 0.0, 1.706883405336629E9, 0.0, 2024-02-02 15:16:45.336
144.0, 63997.179448268354, 65829.46369999215, -29752.0717682924, -16440.35624746755, 16470.844026904586, 4957.54986495374, 22427.20394458818, 4764.073164948602, 41966.36133985059, 47484.045920854325, 37497.68882962332, 50607.29987708329, 22728.930142990368, 27727.786031697517, -8990.072785624598, -4131.451741630047, -0.132, 0.982, 0.276, 192.0, 0.0, 0.0, 0.0, 0.0, 0.0, 0.0, 0.0, 0.0, 0.0, 1.7068834053439205E9, 0.0, 2024-02-02 15:16:45.343
146.0, 63991.09977377651, 65822.0876243219, -29758.911402095724, -16448.134654537997, 16465.323146024126, 4945.412867714509, 22423.71707245315, 4754.104286921535, 41967.993017195826, 47490.37146453518, 37492.816149332066, 50605.60114450469, 22725.510326088708, 27728.92597066474, -8994.58783800457, -4135.72092482101, -0.122, 0.974, 0.28600000000000003, 192.0, 126.0, 24.0, 15.0, 56.0, 4.0, 120.0, 0.0, 0.0, 0.0, 1.7068834053516788E9, 0.0, 2024-02-02 15:16:45.351
148.0, 63995.570122667574, 65823.24991503358, -29753.681093893185, -16442.189090512882, 16468.407686758957, 4947.0892485486565, 22428.3438835554, 4755.445391588854, 41962.13686014854, 47479.66497894108, 37490.20099523079, 50601.46607178046, 22719.050671941124, 27715.380813524822, -8995.59366650506, -4146.695631348566, -0.122, 0.974, 0.28600000000000003, 192.0, 0.0, 0.0, 0.0, 0.0, 0.0, 0.0, 0.0, 0.0, 0.0, 1.7068834053597748E9, 0.0, 2024-02-02 15:16:45.359
150.0, 64002.275646004164, 65829.6425139478, -29747.55671591243, -16434.58949739808, 16471.5369309827, 4951.559597439718, 22433.328322568934, 4759.759278268728, 41973.13391842055, 47486.2587435554, 37501.8015506031, 50613.312496341765, 22725.510326088708, 27726.400223541288, -8989.692805968858, -4139.431314400592, -0.122, 0.974, 0.28600000000000003, 192.0, 0.0, 0.0, 0.0, 0.0, 0.0, 0.0, 0.0, 0.0, 0.0, 1.7068834053687687E9, 0.0, 2024-02-02 15:16:45.368
152.0, 64004.309654749595, 65828.14494706929, -29748.204916501632, -16439.7303986228, 16470.754619926767, 4948.9667950829025, 22429.282656822525, 4756.719441022807, 41982.052264458216, 47496.85347042722, 37506.51776868317, 50617.42521732154, 22724.169221421387, 27725.416746785253, -8989.402233290939, -4136.77145681041, -0.122, 0.974, 0.28600000000000003, 192.0, 0.0, 0.0, 0.0, 0.0, 0.0, 0.0, 0.0, 0.0, 0.0, 1.7068834053757594E9, 0.0, 2024-02-02 15:16:45.375
154.0, 64008.087099562545, 65828.21200230265, -29745.567410655905, -16439.998619556263, 16474.82263741763, 4951.269024761799, 22432.523659768543, 4761.972100969804, 41984.35449413711, 47484.06827259878, 37505.735457627234, 50611.16672887406, 22723.945703976835, 27722.511020006066, -8989.513992013215, -4139.453666145047, -0.122, 0.974, 0.28600000000000003, 192.0, 0.0, 0.0, 0.0, 0.0, 0.0, 0.0, 0.0, 0.0, 0.0, 1.7068834053840487E9, 0.0, 2024-02-02 15:16:45.384
156.0, 64001.98507332624, 65820.21007778765, -29753.658742148727, -16444.938355080885, 16464.093800079085, 4946.1504752815335, 22419.24672356209, 4753.947824710349, 41989.249526172825, 47493.120729103175, 37502.56150991458, 50608.75274047288, 22722.537544076153, 27732.21167709967, -8992.330311814585, -4140.414791156625, -0.13, 0.978, 0.28400000000000003, 192.0, 125.5, 120.0, 15.0, 72.0, 4.0, 112.0, 0.0, 0.0, 0.0, 1.7068834053927767E9, 0.0, 2024-02-02 15:16:45.392
158.0, 64007.32714025106, 65826.9379528687, -29749.83659384687, -16439.708046878346, 16473.369774028037, 4952.341908495654, 22430.53435451202, 4762.620301559008, 41987.6625523165, 47485.789356921836, 37499.722838368754, 50607.85867069467, 22720.16825916389, 27723.002758384082, -8994.409024048928, -4141.375916168203, -0.13, 0.978, 0.28400000000000003, 192.0, 0.0, 0.0, 0.0, 0.0, 0.0, 0.0, 0.0, 0.0, 0.0, 1.706883405399776E9, 0.0, 2024-02-02 15:16:45.399
160.0, 64005.851925117015, 65823.7863569005, -29752.0717682924, -16448.067599304628, 16466.619547202536, 4946.061068303713, 22416.58686597191, 4753.791362499162, 41999.710142577904, 47493.277191314366, 37508.35061172851, 50617.022885921346, 22729.108956946013, 27730.043557887504, -8989.245771079752, -4136.838512043776, -0.13, 0.978, 0.28400000000000003, 192.0, 0.0, 0.0, 0.0, 0.0, 0.0, 0.0, 0.0, 0.0, 0.0, 1.7068834054080052E9, 0.0, 2024-02-02 15:16:45.408
162.0, 64004.48846870524, 65819.20424928717, -29748.83076534638, -16446.25710800375, 16471.64868970498, 4947.178655526478, 22425.81813643195, 4755.870074733505, 41996.35738090961, 47492.62899072516, 37499.588727902024, 50605.981124160426, 22721.35290162002, 27718.06302285946, -8996.800660705645, -4145.7345063369885, -0.13, 0.978, 0.28400000000000003, 192.0, 0.0, 0.0, 0.0, 0.0, 0.0, 0.0, 0.0, 0.0, 0.0, 1.7068834054157608E9, 0.0, 2024-02-02 15:16:45.415
164.0, 64005.53900069464, 65820.00891208755, -29746.12620426729, -16441.429131201403, 16475.470838006837, 4953.213626529411, 22430.556706256477, 4762.285025392178, 41996.60325009862, 47480.469641741474, 37501.33216396954, 50603.58948750371, 22719.810631252603, 27727.85308693088, -8992.531477514682, -4140.168921967616, -0.13, 0.978, 0.28400000000000003, 192.0, 0.0, 0.0, 0.0, 0.0, 0.0, 0.0, 0.0, 0.0, 0.0, 1.7068834054248068E9, 0.0, 2024-02-02 15:16:45.424
166.0, 64003.99673032722, 65821.10414756586, -29746.93086706768, -16443.127863780006, 16475.31437579565, 4954.130048052079, 22427.87449692184, 4762.3073771366335, 42007.15327348153, 47495.46766227099, 37505.75780937169, 50611.16672887406, 22727.074948200578, 27734.357444567377, -8985.423622777895, -4132.949308508552, -0.134, 0.98, 0.28400000000000003, 192.0, 125.5, 104.0, 15.0, 80.0, 4.0, 112.0, 0.0, 0.0, 0.0, 1.7068834054319139E9, 0.0, 2024-02-02 15:16:45.431
168.0, 64007.461250717795, 65823.65224643378, -29748.294323479455, -16446.34651498157, 16475.157913584462, 4954.912359108014, 22427.695682966198, 4763.581426570586, 42001.051247245225, 47487.48808950044, 37499.54402441312, 50604.5953160042, 22721.59877080903, 27722.77924093953, -8988.73168095728, -4142.985241768985, -0.134, 0.98, 0.28400000000000003, 192.0, 0.0, 0.0, 0.0, 0.0, 0.0, 0.0, 0.0, 0.0, 0.0, 1.7068834054398313E9, 0.0, 2024-02-02 15:16:45.439
170.0, 64007.48360246225, 65821.43942373269, -29746.72970136758, -16441.33972422358, 16473.727401939323, 4953.928882351981, 22425.99695038759, 4763.983757970781, 42003.442883901946, 47491.69021745804, 37502.315640725574, 50606.98695266092, 22720.749404519727, 27733.1951538557, -8986.697672211847, -4138.6937068335665, -0.134, 0.98, 0.28400000000000003, 192.0, 0.0, 0.0, 0.0, 0.0, 0.0, 0.0, 0.0, 0.0, 0.0, 1.7068834054478517E9, 0.0, 2024-02-02 15:16:45.447
172.0, 64006.76834663968, 65818.66780742024, -29749.27780023549, -16444.513671936234, 16469.569977470634, 4951.716059650906, 22425.371101542845, 4759.647519546452, 42006.84034905915, 47497.70283671652, 37504.7519808712, 50613.2454411084, 22724.07981444357, 27729.48476427612, -8986.988244889766, -4140.124218478706, -0.134, 0.98, 0.28400000000000003, 192.0, 0.0, 0.0, 0.0, 0.0, 0.0, 0.0, 0.0, 0.0, 0.0, 1.7068834054558573E9, 0.0, 2024-02-02 15:16:45.455
174.0, 64007.2600850177, 65818.24312427558, -29754.79868111595, -16445.854776603555, 16471.335765282605, 4950.352603239132, 22429.10384286688, 4759.066374190614, 42001.74415132334, 47488.225697067464, 37502.62856514795, 50612.77605447484, 22715.474392828273, 27728.411880542266, -8988.977550146288, -4143.544035380368, -0.134, 0.98, 0.28400000000000003, 192.0, 0.0, 0.0, 0.0, 0.0, 0.0, 0.0, 0.0, 0.0, 0.0, 1.7068834054639459E9, 0.0, 2024-02-02 15:16:45.463
176.0, 63997.82764885756, 65816.09735680788, -29763.068826564413, -16451.01802957273, 16464.16085531245, 4943.021231057791, 22419.224371817636, 4751.667946775907, 41993.295191919235, 47494.595944237226, 37490.40216093089, 50606.182289860524, 22707.561875291096, 27719.605293226876, -8992.084442625575, -4144.482808647491, -0.128, 0.972, 0.28, 192.0, 126.0, 0.0, 15.0, 48.0, 4.0, 96.0, 0.0, 0.0, 0.0, 1.7068834054718132E9, 0.0, 2024-02-02 15:16:45.471
178.0, 64009.00352108521, 65824.52396446753, -29753.189355515166, -16441.33972422358, 16475.157913584462, 4955.158228297023, 22426.734557954616, 4763.044984703659, 41992.40112214102, 47489.25387731241, 37491.698562109304, 50608.12689162813, 22709.282959614153, 27732.569305010955, -8990.676282724891, -4144.661622603134, -0.128, 0.972, 0.28, 192.0, 0.0, 0.0, 0.0, 0.0, 0.0, 0.0, 0.0, 0.0, 0.0, 1.7068834054798455E9, 0.0, 2024-02-02 15:16:45.479
180.0, 64017.54188746714, 65831.7882814155, -29748.31667522391, -16440.244488745273, 16477.25897756326, 4953.101867807134, 22429.617932989353, 4764.520199837709, 42007.37679092608, 47498.373389050175, 37510.89871059641, 50621.94026970152, 22723.006930709715, 27738.939552180716, -8979.58981747506, -4130.512968362924, -0.128, 0.972, 0.28, 192.0, 0.0, 0.0, 0.0, 0.0, 0.0, 0.0, 0.0, 0.0, 0.0, 1.7068834054878752E9, 0.0, 2024-02-02 15:16:45.487
182.0, 64007.14832629542, 65824.45690923416, -29753.055245048436, -16450.21336677234, 16469.614680959545, 4944.876425847581, 22418.91144739526, 4752.673775276396, 41993.60811634161, 47495.93704890455, 37504.684925637834, 50614.07245565325, 22712.076927671067, 27726.132002607825, -8993.000864148244, -4145.846265059265, -0.128, 0.972, 0.28, 192.0, 0.0, 0.0, 0.0, 0.0, 0.0, 0.0, 0.0, 0.0, 0.0, 1.7068834054959095E9, 0.0, 2024-02-02 15:16:45.495
184.0, 64007.52830595116, 65825.14981331228, -29750.28362873598, -16451.532119695203, 16473.950919383875, 4943.5129694358075, 22418.39735727279, 4751.51148456472, 41990.05418897321, 47482.32483653127, 37506.85304485, 50607.098711383194, 22714.043881183134, 27720.49936300509, -8994.297265326652, -4153.91524480763, -0.128, 0.972, 0.28, 192.0, 0.0, 0.0, 0.0, 0.0, 0.0, 0.0, 0.0, 0.0, 0.0, 1.7068834055038748E9, 0.0, 2024-02-02 15:16:45.503
186.0, 63999.03464305814, 65816.2314672746, -29759.626657918296, -16456.44950347537, 16469.771143170732, 4935.220472242889, 22420.29725555149, 4750.2150833863125, 41986.54496509373, 47495.02062738188, 37500.86277733598, 50607.9927811614, 22716.904904473413, 27724.075642117936, -8996.420681049905, -4154.518741907924, -0.122, 0.974, 0.28, 192.0, 126.0, 24.0, 15.0, 56.0, 4.0, 96.0, 0.0, 0.0, 0.0, 1.706883405510884E9, 0.0, 2024-02-02 15:16:45.510
188.0, 64005.27077976117, 65824.07692957843, -29756.720931139105, -16449.20753827185, 16477.16957058544, 4949.972623583391, 22431.853107434883, 4761.301548636145, 41980.577049324165, 47491.91373490259, 37496.90651856739, 50606.07053113825, 22710.73582300375, 27724.81324968496, -8996.040701394166, -4148.841398816276, -0.122, 0.974, 0.28, 192.0, 0.0, 0.0, 0.0, 0.0, 0.0, 0.0, 0.0, 0.0, 0.0, 1.706883405520141E9, 0.0, 2024-02-02 15:16:45.520
190.0, 63994.98897731173, 65811.40349047226, -29765.192242287667, -16454.750770896768, 16464.719648923834, 4942.484789190864, 22414.798726415484, 4754.841894488561, 41978.00659871181, 47488.73978718994, 37493.37494294345, 50604.3941503041, 22710.266436370188, 27732.703415477685, -8999.371111318005, -4148.349660438259, -0.122, 0.974, 0.28, 192.0, 0.0, 0.0, 0.0, 0.0, 0.0, 0.0, 0.0, 0.0, 0.0, 1.7068834055279138E9, 0.0, 2024-02-02 15:16:45.527
192.0, 64001.73920413724, 65815.5832666854, -29756.16213752772, -16445.787721370187, 16468.944128625888, 4949.950271838936, 22420.63253171832, 4761.390955613966, 41975.614962055086, 47493.344246547735, 37489.68690510833, 50602.80717644777, 22709.148849147423, 27733.172802111247, -9005.093157898566, -4151.613015128733, -0.122, 0.974, 0.28, 192.0, 0.0, 0.0, 0.0, 0.0, 0.0, 0.0, 0.0, 0.0, 0.0, 1.706883405535934E9, 0.0, 2024-02-02 15:16:45.535
194.0, 64006.47777396176, 65818.17606904222, -29748.920172324204, -16441.675000390413, 16475.44848626238, 4951.894873606548, 22424.38762478681, 4764.341385882066, 41985.40502612651, 47486.348150533224, 37502.42739944785, 50612.35137133019, 22714.915599216893, 27733.597485255897, -8993.514954270715, -4143.253462702449, -0.122, 0.974, 0.28, 192.0, 0.0, 0.0, 0.0, 0.0, 0.0, 0.0, 0.0, 0.0, 0.0, 1.706883405543923E9, 0.0, 2024-02-02 15:16:45.543
196.0, 63994.47488718926, 65809.68240614921, -29759.06786430691, -16453.20850052935, 16468.31827978114, 4941.12133277909, 22417.883267150315, 4754.41721134391, 41989.74126455084, 47496.94287740504, 37501.64508839191, 50613.62542076414, 22718.268360885188, 27736.078528890437, -8990.16219260242, -4140.079514989796, -0.122, 0.986, 0.28400000000000003, 192.0, 126.0, 24.0, 15.0, 104.0, 4.0, 112.0, 0.0, 0.0, 0.0, 1.7068834055521889E9, 0.0, 2024-02-02 15:16:45.552
198.0, 63998.788773869135, 65811.13526953879, -29758.911402095724, -16458.327050009615, 16474.420306017437, 4942.417733957498, 22429.3944155448, 4758.731098023784, 41979.21359291239, 47485.67759819956, 37491.72091385376, 50602.270734580845, 22711.138154403943, 27716.185476325212, -8995.772480460702, -4152.037698273385, -0.122, 0.986, 0.28400000000000003, 192.0, 0.0, 0.0, 0.0, 0.0, 0.0, 0.0, 0.0, 0.0, 0.0, 1.7068834055609903E9, 0.0, 2024-02-02 15:16:45.560
200.0, 64006.32131175057, 65816.61144693034, -29757.905573595235, -16456.7847796422, 16472.296890294183, 4940.3390217231545, 22419.649054962287, 4756.428868344888, 41985.87441276007, 47482.21307780899, 37493.509053410184, 50602.38249330312, 22712.233389882254, 27716.923083892238, -8995.817183949612, -4151.747125595466, -0.122, 0.986, 0.28400000000000003, 192.0, 0.0, 0.0, 0.0, 0.0, 0.0, 0.0, 0.0, 0.0, 0.0, 1.7068834055672011E9, 0.0, 2024-02-02 15:16:45.567
202.0, 64001.71685239278, 65811.11291779434, -29759.31373349592, -16462.238605289294, 16467.893596636488, 4937.88032983307, 22417.525639239033, 4752.874940976494, 41988.08723546115, 47492.226659324966, 37497.86764357897, 50609.37858931763, 22715.69791027283, 27724.25445607358, -8996.599495005548, -4146.785038326388, -0.122, 0.986, 0.28400000000000003, 192.0, 0.0, 0.0, 0.0, 0.0, 0.0, 0.0, 0.0, 0.0, 0.0, 1.7068834055761724E9, 0.0, 2024-02-02 15:16:45.576
204.0, 64005.33783499454, 65815.27034226303, -29753.859907848826, -16456.717724408834, 16472.699221694376, 4940.607242656618, 22422.755947441572, 4757.367641612011, 41981.337008635644, 47473.49589747142, 37495.811283089075, 50604.34944681519, 22714.915599216893, 27711.62572045633, -8998.365282817518, -4154.831666330298, -0.122, 0.986, 0.28400000000000003, 192.0, 0.0, 0.0, 0.0, 0.0, 0.0, 0.0, 0.0, 0.0, 0.0, 1.7068834055841937E9, 0.0, 2024-02-02 15:16:45.584
206.0, 64003.63910241594, 65813.61631317333, -29760.096044551858, -16458.25999477625, 16472.006317616262, 4938.796751355738, 22422.443023019197, 4757.188827656368, 41985.5614883377, 47491.62316222467, 37497.845291834514, 50609.6468102511, 22714.960302705804, 27724.790897940507, -8993.693768226358, -4145.823913314809, -0.132, 0.984, 0.28600000000000003, 192.0, 125.5, 112.0, 15.0, 96.0, 4.0, 120.0, 0.0, 0.0, 0.0, 1.706883405592036E9, 0.0, 2024-02-02 15:16:45.592
208.0, 64006.32131175057, 65814.532734696, -29757.994980573058, -16458.371753498526, 16472.20748331636, 4946.262234003811, 22415.15635432677, 4757.412345100921, 41979.63827605704, 47481.90015338662, 37495.72187611126, 50606.897545683096, 22709.97586369227, 27720.96874963865, -8996.934771172379, -4146.8520935597535, -0.132, 0.984, 0.28600000000000003, 192.0, 0.0, 0.0, 0.0, 0.0, 0.0, 0.0, 0.0, 0.0, 0.0, 1.7068834055990536E9, 0.0, 2024-02-02 15:16:45.599
210.0, 64005.986035583745, 65817.43846147519, -29757.480890450584, -16458.39410524298, 16472.40864901646, 4950.017327072302, 22426.466337021153, 4765.637787060474, 41980.48764234634, 47483.97886562096, 37497.93469881233, 50610.98791491841, 22714.669730027883, 27722.689833961707, -8994.476079282294, -4142.940538280075, -0.132, 0.984, 0.28600000000000003, 192.0, 0.0, 0.0, 0.0, 0.0, 0.0, 0.0, 0.0, 0.0, 0.0, 1.7068834056083517E9, 0.0, 2024-02-02 15:16:45.608
212.0, 64006.745994895224, 65815.91854285223, -29757.905573595235, -16456.918890108933, 16474.800285673176, 4948.184484026967, 22426.086357365413, 4763.581426570586, 41977.47015684487, 47497.90400241662, 37493.866681321466, 50612.03844690781, 22709.64058752544, 27732.05521488848, -8994.185506604375, -4143.879311547197, -0.132, 0.984, 0.28600000000000003, 192.0, 0.0, 0.0, 0.0, 0.0, 0.0, 0.0, 0.0, 0.0, 0.0, 1.7068834056160812E9, 0.0, 2024-02-02 15:16:45.616
214.0, 64008.26591351818, 65820.90298186577, -29753.3234659819, -16446.033590559196, 16480.25411132027, 4951.447838717441, 22434.736482469616, 4767.89531325046, 41979.660627801495, 47497.322857060775, 37500.32633546905, 50618.83337722223, 22713.418032338388, 27733.999816656094, -8987.479983267784, -4137.911395777631, -0.132, 0.984, 0.28600000000000003, 192.0, 0.0, 0.0, 0.0, 0.0, 0.0, 0.0, 0.0, 0.0, 0.0, 1.7068834056231153E9, 0.0, 2024-02-02 15:16:45.623
216.0, 63994.78781161163, 65809.77181312702, -29767.472120222108, -16458.327050009615, 16468.094762336583, 4938.036792044258, 22415.2904647935, 4748.203426385335, 41968.752976507305, 47500.38504605115, 37490.49156790871, 50615.07828415374, 22709.417070080886, 27729.887095676317, -8997.605323506037, -4145.578044125801, -0.128, 0.98, 0.28400000000000003, 192.0, 126.0, 0.0, 15.0, 80.0, 4.0, 112.0, 0.0, 0.0, 0.0, 1.7068834056322987E9, 0.0, 2024-02-02 15:16:45.632
218.0, 63999.57108492507, 65815.82913587442, -29762.84530911986, -16452.649706917968, 16471.134599582507, 4943.222396757888, 22421.3924910298, 4755.6689090334075, 41963.92499970496, 47495.02062738188, 37492.34676269851, 50614.45243530899, 22702.845657211026, 27723.047461872993, -8999.348759573551, -4145.9133202926305, -0.128, 0.98, 0.28400000000000003, 192.0, 0.0, 0.0, 0.0, 0.0, 0.0, 0.0, 0.0, 0.0, 0.0, 1.7068834056400995E9, 0.0, 2024-02-02 15:16:45.640
220.0, 64002.47681170426, 65817.4831649641, -29763.381750986788, -16455.041343574685, 16466.01605010224, 4941.054277545724, 22416.81038341646, 4756.004185200237, 41963.83559272714, 47498.239278583445, 37497.26414647867, 50616.73231324343, 22709.50647705871, 27734.804479456485, -8994.699596726847, -4139.1630934671275, -0.128, 0.98, 0.28400000000000003, 192.0, 0.0, 0.0, 0.0, 0.0, 0.0, 0.0, 0.0, 0.0, 0.0, 1.7068834056481316E9, 0.0, 2024-02-02 15:16:45.648
222.0, 64009.09292806303, 65822.9816941001, -29756.83268986138, -16448.648744660466, 16470.486398993304, 4945.748143881338, 22423.24768581959, 4761.145086424957, 41961.19808688141, 47499.1109966172, 37497.24179473422, 50615.413560320565, 22703.58326477805, 27727.741328208605, -8997.8735444395, -4142.20293071305, -0.128, 0.98, 0.28400000000000003, 192.0, 0.0, 0.0, 0.0, 0.0, 0.0, 0.0, 0.0, 0.0, 0.0, 1.7068834056551335E9, 0.0, 2024-02-02 15:16:45.655
224.0, 64004.64493091642, 65821.12649931033, -29759.358436984832, -16450.83921561709, 16466.619547202536, 4943.222396757888, 22418.82204041744, 4757.255882889734, 41964.43908982743, 47498.999237894925, 37505.534291927135, 50622.63317377963, 22706.667805512883, 27732.368139310856, -8987.68114896788, -4135.206834698539, -0.128, 0.98, 0.28400000000000003, 192.0, 0.0, 0.0, 0.0, 0.0, 0.0, 0.0, 0.0, 0.0, 0.0, 1.706883405664333E9, 0.0, 2024-02-02 15:16:45.664
226.0, 63993.58081741105, 65812.99046432858, -29769.93081211219, -16455.17545404142, 16458.125884309517, 4928.649059373029, 22412.09416533639, 4747.108190907024, 41950.53630477623, 47498.41809253908, 37489.93277429733, 50610.63028700713, 22700.901055443413, 27721.996929883593, -9001.248657852251, -4148.841398816276, -0.127, 0.98, 0.28200000000000003, 192.0, 126.0, 8.0, 15.0, 80.0, 4.0, 96.0, 0.0, 0.0, 0.0, 1.7068834056721208E9, 0.0, 2024-02-02 15:16:45.672
228.0, 64010.72460540827, 65827.42969124671, -29754.686922393674, -16441.92086957942, 16473.369774028037, 4948.519760193796, 22424.56643874245, 4762.217970158812, 41952.77147922176, 47497.881650672156, 37495.16308249987, 50614.698304498, 22704.991424678734, 27728.881267175828, -8998.745262473258, -4146.136837737184, -0.127, 0.98, 0.28200000000000003, 192.0, 0.0, 0.0, 0.0, 0.0, 0.0, 0.0, 0.0, 0.0, 0.0, 1.7068834056791334E9, 0.0, 2024-02-02 15:16:45.679
230.0, 64002.834439615544, 65819.47247022063, -29760.386617229775, -16450.63804991699, 16467.714782680843, 4946.2175305149, 22417.078604349925, 4757.524103823198, 41958.73939499133, 47506.196499609534, 37504.37200121546, 50620.84503422321, 22713.753308505216, 27736.10088063489, -8989.357529802028, -4135.63151784319, -0.127, 0.98, 0.28200000000000003, 192.0, 0.0, 0.0, 0.0, 0.0, 0.0, 0.0, 0.0, 0.0, 0.0, 1.7068834056871643E9, 0.0, 2024-02-02 15:16:45.687
232.0, 64008.13180305145, 65821.97586559963, -29757.816166617416, -16449.364000483038, 16469.078239092618, 4947.804504371226, 22413.077642092427, 4757.389993356466, 41949.50812453129, 47501.033246640356, 37497.06298077857, 50611.92668818554, 22706.511343301696, 27724.075642117936, -8996.845364194556, -4145.287471447882, -0.127, 0.98, 0.28200000000000003, 192.0, 0.0, 0.0, 0.0, 0.0, 0.0, 0.0, 0.0, 0.0, 0.0, 1.706883405696135E9, 0.0, 2024-02-02 15:16:45.696
234.0, 64008.46707921828, 65822.62406618883, -29757.994980573058, -16449.118131294028, 16471.693393193887, 4947.469228204397, 22425.102880609382, 4760.698051535851, 41951.408022809985, 47496.04880762682, 37505.06490529358, 50616.66525801006, 22712.680424771363, 27734.469203289653, -8991.324483314096, -4141.353564423748, -0.127, 0.98, 0.28200000000000003, 192.0, 0.0, 0.0, 0.0, 0.0, 0.0, 0.0, 0.0, 0.0, 0.0, 1.7068834057031984E9, 0.0, 2024-02-02 15:16:45.703
236.0, 64006.18720128384, 65820.29948476548, -29760.453672463143, -16449.185186527397, 16466.887768136, 4946.686917148461, 22417.302121794477, 4758.08289743458, 41949.06108964218, 47506.50942403191, 37500.214576746774, 50614.56419403126, 22713.68625327185, 27735.609142256875, -8995.59366650506, -4138.939576022574, -0.1265, 0.982, 0.281, 192.0, 126.0, 8.0, 15.0, 96.0, 4.0, 96.0, 0.0, 0.0, 0.0, 1.70688340571118E9, 0.0, 2024-02-02 15:16:45.711
238.0, 64009.51761120768, 65823.47343247813, -29753.256410748534, -16441.45148294586, 16471.98396587181, 4957.818085887205, 22418.553819483976, 4764.251978904245, 41945.17188610696, 47505.34713332023, 37502.96384131478, 50616.754664987886, 22713.01570093819, 27736.704377735186, -8995.146631615953, -4136.614994599223, -0.1265, 0.982, 0.281, 192.0, 0.0, 0.0, 0.0, 0.0, 0.0, 0.0, 0.0, 0.0, 0.0, 1.706883405720518E9, 0.0, 2024-02-02 15:16:45.720
240.0, 64006.14249779493, 65819.27130452053, -29755.17866077169, -16445.05011380316, 16467.40185825847, 4953.571254440696, 22414.15052582628, 4762.620301559008, 41940.075688371144, 47503.78251120836, 37504.81903610456, 50619.10159815569, 22715.295578872632, 27739.431290558732, -8991.324483314096, -4131.71996256351, -0.1265, 0.982, 0.281, 192.0, 0.0, 0.0, 0.0, 0.0, 0.0, 0.0, 0.0, 0.0, 0.0, 1.706883405727183E9, 0.0, 2024-02-02 15:16:45.727
242.0, 64002.54386693762, 65816.72320565263, -29758.866698606816, -16451.085084806095, 16464.87611113502, 4947.469228204397, 22412.49649673659, 4758.03819394567, 41935.8512086691, 47507.00116240992, 37502.42739944785, 50619.883909211625, 22706.891322957435, 27735.20681085668, -8996.286570583174, -4135.519759120913, -0.1265, 0.982, 0.281, 192.0, 0.0, 0.0, 0.0, 0.0, 0.0, 0.0, 0.0, 0.0, 0.0, 1.7068834057353315E9, 0.0, 2024-02-02 15:16:45.735
244.0, 64007.37184373997, 65816.54439169698, -29757.07855905039, -16450.97332608382, 16469.569977470634, 4946.1504752815335, 22414.217581059645, 4757.367641612011, 41931.58202547813, 47491.73492094695, 37502.96384131478, 50615.36885683166, 22713.68625327185, 27725.1932293407, -8995.727776971791, -4141.845302801765, -0.1265, 0.982, 0.281, 192.0, 0.0, 0.0, 0.0, 0.0, 0.0, 0.0, 0.0, 0.0, 0.0, 1.706883405743251E9, 0.0, 2024-02-02 15:16:45.743
246.0, 64008.154154795906, 65816.6337986748, -29763.337047497876, -16456.270689519726, 16462.462122733847, 4939.467303689397, 22412.29533103649, 4752.427906087388, 41930.10681034408, 47498.64160998364, 37503.07560003705, 50620.241537122914, 22712.747480004728, 27728.613046242364, -8997.806489206134, -4143.119352235717, -0.12725, 0.981, 0.2785, 192.0, 126.0, 0.0, 15.0, 80.0, 4.0, 80.0, 0.0, 0.0, 0.0, 1.7068834057523167E9, 0.0, 2024-02-02 15:16:45.752
248.0, 64023.80037591462, 65833.82229016094, -29746.282666478477, -16436.981134054797, 16477.683660707913, 4954.867655619104, 22423.180630586223, 4766.75537428324, 41927.42460100944, 47498.48514777245, 37507.45654195029, 50624.868348225165, 22712.188686393343, 27727.42840378623, -8996.487736283272, -4139.654831845144, -0.12725, 0.981, 0.2785, 192.0, 0.0, 0.0, 0.0, 0.0, 0.0, 0.0, 0.0, 0.0, 0.0, 1.7068834057592313E9, 0.0, 2024-02-02 15:16:45.759
250.0, 64013.04918683162, 65825.90977262375, -29746.93086706768, -16441.40677945695, 16477.862474663554, 4949.525588694285, 22422.91240965276, 4764.810772515628, 41935.58298773563, 47508.45402579952, 37523.505094469205, 50640.380458877145, 22728.34899763453, 27739.20777311418, -8979.500410497238, -4123.33805839277, -0.12725, 0.981, 0.2785, 192.0, 0.0, 0.0, 0.0, 0.0, 0.0, 0.0, 0.0, 0.0, 0.0, 1.7068834057673087E9, 0.0, 2024-02-02 15:16:45.767
252.0, 64002.16388728189, 65816.16441204124, -29755.469233449607, -16455.264861019237, 16469.234701303805, 4939.31084147821, 22415.491630493598, 4754.953653210838, 41919.757952661275, 47496.29467681583, 37505.243719249214, 50621.8955662126, 22714.82619223907, 27726.646092730298, -8991.883276925479, -4142.851131302254, -0.12725, 0.981, 0.2785, 192.0, 0.0, 0.0, 0.0, 0.0, 0.0, 0.0, 0.0, 0.0, 0.0, 1.706883405776454E9, 0.0, 2024-02-02 15:16:45.776
254.0, 64006.410718728395, 65819.8300981319, -29749.970704313604, -16451.085084806095, 16477.59425373009, 4946.530454937274, 22420.811345673963, 4761.525066080698, 41918.68506892742, 47487.175165078064, 37507.9035768394, 50623.817816235765, 22720.34707311953, 27722.175743839234, -8989.156364101931, -4142.96289002453, -0.12725, 0.981, 0.2785, 192.0, 0.0, 0.0, 0.0, 0.0, 0.0, 0.0, 0.0, 0.0, 0.0, 1.706883405783494E9, 0.0, 2024-02-02 15:16:45.783
0.0, 64003.03560531564, 65816.56674344144, -29752.45174794814, -16454.907233107955, 16474.666175206446, 4939.35554496712, 22415.96101712716, 4757.233531145279, 41917.14279856, 47493.72422620347, 37507.18832101683, 50624.13074065814, 22719.29654113013, 27722.511020006066, -8990.408061791428, -4144.348698180759, -0.127625, 0.9835, 0.27825, 192.0, 126.0, 0.0, 15.0, 104.0, 4.0, 88.0, 0.0, 0.0, 0.0, 1.706883405791329E9, 0.0, 2024-02-02 15:16:45.791
2.0, 64017.09485257803, 65827.40733950226, -29739.152459997233, -16440.892689334476, 16487.16080035696, 4953.8394753741595, 22425.214639331658, 4769.683452806885, 41921.009650350774, 47495.26649657089, 37517.47012346627, 50630.41158085008, 22724.63860805495, 27723.449793273187, -8981.780288431679, -4135.475055632002, -0.127625, 0.9835, 0.27825, 192.0, 0.0, 0.0, 0.0, 0.0, 0.0, 0.0, 0.0, 0.0, 0.0, 1.706883405799328E9, 0.0, 2024-02-02 15:16:45.799
4.0, 64003.3038262491, 65817.52786845302, -29748.942524068658, -16447.441750459882, 16476.275500807227, 4942.283623490765, 22413.68113919272, 4759.267539890711, 41920.160284061465, 47493.83598492575, 37516.598405432516, 50629.78573200533, 22733.668712814895, 27732.926932922237, -8983.434317521373, -4134.603337598245, -0.127625, 0.9835, 0.27825, 192.0, 0.0, 0.0, 0.0, 0.0, 0.0, 0.0, 0.0, 0.0, 0.0, 1.70688340580853E9, 0.0, 2024-02-02 15:16:45.808
6.0, 64009.65172167441, 65823.92046736724, -29745.589762400363, -16443.664305646933, 16480.924663653932, 4950.330251494676, 22424.00764513107, 4766.442449860865, 41913.454760724875, 47496.138214604645, 37511.077524552056, 50625.8518249812, 22729.19836392383, 27728.00954914207, -8986.45180302284, -4138.403134155647, -0.127625, 0.9835, 0.27825, 192.0, 0.0, 0.0, 0.0, 0.0, 0.0, 0.0, 0.0, 0.0, 0.0, 1.7068834058153567E9, 0.0, 2024-02-02 15:16:45.815
