%OpenBCI Raw EXG Data
%Number of channels = 16
%Sample Rate = 125 Hz
%Board = OpenBCI_GUI$BoardCytonSerialDaisy
Sample Index, EXG Channel 0, EXG Channel 1, EXG Channel 2, EXG Channel 3, EXG Channel 4, EXG Channel 5, EXG Channel 6, EXG Channel 7, EXG Channel 8, EXG Channel 9, EXG Channel 10, EXG Channel 11, EXG Channel 12, EXG Channel 13, EXG Channel 14, EXG Channel 15, Accel Channel 0, Accel Channel 1, Accel Channel 2, Other, Other, Other, Other, Other, Other, Other, Analog Channel 0, Analog Channel 1, Analog Channel 2, Timestamp, Other, Timestamp (Formatted)
0.0, 59683.918617238836, 62997.207104826826, -31470.94326864997, -2564.750917524209, 17575.80251405269, 9049.260204942251, 28649.28140035646, 4315.160729308215, 0.0, 0.0, 0.0, 0.0, 0.0, 0.0, 0.0, 0.0, 0.0, 0.0, 0.0, 192.0, 0.0, 0.0, 0.0, 0.0, 0.0, 0.0, 0.0, 0.0, 0.0, 1.7068825804496615E9, 0.0, 2024-02-02 15:03:00.449
120.0, 59679.11299218095, 62991.57446522409, -31488.93642293649, -2581.268856676681, 17557.27291789924, 9060.950167292378, 28633.232847837553, 4300.140357034249, 34555.707520926895, 46001.745283811724, 35560.55254465968, 44038.12218166854, 24648.140328900856, 24280.364725633233, -2266.0422046234853, 48.19036104564203, 0.0, 0.0, 0.0, 192.0, 0.0, 0.0, 0.0, 0.0, 0.0, 0.0, 0.0, 0.0, 0.0, 1.7068825804496849E9, 0.0, 2024-02-02 15:03:00.449
0.0, 29927.19768609973, 31604.87492142617, -15755.364686890209, -1293.3389894174325, 8777.284178410075, 4504.278839144568, 14289.850209933546, 2153.0317846574526, 17290.214275147235, 23005.51062888034, 17790.736888734926, 22026.817146160265, 12337.470035251385, 12145.78147480267, -1127.623156025786, 30.308965481396378, -0.1, 0.986, 0.246, 192.0, 126.0, 112.0, 15.0, 104.0, 3.5, 88.0, 0.0, 0.0, 0.0, 1.7068825805608327E9, 0.0, 2024-02-02 15:03:00.560
2.0, 59855.44590418886, 63204.184258482965, -31515.222074415935, -2596.691560350843, 17551.50616782977, 9001.226306107797, 28574.93949829811, 4300.341522734347, 34681.36902825463, 46056.68587168287, 35692.76311311282, 44186.40365438505, 24534.34759787889, 24330.924371591136, -2326.727190819644, 51.23019829156379, -0.1, 0.986, 0.246, 192.0, 0.0, 0.0, 0.0, 0.0, 0.0, 0.0, 0.0, 0.0, 0.0, 1.7068825805665803E9, 0.0, 2024-02-02 15:03:00.566
4.0, 59854.350668710555, 63209.54867715224, -31526.420298388042, -2598.4796999072673, 17559.932775489426, 9009.943486445367, 28589.065800793865, 4309.0363513274615, 34638.498382389356, 46060.59742696255, 35682.48131066338, 44185.95661949595, 24541.075472959936, 24336.15467979368, -2324.782589052032, 47.542160456438125, -0.1, 0.986, 0.246, 192.0, 0.0, 0.0, 0.0, 0.0, 0.0, 0.0, 0.0, 0.0, 0.0, 1.706882580575635E9, 0.0, 2024-02-02 15:03:00.575
6.0, 59856.2282152448, 63211.09094751966, -31518.306615150766, -2600.4466534193343, 17558.591670822105, 9009.272934111706, 28585.89185308121, 4314.71369441911, 34595.18070163497, 46062.54202873016, 35697.21111025943, 44192.39392189907, 24552.60897309887, 24322.475412187032, -2321.9662692506636, 51.386660502750935, -0.1, 0.986, 0.246, 192.0, 0.0, 0.0, 0.0, 0.0, 0.0, 0.0, 0.0, 0.0, 0.0, 1.7068825805838675E9, 0.0, 2024-02-02 15:03:00.583
8.0, 59858.329279223595, 63209.302807963235, -31508.449495845976, -2603.8888220654517, 17556.959993476867, 9007.73066374429, 28584.282527480427, 4317.105331075827, 34516.21198847437, 46061.58090371858, 35691.86904333461, 44181.93330549399, 24511.168838878733, 24325.381138966222, -2329.4764553876466, 41.44013422013929, -0.108, 0.996, 0.248, 192.0, 126.0, 80.0, 15.5, 16.0, 3.5, 96.0, 0.0, 0.0, 0.0, 1.7068825805916464E9, 0.0, 2024-02-02 15:03:00.591
10.0, 59862.397296714465, 63212.856735331625, -31514.551522082274, -2583.660493333399, 17563.03966796871, 9012.111605657532, 28584.774265858447, 4321.598031711344, 34429.48721998778, 46058.96574961731, 35692.31607822372, 44192.55038411026, 24520.109536660857, 24339.328627506333, -2326.995411753108, 43.74236389903592, -0.108, 0.996, 0.248, 192.0, 0.0, 0.0, 0.0, 0.0, 0.0, 0.0, 0.0, 0.0, 0.0, 1.7068825805996196E9, 0.0, 2024-02-02 15:03:00.599
12.0, 59847.26516571822, 63203.58076138268, -31520.340623896198, -2602.6371243759545, 17558.815188266657, 8994.9231141714, 28586.830626348335, 4313.506700218523, 34339.052061921604, 46076.51186901473, 35685.029409531286, 44193.22093644392, 24494.762658448537, 24337.406377483177, -2319.909908760775, 51.36430875829563, -0.108, 0.996, 0.248, 192.0, 0.0, 0.0, 0.0, 0.0, 0.0, 0.0, 0.0, 0.0, 0.0, 1.7068825806066997E9, 0.0, 2024-02-02 15:03:00.606
14.0, 59854.127151266, 63212.78968009826, -31513.098658692677, -2589.6060573585105, 17561.13976969001, 9021.8793179845, 28591.904472339687, 4319.519319477001, 34281.49631994919, 46049.578016946085, 35685.43174093148, 44181.7768432828, 24511.347652834374, 24330.142060535203, -2325.2519756855936, 38.6014626743153, -0.108, 0.996, 0.248, 192.0, 0.0, 0.0, 0.0, 0.0, 0.0, 0.0, 0.0, 0.0, 0.0, 1.706882580615655E9, 0.0, 2024-02-02 15:03:00.615
16.0, 59857.54696816766, 63212.588514398165, -31511.489333091897, -2585.2474671897253, 17563.889034258013, 9016.246678381764, 28592.932652584634, 4321.2404038000595, 34207.44499056876, 46078.97056090481, 35683.50949090833, 44201.96046852595, 24508.03959465499, 24342.97196185255, -2320.826330283443, 54.51590472649393, -0.108, 0.996, 0.248, 192.0, 0.0, 0.0, 0.0, 0.0, 0.0, 0.0, 0.0, 0.0, 0.0, 1.7068825806236992E9, 0.0, 2024-02-02 15:03:00.623
18.0, 59849.813264586126, 63202.03849101526, -31520.787658785306, -2605.833423833063, 17557.67524929944, 9005.987227676776, 28584.103713524786, 4312.210299040115, 34187.1719583478, 46063.30198804164, 35685.655258376035, 44193.10917772164, 24503.412783552743, 24333.2936565034, -2318.6135075823677, 51.386660502750935, -0.108, 0.994, 0.242, 192.0, 126.0, 80.0, 15.5, 8.0, 3.5, 72.0, 0.0, 0.0, 0.0, 1.706882580630669E9, 0.0, 2024-02-02 15:03:00.630
20.0, 59850.48381691978, 63210.2192294859, -31517.300786650278, -2602.234792975759, 17558.748133033292, 9008.132995144486, 28587.009440303977, 4316.032447341972, 34115.802838302, 46076.198944592354, 35684.962354297924, 44188.527070108306, 24496.41668753823, 24334.52300244844, -2322.6815250732334, 43.652956921214695, -0.108, 0.994, 0.242, 192.0, 0.0, 0.0, 0.0, 0.0, 0.0, 0.0, 0.0, 0.0, 0.0, 1.7068825806399305E9, 0.0, 2024-02-02 15:03:00.639
22.0, 59838.72679933629, 63201.07736600368, -31534.533981625318, -2605.0511127771274, 17549.919193973445, 8998.25352409524, 28575.78886458741, 4308.254040271526, 34089.60659380038, 46081.96569466182, 35679.6202873731, 44184.324942150706, 24511.124135389822, 24337.920467605647, -2327.733019320133, 47.27393952297444, -0.108, 0.994, 0.242, 192.0, 0.0, 0.0, 0.0, 0.0, 0.0, 0.0, 0.0, 0.0, 0.0, 1.7068825806476912E9, 0.0, 2024-02-02 15:03:00.647
24.0, 59847.08635176258, 63205.90534280603, -31529.393080400598, -2616.5175576827, 17557.0941039436, 8995.481907782783, 28580.773303600945, 4312.277354273481, 34070.205279613176, 46064.37487177549, 35659.59312434115, 44172.47851758939, 24493.510960759042, 24340.245049029, -2339.780609581543, 32.54413992692708, -0.108, 0.994, 0.242, 192.0, 0.0, 0.0, 0.0, 0.0, 0.0, 0.0, 0.0, 0.0, 0.0, 1.706882580655714E9, 0.0, 2024-02-02 15:03:00.655
26.0, 59850.305002964145, 63210.53215390827, -31511.601091814173, -2589.0249120026724, 17558.748133033292, 9012.715102757824, 28588.12702752674, 4320.167520066205, 34021.63493891179, 46074.43315678038, 35693.3219067242, 44190.829299787205, 24501.736402718594, 24317.446269684588, -2317.3841616373256, 53.35361401481796, -0.108, 0.994, 0.242, 192.0, 0.0, 0.0, 0.0, 0.0, 0.0, 0.0, 0.0, 0.0, 0.0, 1.7068825806627162E9, 0.0, 2024-02-02 15:03:00.662
28.0, 59841.23019471529, 63203.40194742703, -31521.99465298589, -2602.860641820507, 17558.23404291082, 9004.579067776092, 28583.23199549103, 4315.875985130785, 33998.63499386728, 46077.09301437056, 35676.669857105, 44174.959561223935, 24504.172742864223, 24319.033243540915, -2336.427847913247, 37.930910340656084, -0.098, 0.998, 0.244, 192.0, 126.0, 120.0, 15.5, 24.0, 3.5, 80.0, 0.0, 0.0, 0.0, 1.7068825806720233E9, 0.0, 2024-02-02 15:03:00.672
30.0, 59847.93571805188, 63209.302807963235, -31516.47377210543, -2599.485528407756, 17561.162121434467, 9008.222402122308, 28590.429257205637, 4322.04506660045, 33985.894499527756, 46072.55561024614, 35683.978877541886, 44185.46488111793, 24499.14360036178, 24337.227563527533, -2321.832158783932, 46.02224183347724, -0.098, 0.998, 0.244, 192.0, 0.0, 0.0, 0.0, 0.0, 0.0, 0.0, 0.0, 0.0, 0.0, 1.7068825806797645E9, 0.0, 2024-02-02 15:03:00.679
32.0, 59848.65097387445, 63210.912133564016, -31518.91011225106, -2595.775138828175, 17556.691772543403, 9006.411910821427, 28584.32723096934, 4315.764226408509, 33972.43874936566, 46085.34080807457, 35681.76605484081, 44186.71657880743, 24502.47401028562, 24335.551182693387, -2328.8729582873534, 44.72584065506943, -0.098, 0.998, 0.244, 192.0, 0.0, 0.0, 0.0, 0.0, 0.0, 0.0, 0.0, 0.0, 0.0, 1.7068825806877708E9, 0.0, 2024-02-02 15:03:00.687
34.0, 59852.36136345403, 63216.90240107804, -31520.56414134075, -2595.0822347500607, 17556.22238590984, 8995.236038593774, 28579.298088466894, 4311.785615895465, 33966.448481851636, 46083.28444758469, 35686.90695606553, 44190.56107885374, 24509.872437700327, 24352.359694523777, -2328.962365265175, 40.166084786186794, -0.098, 0.998, 0.244, 192.0, 0.0, 0.0, 0.0, 0.0, 0.0, 0.0, 0.0, 0.0, 0.0, 1.7068825806947467E9, 0.0, 2024-02-02 15:03:00.694
36.0, 59846.50520640674, 63211.56033415322, -31520.027699473823, -2595.775138828175, 17555.752999276283, 9014.391483591973, 28578.493425666504, 4311.584450195366, 33976.32795290089, 46099.37770359251, 35689.76797935581, 44195.0314277448, 24519.059004671457, 24338.38985423921, -2330.8175600549653, 48.45858197910571, -0.098, 0.998, 0.244, 192.0, 0.0, 0.0, 0.0, 0.0, 0.0, 0.0, 0.0, 0.0, 0.0, 1.7068825807037754E9, 0.0, 2024-02-02 15:03:00.703
38.0, 59845.99111628427, 63206.285322461765, -31524.028661731325, -2599.1055487520157, 17553.38371436402, 8999.259352595729, 28575.967678543053, 4306.0412175704505, 33968.16956617469, 46084.64790399646, 35675.35110418214, 44174.91485773502, 24486.98425137809, 24315.1887434946, -2337.0313450135404, 43.116515054287326, -0.10200000000000001, 1.004, 0.244, 192.0, 126.0, 104.0, 15.5, 48.0, 3.5, 80.0, 0.0, 0.0, 0.0, 1.7068825807120235E9, 0.0, 2024-02-02 15:03:00.712
40.0, 59851.22142448681, 63210.82272658619, -31519.044222717792, -2596.982133028762, 17554.031914953222, 8998.477041539794, 28570.17857672913, 4305.482423959068, 33992.55531937544, 46090.7275784883, 35688.42687468849, 44181.44156711597, 24506.407917309753, 24336.892287360704, -2332.7845135670323, 43.407087732206314, -0.10200000000000001, 1.004, 0.244, 192.0, 0.0, 0.0, 0.0, 0.0, 0.0, 0.0, 0.0, 0.0, 0.0, 1.7068825807188072E9, 0.0, 2024-02-02 15:03:00.718
42.0, 59853.54600591016, 63211.0685957752, -31516.876103505627, -2597.630333617966, 17554.18837716441, 9001.002788663243, 28576.727637854536, 4306.264735015004, 34012.56013066294, 46099.02007568122, 35686.7728455988, 44182.04506421627, 24505.737364976092, 24332.71251114756, -2339.1994642257055, 38.75792488550245, -0.10200000000000001, 1.004, 0.244, 192.0, 0.0, 0.0, 0.0, 0.0, 0.0, 0.0, 0.0, 0.0, 0.0, 1.7068825807277875E9, 0.0, 2024-02-02 15:03:00.727
44.0, 59855.28944197768, 63216.164793511016, -31508.628309801617, -2592.690598093343, 17562.547929590695, 9007.68596025538, 28584.684858880624, 4313.126720562783, 34047.87588690232, 46105.18915715089, 35694.461845691425, 44185.68839856248, 24507.078469643413, 24342.837851385815, -2328.8059030539875, 40.72487839756947, -0.10200000000000001, 1.004, 0.244, 192.0, 0.0, 0.0, 0.0, 0.0, 0.0, 0.0, 0.0, 0.0, 0.0, 1.7068825807358444E9, 0.0, 2024-02-02 15:03:00.735
46.0, 59838.905613291936, 63201.613807870606, -31534.109298480667, -2611.2425459912474, 17543.75011250378, 8991.100965869542, 28565.976448771533, 4294.306551731414, 34067.5901255119, 46106.79848275167, 35683.710656608426, 44182.64856131656, 24511.8840947013, 24338.322799005844, -2335.4220194127583, 39.048497563421435, -0.10200000000000001, 1.004, 0.244, 192.0, 0.0, 0.0, 0.0, 0.0, 0.0, 0.0, 0.0, 0.0, 0.0, 1.706882580742841E9, 0.0, 2024-02-02 15:03:00.742
48.0, 59847.10870350704, 63205.05597651673, -31507.980109212414, -2600.0666737635943, 17556.535310332216, 8997.962951417321, 28578.783998344425, 4298.128700033271, 34124.788239573034, 46111.62645955401, 35678.68151410598, 44176.434776357986, 24501.311719573943, 24328.599790167784, -2344.250958472605, 31.448904448617036, -0.098, 0.992, 0.244, 192.0, 126.0, 120.0, 15.5, 0.0, 3.5, 80.0, 0.0, 0.0, 0.0, 1.7068825807508545E9, 0.0, 2024-02-02 15:03:00.750
50.0, 59850.17089249741, 63205.61477012811, -31510.416449358043, -2594.3446271830353, 17561.13976969001, 9001.561582274626, 28578.940460555612, 4301.637923912755, 34176.107844842416, 46113.749875277266, 35697.188758514974, 44189.1305672086, 24509.51480978904, 24350.705665434085, -2325.475493130147, 47.07277382287668, -0.098, 0.992, 0.244, 192.0, 0.0, 0.0, 0.0, 0.0, 0.0, 0.0, 0.0, 0.0, 0.0, 1.7068825807600956E9, 0.0, 2024-02-02 15:03:00.760
52.0, 59837.2739359467, 63199.088060747155, -31525.660339076563, -2610.616697146499, 17553.42841785293, 8995.772480460702, 28574.648925620193, 4295.401787209724, 34197.16318811932, 46127.47384637283, 35680.6708193625, 44180.70395954895, 24506.698489987673, 24350.884479389726, -2339.0653537589733, 34.68990739463656, -0.098, 0.992, 0.244, 192.0, 0.0, 0.0, 0.0, 0.0, 0.0, 0.0, 0.0, 0.0, 0.0, 1.7068825807668903E9, 0.0, 2024-02-02 15:03:00.766
54.0, 59851.914328564926, 63209.66043587452, -31510.10352493567, -2585.850964290019, 17560.603327823083, 9006.233096865786, 28582.337925712818, 4306.3317902483695, 34270.29809597708, 46127.16092195045, 35683.19656648595, 44185.55428809575, 24509.00071966657, 24346.01179909847, -2338.104228747395, 34.153465527709194, -0.098, 0.992, 0.244, 192.0, 0.0, 0.0, 0.0, 0.0, 0.0, 0.0, 0.0, 0.0, 0.0, 1.706882580774878E9, 0.0, 2024-02-02 15:03:00.774
56.0, 59841.967802282314, 63201.949084037435, -31524.587455342706, -2601.966572042295, 17543.057208425667, 8993.44789903735, 28566.75875982747, 4293.054854041917, 34300.830578903035, 46141.55544537967, 35685.20822348693, 44186.560116596236, 24514.029862169013, 24348.269325288456, -2339.4900369036245, 32.767657371480155, -0.098, 0.992, 0.244, 192.0, 0.0, 0.0, 0.0, 0.0, 0.0, 0.0, 0.0, 0.0, 0.0, 1.7068825807828946E9, 0.0, 2024-02-02 15:03:00.782
58.0, 59845.78995058417, 63203.156078238026, -31519.737126795906, -2602.614772631499, 17555.99886846529, 8991.078614125086, 28574.626573875736, 4298.508679689012, 34343.70122476831, 46136.8392272996, 35685.54349965376, 44189.57760209771, 24512.308777845956, 24354.885441647228, -2340.3170514484705, 35.807494617401915, -0.096, 0.986, 0.242, 192.0, 126.5, 0.0, 15.0, 104.0, 3.5, 72.0, 0.0, 0.0, 0.0, 1.7068825807921135E9, 0.0, 2024-02-02 15:03:00.792
60.0, 59845.99111628427, 63208.76636609631, -31516.987862227903, -2597.8985545514292, 17549.42745559543, 8999.482870040283, 28573.866614564256, 4297.100519788328, 34366.187079690346, 46135.09579123209, 35683.04010427476, 44180.9274769935, 24494.762658448537, 24379.74058148153, -2338.730077592144, 27.112666024287467, -0.096, 0.986, 0.242, 192.0, 0.0, 0.0, 0.0, 0.0, 0.0, 0.0, 0.0, 0.0, 0.0, 1.706882580798924E9, 0.0, 2024-02-02 15:03:00.798
62.0, 59841.36430518202, 63204.27366546079, -31518.28426340631, -2595.998656272728, 17555.28361264272, 9008.065939911121, 28574.000725030986, 4295.871173843286, 34401.39107720746, 46172.55731493918, 35686.81754908771, 44193.332695166195, 24545.81404278446, 24338.278095516933, -2339.9147200482753, 42.44596272062811, -0.096, 0.986, 0.242, 192.0, 0.0, 0.0, 0.0, 0.0, 0.0, 0.0, 0.0, 0.0, 0.0, 1.7068825808069477E9, 0.0, 2024-02-02 15:03:00.806
64.0, 59857.926947823405, 63216.008331299825, -31500.313460864243, -2577.402004885913, 17564.91721450296, 9011.038721923676, 28584.908376325177, 4305.2812582589695, 34455.66111274494, 46159.01215779927, 35697.613441659625, 44193.44445388847, 24518.969597693635, 24349.565726466863, -2330.2587664435823, 46.60338718931523, -0.096, 0.986, 0.242, 192.0, 0.0, 0.0, 0.0, 0.0, 0.0, 0.0, 0.0, 0.0, 0.0, 1.706882580814947E9, 0.0, 2024-02-02 15:03:00.814
66.0, 59843.1747964829, 63205.100680005635, -31521.078231463223, -2597.630333617966, 17549.002772450778, 8993.693768226358, 28564.165957470654, 4289.411519695702, 34470.48031931881, 46165.203591013385, 35695.75824686983, 44197.62423010162, 24529.81019375446, 24351.063293345367, -2331.4881123886244, 45.82107613337948, -0.096, 0.986, 0.242, 192.0, 0.0, 0.0, 0.0, 0.0, 0.0, 0.0, 0.0, 0.0, 0.0, 1.706882580823336E9, 0.0, 2024-02-02 15:03:00.823
68.0, 59837.855081302536, 63190.92967402097, -31533.52815312483, -2641.909139383929, 17541.604345036074, 8981.132087842476, 28564.47888189303, 4281.051967269417, 34469.586249540596, 46139.74495407879, 35673.63001985908, 44173.70786353444, 24516.22033312563, 24335.32766524883, -2346.888464318331, 30.66659339268129, -0.098, 0.982, 0.23800000000000002, 192.0, 126.0, 120.0, 15.0, 88.0, 3.5, 56.0, 0.0, 0.0, 0.0, 1.7068825808309953E9, 0.0, 2024-02-02 15:03:00.830
70.0, 59837.6762673469, 63201.83732531516, -31549.57670564374, -2629.325107255591, 17535.859946711058, 8989.804564691134, 28563.249535947984, 4283.711824859599, 34499.582290599625, 46147.65747161597, 35673.45120590344, 44161.28029361729, 24520.623626783326, 24399.16424741319, -2353.8398568439316, 5.677343091647994, -0.098, 0.982, 0.23800000000000002, 192.0, 0.0, 0.0, 0.0, 0.0, 0.0, 0.0, 0.0, 0.0, 0.0, 1.7068825808389814E9, 0.0, 2024-02-02 15:03:00.838
72.0, 59856.094104778065, 63206.93352305097, -31502.727449265418, -2575.2785891626586, 17561.832673768124, 9001.427471807894, 28575.69945760959, 4299.782729122964, 34517.7989623307, 46181.38625399903, 35679.374418184096, 44192.39392189907, 24547.2445544296, 24337.115804805257, -2352.118772520873, 51.69958492512524, -0.098, 0.982, 0.23800000000000002, 192.0, 0.0, 0.0, 0.0, 0.0, 0.0, 0.0, 0.0, 0.0, 0.0, 1.7068825808479884E9, 0.0, 2024-02-02 15:03:00.847
74.0, 59840.04555225916, 63199.78096482527, -31532.119993224147, -2640.657441694432, 17550.52269107374, 8995.59366650506, 28568.07751275033, 4290.506755174012, 34548.152631301, 46159.61565489956, 35686.25875547633, 44149.88090394508, 24532.91708623375, 24364.36258129628, -2338.439504914225, 32.097105037820945, -0.098, 0.982, 0.23800000000000002, 192.0, 0.0, 0.0, 0.0, 0.0, 0.0, 0.0, 0.0, 0.0, 0.0, 1.706882580855311E9, 0.0, 2024-02-02 15:03:00.855
76.0, 59850.23794773078, 63203.2678369603, -31505.119085922135, -2569.578894326555, 17557.67524929944, 8994.654893237936, 28568.233974961517, 4293.054854041917, 34573.43245427996, 46175.977131840846, 35681.877813563086, 44205.31323019424, 24535.33107463492, 24329.24799075699, -2342.5522258940014, 45.68696566664764, -0.098, 0.982, 0.23800000000000002, 192.0, 0.0, 0.0, 0.0, 0.0, 0.0, 0.0, 0.0, 0.0, 0.0, 1.7068825808630338E9, 0.0, 2024-02-02 15:03:00.863
78.0, 59842.86187206052, 63200.429165414476, -31524.43099313152, -2630.643860178454, 17557.161159176965, 8987.815259434612, 28575.78886458741, 4294.731234876065, 34573.812433935695, 46159.45919268837, 35682.995400785854, 44165.59418029716, 24532.04536819999, 24375.87372969076, -2342.9992607831077, 31.337145726340502, -0.097, 0.985, 0.239, 192.0, 126.5, 0.0, 15.0, 112.0, 3.5, 64.0, 0.0, 0.0, 0.0, 1.7068825808710744E9, 0.0, 2024-02-02 15:03:00.871
80.0, 59848.78508434118, 63203.96074103841, -31511.668147047538, -2572.104641450005, 17557.71995278835, 9011.172832390408, 28575.833568076323, 4306.778825137475, 34568.5597739887, 46159.03450954372, 35682.7718833413, 44192.304514921256, 24526.502135575072, 24309.086717258302, -2338.305394447493, 48.83856163484593, -0.097, 0.985, 0.239, 192.0, 0.0, 0.0, 0.0, 0.0, 0.0, 0.0, 0.0, 0.0, 0.0, 1.706882580879037E9, 0.0, 2024-02-02 15:03:00.879
82.0, 59834.927002778895, 63195.958816523416, -31543.18410672952, -2609.7673308571975, 17540.397350835487, 8986.675320467391, 28563.60716385927, 4293.27837148647, 34547.884410367544, 46158.85569558808, 35676.51339489382, 44178.513488592325, 24538.974408981136, 24328.95741807907, -2350.3529847089035, 40.63547141974824, -0.097, 0.985, 0.239, 192.0, 0.0, 0.0, 0.0, 0.0, 0.0, 0.0, 0.0, 0.0, 0.0, 1.706882580887482E9, 0.0, 2024-02-02 15:03:00.887
84.0, 59846.70637210684, 63201.971435781896, -31518.597187828684, -2608.046246534139, 17560.983307478822, 9003.193259619864, 28584.930728069634, 4310.511566461511, 34548.93494235694, 46141.46603840185, 35667.79621455625, 44169.88571523258, 24528.357330364863, 24328.53273493442, -2343.111019505384, 32.11945678227625, -0.097, 0.985, 0.239, 192.0, 0.0, 0.0, 0.0, 0.0, 0.0, 0.0, 0.0, 0.0, 0.0, 1.706882580895301E9, 0.0, 2024-02-02 15:03:00.895
86.0, 59848.0251250297, 63208.36403469611, -31518.887760506605, -2601.206612730815, 17557.876414999537, 9001.248657852251, 28585.958908314577, 4310.355104250325, 34573.79008219124, 46162.119050278554, 35682.74953159685, 44179.854593259646, 24533.632342056317, 24326.990464567003, -2335.489074646124, 46.71514591159176, -0.097, 0.985, 0.239, 192.0, 0.0, 0.0, 0.0, 0.0, 0.0, 0.0, 0.0, 0.0, 0.0, 1.7068825809041128E9, 0.0, 2024-02-02 15:03:00.904
88.0, 59827.21565094181, 63189.432107142464, -31555.2987522243, -2640.545682972155, 17537.782196734213, 8978.382823274473, 28567.786940072412, 4296.318208732392, 34526.896122324004, 46144.66233785896, 35671.461900646915, 44171.0256541998, 24511.07943190091, 24336.892287360704, -2339.020650270063, 38.48970395203876, -0.0945, 0.9884999999999999, 0.2425, 192.0, 126.5, 16.0, 15.5, 0.0, 3.5, 88.0, 0.0, 0.0, 0.0, 1.7068825809110703E9, 0.0, 2024-02-02 15:03:00.911
90.0, 59840.60434587054, 63195.62354035659, -31527.359071655166, -2614.2153280038033, 17555.48477834282, 9004.02027416471, 28584.7966176029, 4317.708828176121, 34517.70955535288, 46120.58950908059, 35648.953693980424, 44152.96544467991, 24525.250437885577, 24320.799031352883, -2358.265502246082, 20.876529321256797, -0.0945, 0.9884999999999999, 0.2425, 192.0, 0.0, 0.0, 0.0, 0.0, 0.0, 0.0, 0.0, 0.0, 0.0, 1.7068825809193835E9, 0.0, 2024-02-02 15:03:00.919
92.0, 59836.98336326878, 63199.22217121389, -31534.221057202943, -2618.2162902613036, 17550.746208518292, 8999.482870040283, 28582.025001290443, 4320.52514797749, 34499.984621999814, 46121.0365439697, 35668.62322910109, 44168.00816869833, 24512.442888312686, 24327.258685500467, -2344.250958472605, 42.35655574280688, -0.0945, 0.9884999999999999, 0.2425, 192.0, 0.0, 0.0, 0.0, 0.0, 0.0, 0.0, 0.0, 0.0, 0.0, 1.7068825809273643E9, 0.0, 2024-02-02 15:03:00.927
94.0, 59843.53242439419, 63206.12886025058, -31529.90717052307, -2607.710970367309, 17548.46633058385, 8998.409986306428, 28585.333059469827, 4323.699095690143, 34466.6358192725, 46116.186215422895, 35682.5707176412, 44178.33467463669, 24532.291237389, 24346.503537476485, -2347.402554440803, 39.27201500797451, -0.0945, 0.9884999999999999, 0.2425, 192.0, 0.0, 0.0, 0.0, 0.0, 0.0, 0.0, 0.0, 0.0, 0.0, 1.7068825809351513E9, 0.0, 2024-02-02 15:03:00.935
96.0, 59833.4741393893, 63200.85384855913, -31536.031548503823, -2607.621563389488, 17548.108702672565, 8993.939637415366, 28577.778169843936, 4312.076188573384, 34425.553312963646, 46114.59924156657, 35671.64071460256, 44181.64273281607, 24506.76554522104, 24356.29360154791, -2351.8058480984987, 26.062134034888036, -0.0945, 0.9884999999999999, 0.2425, 192.0, 0.0, 0.0, 0.0, 0.0, 0.0, 0.0, 0.0, 0.0, 0.0, 1.7068825809434347E9, 0.0, 2024-02-02 15:03:00.943
98.0, 59837.45274990234, 63199.378633425076, -31537.149135726588, -2613.589479159055, 17545.650010782483, 8992.531477514682, 28568.256326705974, 4306.689418159654, 34427.6767286869, 46111.447645598375, 35675.55226988224, 44180.39103512657, 24542.349522393888, 24314.115859760746, -2348.184865496739, 37.61798591828179, -0.09525, 0.98825, 0.24425, 192.0, 126.5, 0.0, 15.0, 112.0, 3.5, 88.0, 0.0, 0.0, 0.0, 1.7068825809511597E9, 0.0, 2024-02-02 15:03:00.951
100.0, 59842.43718891587, 63205.90534280603, -31523.33575765321, -2610.1696622573927, 17556.0435719542, 8996.912419427923, 28586.584757159326, 4319.407560754724, 34384.24728921024, 46094.97440993481, 35678.659162361524, 44175.47365134641, 24498.09306837238, 24324.375310465733, -2340.6523276153002, 30.577186414860062, -0.09525, 0.98825, 0.24425, 192.0, 0.0, 0.0, 0.0, 0.0, 0.0, 0.0, 0.0, 0.0, 0.0, 1.7068825809591572E9, 0.0, 2024-02-02 15:03:00.959
102.0, 59838.81620631411, 63203.848982316136, -31534.265760691855, -2611.0190285466947, 17550.455635840375, 9000.891029940967, 28580.639193134215, 4318.625249698788, 34365.09184421204, 46106.351447862566, 35674.72525533739, 44178.04410195877, 24519.28252211601, 24339.798014139895, -2342.9322055497414, 31.94064282663379, -0.09525, 0.98825, 0.24425, 192.0, 0.0, 0.0, 0.0, 0.0, 0.0, 0.0, 0.0, 0.0, 0.0, 1.7068825809671388E9, 0.0, 2024-02-02 15:03:00.967
104.0, 59841.52076739321, 63205.34654919464, -31527.493182121896, -2606.4369209333568, 17556.08827544311, 9004.623771265004, 28593.491446196014, 4325.688400946665, 34332.10066939601, 46093.16391863393, 35681.00609552933, 44176.45712810244, 24520.735385505606, 24331.81844136935, -2341.3899351823256, 35.606328917304154, -0.09525, 0.98825, 0.24425, 192.0, 0.0, 0.0, 0.0, 0.0, 0.0, 0.0, 0.0, 0.0, 0.0, 1.7068825809754488E9, 0.0, 2024-02-02 15:03:00.975
106.0, 59834.502319634244, 63198.2163427134, -31537.327949682232, -2616.159929771415, 17544.621830537537, 8997.225343850296, 28578.64988787769, 4316.300668275437, 34323.472896036255, 46095.779072735204, 35679.374418184096, 44177.261790902834, 24518.790783737993, 24333.651284414686, -2340.629975870845, 37.573282429371176, -0.09525, 0.98825, 0.24425, 192.0, 0.0, 0.0, 0.0, 0.0, 0.0, 0.0, 0.0, 0.0, 0.0, 1.7068825809831777E9, 0.0, 2024-02-02 15:03:00.983
108.0, 59835.84342430156, 63198.819839813696, -31530.778888556826, -2623.1113222970157, 17552.109664930067, 8998.655855495435, 28589.8481118498, 4323.408523012224, 34309.05602086258, 46080.31166557213, 35669.025560501286, 44164.00720644083, 24514.36513833584, 24334.612409426263, -2350.598853897912, 26.285651479441107, -0.096625, 0.9901249999999999, 0.24512499999999998, 192.0, 126.0, 120.0, 15.5, 0.0, 3.5, 88.0, 0.0, 0.0, 0.0, 1.7068825809902115E9, 0.0, 2024-02-02 15:03:00.990
110.0, 59839.956145281336, 63203.73722359386, -31526.308539665766, -2598.636162118454, 17552.93667947491, 9002.053320652643, 28586.584757159326, 4325.129607335282, 34312.25232031969, 46080.669293483414, 35679.39676992855, 44168.522258820805, 24522.076490172924, 24329.650322157184, -2340.339403192926, 35.18164577265332, -0.096625, 0.9901249999999999, 0.24512499999999998, 192.0, 0.0, 0.0, 0.0, 0.0, 0.0, 0.0, 0.0, 0.0, 0.0, 1.706882580999185E9, 0.0, 2024-02-02 15:03:00.999
112.0, 59841.78898832667, 63205.50301140583, -31524.922731509538, -2595.8868975504515, 17555.507130087273, 9001.338064830074, 28588.685821138126, 4322.402694511735, 34326.57978851555, 46079.17172660491, 35683.554194397235, 44185.151956695554, 24524.579885551917, 24334.232429770524, -2340.5405688930236, 38.15442778520916, -0.096625, 0.9901249999999999, 0.24512499999999998, 192.0, 0.0, 0.0, 0.0, 0.0, 0.0, 0.0, 0.0, 0.0, 0.0, 1.7068825810073376E9, 0.0, 2024-02-02 15:03:01.007
114.0, 59847.86866281852, 63213.52728766529, -31519.33479539571, -2597.8091475736082, 17561.340935390108, 9005.428434065394, 28594.6984403966, 4324.436703257168, 34330.17841937285, 46079.73052021629, 35688.248060732854, 44184.235535172884, 24527.53031582002, 24336.311142004866, -2336.5843101244345, 37.61798591828179, -0.096625, 0.9901249999999999, 0.24512499999999998, 192.0, 0.0, 0.0, 0.0, 0.0, 0.0, 0.0, 0.0, 0.0, 0.0, 1.706882581014243E9, 0.0, 2024-02-02 15:03:01.014
116.0, 59839.86673830351, 63209.48162191887, -31522.933426253014, -2604.358208699013, 17558.122284188543, 8999.952256673843, 28595.88308285273, 4321.106293333327, 34337.93447469884, 46079.9763894053, 35686.37051419861, 44182.223878171906, 24524.155202407266, 24328.91271459016, -2337.768952580566, 36.343936484329284, -0.096625, 0.9901249999999999, 0.24512499999999998, 192.0, 0.0, 0.0, 0.0, 0.0, 0.0, 0.0, 0.0, 0.0, 0.0, 1.706882581022256E9, 0.0, 2024-02-02 15:03:01.022
118.0, 59842.59365112706, 63212.27558997579, -31522.0393564748, -2603.218269731792, 17558.144635933, 8981.91439889841, 28592.150341528697, 4316.166557808704, 34352.37370161697, 46085.27375284121, 35685.83407233168, 44184.86138401763, 24525.76452800805, 24343.86603163076, -2337.478379902647, 35.65103240621477, -0.0983125, 0.9910625, 0.2445625, 192.0, 126.0, 112.0, 15.5, 0.0, 3.5, 80.0, 0.0, 0.0, 0.0, 1.7068825810312371E9, 0.0, 2024-02-02 15:03:01.031
120.0, 59847.39927618495, 63217.01415980032, -31510.036469702303, -2593.1152812379937, 17568.784066293727, 9019.152405160952, 28602.23097827804, 4325.219014313104, 34371.506794870715, 46087.15129937545, 35690.95262181194, 44186.80598578525, 24522.99291169559, 24349.185746811123, -2332.471589144658, 37.41682021818402, -0.0983125, 0.9910625, 0.2445625, 192.0, 0.0, 0.0, 0.0, 0.0, 0.0, 0.0, 0.0, 0.0, 0.0, 1.706882581039462E9, 0.0, 2024-02-02 15:03:01.039
122.0, 59840.80551157064, 63211.73914810886, -31518.37367038413, -2601.877165064474, 17560.737438289816, 9001.44982355235, 28593.46909445156, 4315.3171915194025, 34389.72346660179, 46097.85778496954, 35689.7232758669, 44184.77197703981, 24530.212525154653, 24335.752348393482, -2331.89044378882, 50.76081165800234, -0.0983125, 0.9910625, 0.2445625, 192.0, 0.0, 0.0, 0.0, 0.0, 0.0, 0.0, 0.0, 0.0, 0.0, 1.7068825810463023E9, 0.0, 2024-02-02 15:03:01.046
124.0, 59847.443979673866, 63216.768290611304, -31513.702155792973, -2596.8033190731194, 17567.018278481755, 9006.031931165688, 28596.75480088649, 4320.547499721944, 34415.00328958074, 46093.99093317878, 35686.01288628732, 44180.681607804494, 24524.75869950756, 24348.895174133206, -2333.0303827560406, 42.22244527607504, -0.0983125, 0.9910625, 0.2445625, 192.0, 0.0, 0.0, 0.0, 0.0, 0.0, 0.0, 0.0, 0.0, 0.0, 1.706882581054294E9, 0.0, 2024-02-02 15:03:01.054
126.0, 59838.23506095828, 63210.80037484174, -31520.117106451646, -2603.9558772988175, 17550.120359673543, 8997.381806061483, 28580.192158245107, 4307.829357126875, 34428.5260949762, 46099.60122103706, 35687.55515665474, 44178.580543825694, 24534.057025200967, 24340.401511240187, -2340.406458426292, 42.669480165181184, -0.0983125, 0.9910625, 0.2445625, 192.0, 0.0, 0.0, 0.0, 0.0, 0.0, 0.0, 0.0, 0.0, 0.0, 1.7068825810633159E9, 0.0, 2024-02-02 15:03:01.063
128.0, 59840.62669761499, 63213.46023243192, -31523.0898884642, -2600.0443220191387, 17555.8424062541, 8995.794832205156, 28585.154245514186, 4310.355104250325, 34462.25487735926, 46108.228994396806, 35683.46478741941, 44175.20543041294, 24535.912219990758, 24349.34220902231, -2346.7320021071437, 36.25452950650806, -0.10315625, 0.99053125, 0.24728125, 192.0, 126.0, 80.0, 15.0, 120.0, 3.5, 104.0, 0.0, 0.0, 0.0, 1.706882581070615E9, 0.0, 2024-02-02 15:03:01.070
130.0, 59846.661668617926, 63219.69636913495, -31506.326080122722, -2591.125975981471, 17563.643165069006, 9004.891992198467, 28594.743143885513, 4321.441569500157, 34464.44534831588, 46100.22706988181, 35679.93321179548, 44181.91095374953, 24526.211562897155, 24348.828118899837, -2342.239301471627, 43.004756332010786, -0.10315625, 0.99053125, 0.24728125, 192.0, 0.0, 0.0, 0.0, 0.0, 0.0, 0.0, 0.0, 0.0, 0.0, 1.7068825810783296E9, 0.0, 2024-02-02 15:03:01.078
132.0, 59843.867700561015, 63214.55546791023, -31510.237635402398, -2601.251316219725, 17558.412856866464, 9001.561582274626, 28590.38455371673, 4318.1335113207715, 34569.207974577905, 46120.522453847225, 35704.49777895186, 44187.387131141084, 24530.324283876933, 24347.375255510244, -2330.7505048215994, 51.990157603044224, -0.10315625, 0.99053125, 0.24728125, 192.0, 0.0, 0.0, 0.0, 0.0, 0.0, 0.0, 0.0, 0.0, 0.0, 1.7068825810873668E9, 0.0, 2024-02-02 15:03:01.087
134.0, 59853.70246812135, 63225.53017443779, -31503.62151904363, -2587.974380013273, 17568.515845360263, 9007.909477699934, 28601.828646877846, 4323.587336967867, 34562.94948613042, 46110.77709326471, 35693.835996846676, 44187.58829684118, 24536.04633045749, 24359.087569604824, -2333.0080310115854, 48.413878490195096, -0.10315625, 0.99053125, 0.24728125, 192.0, 0.0, 0.0, 0.0, 0.0, 0.0, 0.0, 0.0, 0.0, 0.0, 1.7068825810956104E9, 0.0, 2024-02-02 15:03:01.095
136.0, 59854.7306483663, 63226.84892736065, -31508.069516190237, -2591.617714359488, 17561.117417945556, 9006.009579421232, 28599.928748599144, 4319.116988076805, 34610.82692275369, 46112.67699154341, 35698.26164224883, 44197.467767890426, 24537.074510702434, 24363.133235351233, -2323.8661675293647, 56.16993381618665, -0.10315625, 0.99053125, 0.24728125, 192.0, 0.0, 0.0, 0.0, 0.0, 0.0, 0.0, 0.0, 0.0, 0.0, 1.7068825811023664E9, 0.0, 2024-02-02 15:03:01.102
138.0, 59852.4284186874, 63224.41258721502, -31509.164751668544, -2592.735301582253, 17556.84823475459, 9004.623771265004, 28583.589623402313, 4309.483386216568, 34621.30989090323, 46128.54673010668, 35701.524996939304, 44194.76320681134, 24539.399092125786, 24359.95928763858, -2333.477417645147, 55.611140204803974, -0.102578125, 0.989265625, 0.249640625, 192.0, 126.0, 104.0, 15.0, 112.0, 3.5, 112.0, 0.0, 0.0, 0.0, 1.7068825811104026E9, 0.0, 2024-02-02 15:03:01.110
140.0, 59856.31762222262, 63224.99373257086, -31510.975242969424, -2599.5078801522113, 17556.33414463212, 9005.920172443412, 28587.41177170417, 4309.818662383397, 34627.27780667279, 46113.50400608826, 35699.356877727136, 44195.433759144995, 24538.303856647475, 24358.59583122681, -2334.170321723261, 54.359442515306775, -0.102578125, 0.989265625, 0.249640625, 192.0, 0.0, 0.0, 0.0, 0.0, 0.0, 0.0, 0.0, 0.0, 0.0, 1.7068825811193924E9, 0.0, 2024-02-02 15:03:01.119
142.0, 59842.99598252726, 63213.05790103172, -31533.975188013937, -2622.060790307616, 17538.050417667677, 8976.795849418146, 28575.27477446494, 4291.736101119054, 34624.70735606043, 46105.54678506217, 35680.93904029597, 44176.99356996937, 24544.785862539517, 24364.20611908509, -2346.7320021071437, 33.84054110533489, -0.102578125, 0.989265625, 0.249640625, 192.0, 0.0, 0.0, 0.0, 0.0, 0.0, 0.0, 0.0, 0.0, 0.0, 1.706882581126678E9, 0.0, 2024-02-02 15:03:01.126
144.0, 59860.51975018022, 63226.73716863837, -31508.561254568252, -2585.0463014896277, 17554.836577753613, 9009.384692833984, 28585.400114703196, 4305.236554770059, 34707.207644844966, 46101.07643617111, 35697.43462770398, 44191.14222420958, 24526.591542552895, 24359.735770194027, -2339.7135543481772, 44.3011575104186, -0.102578125, 0.989265625, 0.249640625, 192.0, 0.0, 0.0, 0.0, 0.0, 0.0, 0.0, 0.0, 0.0, 0.0, 1.7068825811344972E9, 0.0, 2024-02-02 15:03:01.134
146.0, 59862.3302414811, 63230.38050298459, -31508.963585968446, -2593.137632982449, 17556.691772543403, 8999.169945617909, 28578.02403903294, 4301.235592512559, 34687.426351002025, 46129.53020686271, 35701.10031379465, 44203.189814470985, 24512.9346266907, 24363.513215006973, -2332.248071700105, 48.03389883445488, -0.102578125, 0.989265625, 0.249640625, 192.0, 0.0, 0.0, 0.0, 0.0, 0.0, 0.0, 0.0, 0.0, 0.0, 1.706882581143777E9, 0.0, 2024-02-02 15:03:01.143
148.0, 59858.50809317924, 63219.56225866822, -31517.166676183544, -2605.5652028995996, 17548.645144539492, 8991.68211122538, 28570.0444662624, 4294.37360696478, 34699.04925811878, 46136.34748892159, 35696.33939222567, 44191.946887009966, 24540.583734581916, 24376.834854702338, -2335.6678886017667, 37.43917196263933, -0.1012890625, 0.9856328125, 0.2498203125, 192.0, 126.0, 112.0, 15.0, 88.0, 3.5, 104.0, 0.0, 0.0, 0.0, 1.706882581151492E9, 0.0, 2024-02-02 15:03:01.151
150.0, 59847.354572696044, 63211.60503764213, -31551.364845200165, -2608.739150612253, 17533.937696687903, 8985.177753588887, 28564.724751082034, 4289.27740922897, 34707.78879020081, 46107.02200019622, 35683.01775253031, 44182.6262095721, 24544.56234509496, 24346.05650258738, -2346.620243384867, 44.457619721605745, -0.1012890625, 0.9856328125, 0.2498203125, 192.0, 0.0, 0.0, 0.0, 0.0, 0.0, 0.0, 0.0, 0.0, 0.0, 1.70688258115859E9, 0.0, 2024-02-02 15:03:01.158
152.0, 59849.70150586385, 63209.66043587452, -31533.595208358194, -2629.7274386557865, 17536.66460951145, 8993.492602526261, 28566.803463316377, 4287.779842350465, 34682.41956024403, 46083.57502026261, 35660.88952551955, 44155.84881971464, 24530.145469921288, 24357.00885737048, -2354.8456853444204, 27.738514869036063, -0.1012890625, 0.9856328125, 0.2498203125, 192.0, 0.0, 0.0, 0.0, 0.0, 0.0, 0.0, 0.0, 0.0, 0.0, 1.7068825811664958E9, 0.0, 2024-02-02 15:03:01.166
154.0, 59862.35259322555, 63223.004427314336, -31525.749746054382, -2607.398045944935, 17538.832728723613, 8998.767614217713, 28571.519681396447, 4295.401787209724, 34751.62056107767, 46131.65362258597, 35692.517243923816, 44194.02559924431, 24513.225199368622, 24392.168151398677, -2348.3413277079258, 25.615099145781894, -0.1012890625, 0.9856328125, 0.2498203125, 192.0, 0.0, 0.0, 0.0, 0.0, 0.0, 0.0, 0.0, 0.0, 0.0, 1.706882581175518E9, 0.0, 2024-02-02 15:03:01.175
156.0, 59868.52167469522, 63225.21725001541, -31500.71579226444, -2580.039510731639, 17561.832673768124, 9004.713178242824, 28585.020135047453, 4310.9138978617075, 34747.1502121866, 46121.50593060326, 35698.75338062685, 44192.572735854716, 24521.1377169058, 24347.330552021333, -2334.6397083568227, 50.581997702359885, -0.1012890625, 0.9856328125, 0.2498203125, 192.0, 0.0, 0.0, 0.0, 0.0, 0.0, 0.0, 0.0, 0.0, 0.0, 1.706882581182766E9, 0.0, 2024-02-02 15:03:01.182
158.0, 59851.08731402008, 63206.33002595068, -31545.57574338624, -2623.9159850974065, 17536.57520253363, 8978.986320374766, 28560.589678357803, 4285.879944071763, 34752.87225876716, 46106.97729670731, 35680.4696536624, 44175.83127925769, 24532.738272278104, 24334.97003733755, -2340.026478770552, 35.1145905392874, -0.10264453125, 0.98381640625, 0.24691015625, 192.0, 126.0, 96.0, 15.0, 88.0, 3.5, 80.0, 0.0, 0.0, 0.0, 1.706882581190515E9, 0.0, 2024-02-02 15:03:01.190
160.0, 59856.40702920044, 63214.13078476558, -31520.47473436293, -2624.4971304532446, 17550.76856026275, 8994.409024048928, 28575.922975054145, 4296.117043032294, 34736.95781671498, 46083.329151073594, 35685.31998220921, 44175.33954087967, 24512.778164479514, 24367.49182552002, -2338.2830427030376, 30.688945137136596, -0.10264453125, 0.98381640625, 0.24691015625, 192.0, 0.0, 0.0, 0.0, 0.0, 0.0, 0.0, 0.0, 0.0, 0.0, 1.7068825811985211E9, 0.0, 2024-02-02 15:03:01.198
162.0, 59856.65289838945, 63212.9684940539, -31542.58060962923, -2621.2114240183146, 17537.849251967582, 8985.960064644822, 28564.054198748378, 4284.494135915535, 34725.08904040921, 46089.92291568791, 35666.29864767774, 44155.06650865871, 24543.221240427643, 24360.96511613907, -2350.46474343118, 26.375058457262334, -0.10264453125, 0.98381640625, 0.24691015625, 192.0, 0.0, 0.0, 0.0, 0.0, 0.0, 0.0, 0.0, 0.0, 0.0, 1.7068825812065144E9, 0.0, 2024-02-02 15:03:01.206
164.0, 59867.13586653899, 63217.23767724487, -31498.480617818906, -2594.70225509432, 17553.56252831966, 9003.103852642042, 28575.7441610985, 4299.84978435633, 34740.35528187219, 46084.35733131854, 35714.31019476774, 44198.47359639092, 24506.676138243216, 24340.446214729098, -2331.89044378882, 45.843427877834785, -0.10264453125, 0.98381640625, 0.24691015625, 192.0, 0.0, 0.0, 0.0, 0.0, 0.0, 0.0, 0.0, 0.0, 0.0, 1.7068825812147627E9, 0.0, 2024-02-02 15:03:01.214
166.0, 59862.7772763702, 63216.634180144574, -31512.405754614563, -2599.1502522409264, 17556.311792887664, 8993.693768226358, 28579.70041986709, 4303.917801847196, 34716.17069437155, 46064.35252003104, 35700.139188783076, 44183.52027935032, 24506.877303943314, 24333.427766970133, -2327.8000745534987, 49.0397273349437, -0.10264453125, 0.98381640625, 0.24691015625, 192.0, 0.0, 0.0, 0.0, 0.0, 0.0, 0.0, 0.0, 0.0, 0.0, 1.7068825812225556E9, 0.0, 2024-02-02 15:03:01.222
168.0, 59860.005660057745, 63210.71096786392, -31517.591359328195, -2633.5942904465546, 17551.61792655205, 8990.899800169445, 28572.793730830403, 4300.766205878997, 34647.1261557491, 46069.15814508893, 35685.230575231384, 44173.59610481216, 24511.861742956848, 24346.570592709853, -2334.438542656725, 33.66172714969244, -0.103322265625, 0.984908203125, 0.246455078125, 192.0, 126.0, 96.0, 15.0, 104.0, 3.5, 88.0, 0.0, 0.0, 0.0, 1.7068825812315989E9, 0.0, 2024-02-02 15:03:01.231
170.0, 59863.35842172604, 63210.979188797384, -31513.165713926046, -2599.329066196569, 17554.098970186587, 9003.170907875408, 28577.733466355025, 4309.0363513274615, 34653.18347849649, 46059.30102578414, 35698.798084115755, 44164.70011051895, 24510.744155734083, 24377.997145414014, -2331.1304844773395, 33.66172714969244, -0.103322265625, 0.984908203125, 0.246455078125, 192.0, 0.0, 0.0, 0.0, 0.0, 0.0, 0.0, 0.0, 0.0, 0.0, 1.7068825812375689E9, 0.0, 2024-02-02 15:03:01.237
172.0, 59852.51782566522, 63201.90438054853, -31520.206513429468, -2608.13565351196, 17548.84631023959, 8989.804564691134, 28575.677105865136, 4301.883793101763, 34586.41881780849, 46027.405086446415, 35692.8748718351, 44180.88277350459, 24508.821905710927, 24306.96330153505, -2326.6154320973674, 50.93962561364479, -0.103322265625, 0.984908203125, 0.246455078125, 192.0, 0.0, 0.0, 0.0, 0.0, 0.0, 0.0, 0.0, 0.0, 0.0, 1.7068825812466953E9, 0.0, 2024-02-02 15:03:01.246
174.0, 59858.619851901516, 63208.29697946274, -31515.870275005138, -2612.606002403021, 17557.541138832705, 8997.82884095059, 28586.875329837243, 4313.350238007336, 34534.20514276089, 46012.20590021681, 35686.1246450096, 44167.38231985358, 24504.12803937531, 24325.448194199587, -2327.084818730929, 43.89882611022307, -0.103322265625, 0.984908203125, 0.246455078125, 192.0, 0.0, 0.0, 0.0, 0.0, 0.0, 0.0, 0.0, 0.0, 0.0, 1.7068825812546012E9, 0.0, 2024-02-02 15:03:01.254
176.0, 59860.765619369224, 63213.75080510984, -31518.99951922888, -2602.0783307645715, 17562.48087435733, 8999.281704340185, 28583.32140246885, 4313.394941496246, 34514.93793904042, 46029.46144693631, 35693.99245905787, 44182.089767705176, 24502.541065518984, 24374.107941878792, -2316.0654087144626, 53.57713145937103, -0.103322265625, 0.984908203125, 0.246455078125, 192.0, 0.0, 0.0, 0.0, 0.0, 0.0, 0.0, 0.0, 0.0, 0.0, 1.7068825812626154E9, 0.0, 2024-02-02 15:03:01.262
178.0, 59858.37398271251, 63204.966569538905, -31520.273568662833, -2615.578784415577, 17554.85892949807, 9008.40121607795, 28585.17659725864, 4310.086883316861, 34485.36658112604, 46005.030990246654, 35675.06053150422, 44167.56113380923, 24522.881152973314, 24342.279057774434, -2326.9283565197416, 42.669480165181184, -0.103322265625, 0.984908203125, 0.246455078125, 192.0, 0.0, 0.0, 0.0, 0.0, 0.0, 0.0, 0.0, 0.0, 0.0, 1.7068825812708411E9, 0.0, 2024-02-02 15:03:01.270
180.0, 59858.37398271251, 63210.39804344154, -31521.279397163322, -2614.4388454483565, 17554.65776379797, 9002.299189841651, 28584.684858880624, 4310.891546117252, 34455.86227844504, 46004.18162395735, 35695.802950358746, 44177.038273458274, 24499.858856184346, 24346.592944454307, -2317.048885470496, 51.69958492512524, -0.10400000000000001, 0.982, 0.242, 192.0, 126.0, 96.0, 15.0, 88.0, 3.5, 72.0, 0.0, 0.0, 0.0, 1.7068825812788005E9, 0.0, 2024-02-02 15:03:01.278
182.0, 59847.80160758515, 63203.40194742703, -31534.131650225125, -2625.659421164921, 17547.169929405445, 8992.039739136666, 28569.686838351114, 4298.262810500003, 34420.166542549916, 45991.01644647318, 35673.45120590344, 44162.75550875134, 24511.817039467936, 24341.228525785034, -2335.0196880125627, 35.78514287294661, -0.10400000000000001, 0.982, 0.242, 192.0, 0.0, 0.0, 0.0, 0.0, 0.0, 0.0, 0.0, 0.0, 0.0, 1.7068825812876804E9, 0.0, 2024-02-02 15:03:01.287
184.0, 59851.064962275625, 63202.77609858228, -31527.33671991071, -2628.7663136442084, 17551.729685274327, 8993.559657759626, 28579.432198933628, 4301.950848335129, 34399.37942020648, 45981.204030657296, 35677.98861002787, 44165.571828552704, 24491.18637933569, 24344.62599094224, -2327.822426297954, 35.136942283742705, -0.10400000000000001, 0.982, 0.242, 192.0, 0.0, 0.0, 0.0, 0.0, 0.0, 0.0, 0.0, 0.0, 0.0, 1.7068825812939065E9, 0.0, 2024-02-02 15:03:01.293
186.0, 59835.99988651275, 63192.33783392166, -31540.881877050626, -2638.8469503935517, 17543.437188081407, 8982.808468676623, 28570.200928473587, 4291.870211585786, 34365.18125118986, 45963.07676590404, 35663.214106942905, 44148.316281833206, 24489.152370590255, 24340.73678740702, -2333.4103624117806, 25.88332007924558, -0.10400000000000001, 0.982, 0.242, 192.0, 0.0, 0.0, 0.0, 0.0, 0.0, 0.0, 0.0, 0.0, 0.0, 1.7068825813029232E9, 0.0, 2024-02-02 15:03:01.302
188.0, 59845.00763952824, 63201.479697403876, -31532.410565902064, -2629.3027555111357, 17551.439112596407, 8988.530515257182, 28577.37583844374, 4299.156880278216, 34360.42032962088, 45976.91249572188, 35670.88075529108, 44169.25986638783, 24500.909388173746, 24338.211040283568, -2329.007068754085, 31.448904448617036, -0.10400000000000001, 0.982, 0.242, 192.0, 0.0, 0.0, 0.0, 0.0, 0.0, 0.0, 0.0, 0.0, 0.0, 1.7068825813108747E9, 0.0, 2024-02-02 15:03:01.310
190.0, 59849.63445063048, 63210.80037484174, -31527.917865266547, -2619.2221187617924, 17555.48477834282, 8995.548963016148, 28581.488559423517, 4303.917801847196, 34358.431024364356, 45970.922228207855, 35679.86615656211, 44169.21516289892, 24503.07750738591, 24352.739674179516, -2321.6086413393787, 38.19913127411977, -0.106, 0.984, 0.23600000000000002, 192.0, 126.0, 88.0, 15.0, 96.0, 3.5, 48.0, 0.0, 0.0, 0.0, 1.7068825813187156E9, 0.0, 2024-02-02 15:03:01.318
192.0, 59840.31377319262, 63206.19591548394, -31532.05293799078, -2624.0500955641387, 17549.785083506715, 8990.96685540281, 28573.173710486142, 4297.4134442107015, 34359.123928442474, 45973.71619626477, 35670.16549946851, 44167.56113380923, 24496.75196370506, 24349.655133444685, -2329.7893798100213, 37.461523707094635, -0.106, 0.984, 0.23600000000000002, 192.0, 0.0, 0.0, 0.0, 0.0, 0.0, 0.0, 0.0, 0.0, 0.0, 1.7068825813268523E9, 0.0, 2024-02-02 15:03:01.326
194.0, 59845.477026161796, 63208.34168295166, -31524.788621042804, -2620.9655548293063, 17556.110627187565, 8996.554791516637, 28584.461341436072, 4305.460072214612, 34354.94415222933, 45969.62582702945, 35678.457996661426, 44167.404671598044, 24497.355460805353, 24352.136177079225, -2325.9448797637083, 38.176779529664465, -0.106, 0.984, 0.23600000000000002, 192.0, 0.0, 0.0, 0.0, 0.0, 0.0, 0.0, 0.0, 0.0, 0.0, 1.7068825813347397E9, 0.0, 2024-02-02 15:03:01.334
196.0, 59840.89491854846, 63200.496220647845, -31527.67199607754, -2622.9325083413733, 17552.824920752635, 8990.475117024795, 28581.577966401335, 4302.487290202056, 34369.94217275884, 45964.30611184909, 35673.920592537, 44164.83422098568, 24497.981309650102, 24350.638610200716, -2329.5211588765574, 33.10293353830976, -0.106, 0.984, 0.23600000000000002, 192.0, 0.0, 0.0, 0.0, 0.0, 0.0, 0.0, 0.0, 0.0, 0.0, 1.7068825813427808E9, 0.0, 2024-02-02 15:03:01.342
198.0, 59843.308906949635, 63204.58658988316, -31523.782792542315, -2616.0258193046834, 17557.9434702329, 8999.259352595729, 28581.354448956783, 4308.075226315883, 34394.03735328166, 45974.0514724316, 35676.75926408282, 44165.70593901944, 24496.550798004962, 24356.15949108118, -2328.5153303760685, 41.06015456439908, -0.106, 0.984, 0.23600000000000002, 192.0, 0.0, 0.0, 0.0, 0.0, 0.0, 0.0, 0.0, 0.0, 0.0, 1.7068825813497565E9, 0.0, 2024-02-02 15:03:01.349
200.0, 59846.102875006545, 63202.93256079347, -31520.698251807484, -2615.534080926667, 17560.692734800905, 8996.912419427923, 28585.020135047453, 4307.494080960046, 34427.877894387, 45972.62096078646, 35684.85059557564, 44170.35510186614, 24499.14360036178, 24357.567650981862, -2326.6154320973674, 40.12138129727618, -0.10400000000000001, 0.988, 0.23600000000000002, 192.0, 126.0, 96.0, 15.0, 112.0, 3.5, 48.0, 0.0, 0.0, 0.0, 1.706882581359022E9, 0.0, 2024-02-02 15:03:01.359
202.0, 59836.51397663522, 63194.64006360055, -31527.24731293289, -2627.3805054879795, 17548.734551517315, 8988.508163512726, 28569.21745171755, 4298.687493644654, 34474.79420599869, 45976.800736999605, 35678.50270015034, 44165.48242157488, 24500.149428862267, 24347.129386321234, -2334.1032664898953, 28.476122436061196, -0.10400000000000001, 0.988, 0.23600000000000002, 192.0, 0.0, 0.0, 0.0, 0.0, 0.0, 0.0, 0.0, 0.0, 0.0, 1.7068825813667638E9, 0.0, 2024-02-02 15:03:01.366
204.0, 59839.93379353688, 63197.54579037974, -31522.41933613054, -2621.412589718412, 17552.981382963822, 8984.39544253295, 28573.50898665297, 4302.241421013048, 34520.21295073187, 45982.746301024716, 35675.46286290442, 44159.93918894997, 24500.574112006918, 24354.974848625046, -2336.785475824532, 20.608308387793112, -0.10400000000000001, 0.988, 0.23600000000000002, 192.0, 0.0, 0.0, 0.0, 0.0, 0.0, 0.0, 0.0, 0.0, 0.0, 1.7068825813748007E9, 0.0, 2024-02-02 15:03:01.374
206.0, 59838.74915108075, 63198.59632236914, -31524.72156580944, -2625.5253106981886, 17552.824920752635, 8994.25256183774, 28577.264079721463, 4306.309438503914, 34558.12150932807, 45988.64716156092, 35674.904069293036, 44155.89352320356, 24508.106649888356, 24345.564764209365, -2336.338440935426, 23.022296788966276, -0.10400000000000001, 0.988, 0.23600000000000002, 192.0, 0.0, 0.0, 0.0, 0.0, 0.0, 0.0, 0.0, 0.0, 0.0, 1.7068825813828003E9, 0.0, 2024-02-02 15:03:01.382
208.0, 59836.2234039573, 63198.462211902406, -31523.380461142122, -2619.0880082950603, 17553.875452742035, 9003.193259619864, 28578.359315199774, 4307.427025726679, 34591.291498099745, 46000.76180705569, 35662.70001682043, 44163.2248953849, 24495.254396826556, 24357.277078303945, -2342.6192811273672, 22.08352352184338, -0.10400000000000001, 0.988, 0.23600000000000002, 192.0, 0.0, 0.0, 0.0, 0.0, 0.0, 0.0, 0.0, 0.0, 0.0, 1.7068825813911047E9, 0.0, 2024-02-02 15:03:01.391
210.0, 59843.443017416364, 63205.525363150286, -31521.167638441046, -2618.2833454946694, 17554.411894608962, 9002.947390430856, 28588.909338582678, 4315.294839774948, 34595.493626057345, 46027.338031213054, 35680.6708193625, 44170.332750121685, 24506.85495219886, 24360.406322527688, -2332.203368211194, 33.035878304943836, -0.106, 0.998, 0.24, 192.0, 126.0, 88.0, 15.5, 24.0, 3.5, 64.0, 0.0, 0.0, 0.0, 1.7068825813988428E9, 0.0, 2024-02-02 15:03:01.398
212.0, 59835.93283127938, 63197.79165956875, -31523.67103382004, -2603.911173809907, 17546.9911154498, 8992.777346703691, 28577.688762866113, 4303.381359980269, 34639.10187948965, 46053.556627459126, 35673.33944718116, 44169.30456987674, 24529.60902805436, 24354.125482335745, -2341.412286926781, 29.77252361446901, -0.106, 0.998, 0.24, 192.0, 0.0, 0.0, 0.0, 0.0, 0.0, 0.0, 0.0, 0.0, 0.0, 1.706882581405856E9, 0.0, 2024-02-02 15:03:01.405
214.0, 59843.48772090527, 63208.47579341839, -31520.675900063026, -2615.8917088379517, 17559.61985106705, 8993.0232158927, 28585.355411214285, 4306.868232115296, 34655.396301197565, 46043.74421164325, 35681.56488914071, 44175.07131994621, 24503.502190530562, 24341.876726374237, -2333.9691560231636, 27.894977080223214, -0.106, 0.998, 0.24, 192.0, 0.0, 0.0, 0.0, 0.0, 0.0, 0.0, 0.0, 0.0, 0.0, 1.70688258141486E9, 0.0, 2024-02-02 15:03:01.414
216.0, 59846.236985473275, 63206.84411607315, -31517.72546979493, -2603.8888220654517, 17554.23308065332, 9010.099948656554, 28572.391399430206, 4302.688455902155, 34681.704304421466, 46043.766563387704, 35677.00513327183, 44171.69620653346, 24504.977405664613, 24374.711438979084, -2333.2986036895045, 36.7015643956142, -0.106, 0.998, 0.24, 192.0, 0.0, 0.0, 0.0, 0.0, 0.0, 0.0, 0.0, 0.0, 0.0, 1.7068825814232879E9, 0.0, 2024-02-02 15:03:01.423
218.0, 59840.04555225916, 63202.19495322645, -31528.63312108912, -2608.8509093345297, 17555.66359229846, 8989.983378646777, 28580.46037917857, 4299.358045978313, 34703.76547619885, 46051.5673222026, 35688.82920608869, 44181.106290949145, 24534.548763578983, 24340.356807751275, -2328.627089098345, 40.97074758657784, -0.106, 0.998, 0.24, 192.0, 0.0, 0.0, 0.0, 0.0, 0.0, 0.0, 0.0, 0.0, 0.0, 1.7068825814298732E9, 0.0, 2024-02-02 15:03:01.429
220.0, 59843.06303776062, 63200.16094448102, -31526.53205711032, -2627.4699124658005, 17551.126188174032, 9004.40025382045, 28574.47011166455, 4299.022769811484, 34690.354429525665, 46044.325356999085, 35668.15384246753, 44171.2268198999, 24488.41476302323, 24347.53171772143, -2332.4045339112918, 32.54413992692708, -0.10400000000000001, 0.992, 0.24, 192.0, 126.0, 96.0, 15.5, 0.0, 3.5, 64.0, 0.0, 0.0, 0.0, 1.7068825814388611E9, 0.0, 2024-02-02 15:03:01.438
222.0, 59829.9202120209, 63190.52734262078, -31566.362865729676, -2668.8206397081185, 17523.052397138166, 8983.836648921568, 28552.878326520724, 4281.074319013872, 34729.80525848929, 46049.645072179446, 35671.77482506929, 44153.278369102285, 24538.41561536975, 24346.86116538777, -2349.883598075342, 25.27982297895229, -0.10400000000000001, 0.992, 0.24, 192.0, 0.0, 0.0, 0.0, 0.0, 0.0, 0.0, 0.0, 0.0, 0.0, 1.7068825814471383E9, 0.0, 2024-02-02 15:03:01.447
224.0, 59836.93865977987, 63201.43499391497, -31554.203516745987, -2633.549586957644, 17533.155385631966, 8974.87359939499, 28557.50513762297, 4282.549534147923, 34753.207534933994, 46049.24274077926, 35657.44735687344, 44165.527125063796, 24511.727632490118, 24377.550110524906, -2354.08572603294, 6.258488447485978, -0.10400000000000001, 0.992, 0.24, 192.0, 0.0, 0.0, 0.0, 0.0, 0.0, 0.0, 0.0, 0.0, 0.0, 1.7068825814538975E9, 0.0, 2024-02-02 15:03:01.453
226.0, 59844.60530812804, 63207.335854451165, -31512.76338252585, -2587.4155864018903, 17554.769522520248, 9001.718044485813, 28563.115425481254, 4293.501888931023, 34751.88878201113, 46036.278728995174, 35673.272391947794, 44176.74770078036, 24501.691699229683, 24355.53364223643, -2347.335499207437, 25.302174723407596, -0.10400000000000001, 0.992, 0.24, 192.0, 0.0, 0.0, 0.0, 0.0, 0.0, 0.0, 0.0, 0.0, 0.0, 1.706882581462159E9, 0.0, 2024-02-02 15:03:01.462
228.0, 59834.9717062678, 63198.14928748004, -31529.43778388951, -2626.195863031848, 17552.19907190789, 8993.336140315074, 28573.93366979762, 4298.955714578118, 34746.03262496384, 46021.325411954575, 35672.8700605476, 44166.01886344181, 24525.183382652212, 24305.0857550008, -2334.1032664898953, 45.75402090001356, -0.10400000000000001, 0.992, 0.24, 192.0, 0.0, 0.0, 0.0, 0.0, 0.0, 0.0, 0.0, 0.0, 0.0, 1.7068825814709375E9, 0.0, 2024-02-02 15:03:01.470
230.0, 59828.69086607586, 63190.773211809785, -31539.54077238331, -2644.18901731837, 17536.32933334462, 8980.170962830898, 28560.097939979787, 4287.623380139277, 34755.39800589061, 46051.83554313607, 35673.51826113681, 44158.77689823829, 24489.062963612436, 24315.881647572714, -2342.239301471627, 25.682154379147814, -0.10200000000000001, 0.988, 0.246, 192.0, 126.0, 104.0, 15.0, 112.0, 3.5, 88.0, 0.0, 0.0, 0.0, 1.7068825814789267E9, 0.0, 2024-02-02 15:03:01.478
232.0, 59824.17581369589, 63185.83347628516, -31590.368639274675, -2744.771867367252, 17517.710330213347, 8963.831837634069, 28544.228201416518, 4263.9528827611075, 34746.25614240839, 46056.1717815604, 35649.914818992, 44122.76823792079, 24497.735440461092, 24393.01751768798, -2364.3898802268363, -6.459654147583741, -0.10200000000000001, 0.988, 0.246, 192.0, 0.0, 0.0, 0.0, 0.0, 0.0, 0.0, 0.0, 0.0, 0.0, 1.7068825814861643E9, 0.0, 2024-02-02 15:03:01.486
234.0, 59849.63445063048, 63205.21243872791, -31516.741993038893, -2544.857864958986, 17559.552795833682, 9003.796756720158, 28577.80052158839, 4300.721502390087, 34719.992842673404, 46008.92019378188, 35668.891450034556, 44172.366758867116, 24491.11932410232, 24311.29953995938, -2348.3189759634706, 25.369229956773516, -0.10200000000000001, 0.988, 0.246, 192.0, 0.0, 0.0, 0.0, 0.0, 0.0, 0.0, 0.0, 0.0, 0.0, 1.7068825814939818E9, 0.0, 2024-02-02 15:03:01.493
236.0, 59854.03774428818, 63217.90822957853, -31514.70798429346, -2605.4981476662338, 17554.36719112005, 8995.280742082685, 28576.213547732063, 4305.325961747881, 34693.573080727234, 46005.34391466903, 35690.25971773383, 44187.74475905237, 24518.500211060073, 24332.690159403108, -2320.8710337723537, 48.682099423658784, -0.10200000000000001, 0.988, 0.246, 192.0, 0.0, 0.0, 0.0, 0.0, 0.0, 0.0, 0.0, 0.0, 0.0, 1.706882581502983E9, 0.0, 2024-02-02 15:03:01.502
238.0, 59853.94833731036, 63209.54867715224, -31517.546655839284, -2617.098703038538, 17556.401199865486, 8980.930922142377, 28582.963774557567, 4308.164633293704, 34670.59548742718, 46043.006604076225, 35694.037162546774, 44176.99356996937, 24506.3855655653, 24330.879668102225, -2324.3579059073813, 43.94352959913368, -0.10200000000000001, 0.988, 0.246, 192.0, 0.0, 0.0, 0.0, 0.0, 0.0, 0.0, 0.0, 0.0, 0.0, 1.7068825815099716E9, 0.0, 2024-02-02 15:03:01.509
240.0, 59850.68498261988, 63205.14538349455, -31530.980054256925, -2625.94999384284, 17545.9405834604, 8995.034872893677, 28566.71405633856, 4303.0460838134395, 34587.581108520164, 46015.64806886292, 35688.650392133044, 44180.50279384885, 24509.581865022406, 24329.20328726808, -2327.2859844310265, 38.57911092985999, -0.10200000000000001, 0.988, 0.248, 192.0, 126.0, 104.0, 15.0, 112.0, 3.5, 96.0, 0.0, 0.0, 0.0, 1.7068825815182292E9, 0.0, 2024-02-02 15:03:01.518
242.0, 59840.35847668153, 63190.013252498306, -31528.61076934466, -2641.3950492614567, 17548.823958495137, 8981.713233198314, 28574.26894596445, 4300.028598311973, 34528.93013106944, 46011.84827230553, 35663.10234822063, 44157.189924381964, 24497.914254416737, 24338.836889128317, -2341.3899351823256, 23.379924700251188, -0.10200000000000001, 0.988, 0.248, 192.0, 0.0, 0.0, 0.0, 0.0, 0.0, 0.0, 0.0, 0.0, 0.0, 1.706882581526011E9, 0.0, 2024-02-02 15:03:01.526
244.0, 59848.15923549643, 63196.04822350124, -31525.660339076563, -2633.326069513091, 17554.970688220346, 8985.423622777895, 28579.45455067808, 4302.554345435422, 34460.01970291373, 46000.29242042213, 35680.35789494013, 44153.30072084674, 24493.734478203594, 24326.632836655717, -2328.627089098345, 28.38671545823997, -0.10200000000000001, 0.988, 0.248, 192.0, 0.0, 0.0, 0.0, 0.0, 0.0, 0.0, 0.0, 0.0, 0.0, 1.7068825815350797E9, 0.0, 2024-02-02 15:03:01.535
246.0, 59846.50520640674, 63202.440822415454, -31524.743917553893, -2628.654554921932, 17548.08635092811, 8984.574256488593, 28567.339905183308, 4302.956676835618, 34451.682502231895, 46017.23504271925, 35684.35885719763, 44167.807002998234, 24492.929815403204, 24345.609467698276, -2329.36469666537, 32.14180852673156, -0.10200000000000001, 0.988, 0.248, 192.0, 0.0, 0.0, 0.0, 0.0, 0.0, 0.0, 0.0, 0.0, 0.0, 1.7068825815421789E9, 0.0, 2024-02-02 15:03:01.542
248.0, 59845.38761918397, 63201.79262182625, -31526.017966987845, -2629.3698107445016, 17550.23211839582, 8990.005730391233, 28572.70432385258, 4309.148110049738, 34397.5689289056, 46015.51395839619, 35678.10036875014, 44167.4270233425, 24491.78987643598, 24336.2440867715, -2334.6397083568227, 31.04657304842151, -0.10200000000000001, 0.988, 0.248, 192.0, 0.0, 0.0, 0.0, 0.0, 0.0, 0.0, 0.0, 0.0, 0.0, 1.706882581550298E9, 0.0, 2024-02-02 15:03:01.550
250.0, 59854.79770359966, 63211.94031380896, -31515.020908715836, -2621.3455344850463, 17561.98913597931, 8997.895896183956, 28590.049277549897, 4321.061589844417, 34372.266754182194, 46007.73555132575, 35684.67178162, 44171.807965255735, 24498.584806750394, 24346.90586887668, -2322.45800762868, 39.763753385991265, -0.1, 0.994, 0.25, 192.0, 126.0, 112.0, 15.5, 8.0, 3.5, 104.0, 0.0, 0.0, 0.0, 1.706882581559072E9, 0.0, 2024-02-02 15:03:01.559
252.0, 59846.19228198437, 63202.15024973753, -31525.839153032204, -2630.2415287782587, 17555.462426598362, 8991.927980414388, 28581.577966401335, 4313.417293240702, 34378.771111818685, 46015.111626996, 35686.415217687514, 44174.57958156819, 24503.368080063832, 24349.990409611513, -2317.987658737619, 44.457619721605745, -0.1, 0.994, 0.25, 192.0, 0.0, 0.0, 0.0, 0.0, 0.0, 0.0, 0.0, 0.0, 0.0, 1.70688258156607E9, 0.0, 2024-02-02 15:03:01.566
254.0, 59843.08538950508, 63197.54579037974, -31524.743917553893, -2633.326069513091, 17551.439112596407, 8989.379881546483, 28577.8452250773, 4310.109235061316, 34358.94511448683, 45990.39059762843, 35674.613496615115, 44159.916837205514, 24491.164027591232, 24327.34809247829, -2328.8282547984427, 32.18651201564217, -0.1, 0.994, 0.25, 192.0, 0.0, 0.0, 0.0, 0.0, 0.0, 0.0, 0.0, 0.0, 0.0, 1.7068825815743144E9, 0.0, 2024-02-02 15:03:01.574
0.0, 59841.073732504105, 63201.323235192685, -31523.827496031226, -2626.620546176499, 17550.679153284927, 8990.318654813607, 28574.98420178702, 4311.606801939822, 34371.4620913818, 46003.06403673459, 35686.37051419861, 44170.53391582178, 24502.317548074432, 24350.884479389726, -2322.368600650859, 40.1884365306421, -0.1, 0.994, 0.25, 192.0, 0.0, 0.0, 0.0, 0.0, 0.0, 0.0, 0.0, 0.0, 0.0, 1.7068825815821085E9, 0.0, 2024-02-02 15:03:01.582
2.0, 59830.74722656575, 63190.52734262078, -31537.640874104607, -2640.098648083049, 17541.42553108043, 8982.473192509793, 28571.27381220744, 4305.951810592629, 34361.94024824384, 45986.032007459646, 35665.941019766455, 44160.006244183336, 24487.006603122547, 24343.173127552647, -2340.473513659658, 24.49751192301654, -0.1, 0.994, 0.25, 192.0, 0.0, 0.0, 0.0, 0.0, 0.0, 0.0, 0.0, 0.0, 0.0, 1.7068825815911229E9, 0.0, 2024-02-02 15:03:01.591
4.0, 59836.804549313136, 63196.83053455717, -31533.930484525026, -2638.2434532932584, 17546.454673582874, 8989.223419335296, 28565.484710393517, 4311.495043217546, 34377.27354494018, 45981.36049286849, 35672.57948786968, 44154.12773539159, 24484.61496646583, 24332.243124514, -2335.913757790775, 31.761828870991337, -0.10400000000000001, 0.986, 0.248, 192.0, 126.0, 96.0, 15.0, 104.0, 3.5, 96.0, 0.0, 0.0, 0.0, 1.706882581598297E9, 0.0, 2024-02-02 15:03:01.598
6.0, 59832.69182833336, 63194.952988022924, -31530.600074601185, -2626.777008387686, 17547.952240461378, 8992.442070536861, 28579.678068122634, 4314.959563608118, 34389.03056252367, 45976.97955095524, 35671.97599076939, 44165.728290763895, 24484.65966995474, 24347.62112469925, -2335.7125920906774, 32.231215504552786, -0.10400000000000001, 0.986, 0.248, 192.0, 0.0, 0.0, 0.0, 0.0, 0.0, 0.0, 0.0, 0.0, 0.0, 1.706882581606132E9, 0.0, 2024-02-02 15:03:01.606
8.0, 59840.51493889272, 63200.69738634794, -31519.20068492898, -2619.2444705062476, 17558.435208610917, 9000.600457263048, 28583.36610595776, 4316.837110142364, 34427.632025197985, 45977.31482712208, 35683.04010427476, 44163.2248953849, 24498.651861983763, 24349.431616000133, -2324.380257651837, 41.93187259815605, -0.10400000000000001, 0.986, 0.248, 192.0, 0.0, 0.0, 0.0, 0.0, 0.0, 0.0, 0.0, 0.0, 0.0, 1.7068825816151588E9, 0.0, 2024-02-02 15:03:01.615
10.0, 59843.15244473844, 63204.407775927524, -31512.539865081297, -2611.04138029115, 17560.20099642289, 8994.766651960213, 28593.826722362846, 4318.871118887797, 34459.19268836888, 45993.40808312989, 35689.45505493344, 44169.68454953248, 24500.59646375137, 24348.939877622113, -2319.909908760775, 48.078602323365494, -0.10400000000000001, 0.986, 0.248, 192.0, 0.0, 0.0, 0.0, 0.0, 0.0, 0.0, 0.0, 0.0, 0.0, 1.7068825816221733E9, 0.0, 2024-02-02 15:03:01.622
12.0, 59833.13886322247, 63191.93550252146, -31522.70990880846, -2621.9043280964293, 17550.366228862553, 8991.838573436567, 28577.711114610567, 4304.253078014026, 34487.199424171384, 46009.791911815635, 35688.56098515523, 44171.539744322276, 24504.172742864223, 24351.175052067647, -2322.3238971619485, 42.51301795399403, -0.10400000000000001, 0.986, 0.248, 192.0, 0.0, 0.0, 0.0, 0.0, 0.0, 0.0, 0.0, 0.0, 0.0, 1.706882581630393E9, 0.0, 2024-02-02 15:03:01.630
14.0, 59822.03004622818, 63182.100734961125, -31542.692368351505, -2666.5631135181325, 17539.79385373519, 8974.62773020598, 28567.831643561323, 4297.614609910799, 34478.01285720025, 45998.616039587985, 35675.21699371541, 44155.60295052564, 24494.494437515074, 24338.30044726139, -2332.337478677926, 31.158331770698044, -0.10400000000000001, 0.99, 0.254, 192.0, 126.0, 96.0, 15.0, 120.0, 3.5, 120.0, 0.0, 0.0, 0.0, 1.7068825816382143E9, 0.0, 2024-02-02 15:03:01.638
16.0, 59842.057209260136, 63196.27174094579, -31514.66328080455, -2592.712949837798, 17549.85213874008, 8999.68403574038, 28571.139701740707, 4304.9906855810505, 34528.61720664707, 46028.00858354671, 35669.04791224574, 44149.65738650053, 24509.64892025577, 24362.708552206583, -2342.976909038652, 19.11074150928754, -0.10400000000000001, 0.99, 0.254, 192.0, 0.0, 0.0, 0.0, 0.0, 0.0, 0.0, 0.0, 0.0, 0.0, 1.7068825816472049E9, 0.0, 2024-02-02 15:03:01.647
18.0, 59849.34387795257, 63206.66530211751, -31502.392173098586, -2597.4068161734126, 17569.164045949467, 9003.59559102006, 28596.88891135322, 4324.347296279347, 34568.291553055235, 46058.54106647266, 35697.5240346818, 44187.90122126356, 24489.174722334712, 24335.52883094893, -2319.3287634049375, 49.3750035017733, -0.10400000000000001, 0.99, 0.254, 192.0, 0.0, 0.0, 0.0, 0.0, 0.0, 0.0, 0.0, 0.0, 0.0, 1.706882581654242E9, 0.0, 2024-02-02 15:03:01.654
20.0, 59846.99694478476, 63205.81593582821, -31511.914016236547, -2609.4991099237336, 17560.80449352318, 8996.73360547228, 28593.17852177364, 4322.0674183449055, 34604.63548953956, 46075.103709114046, 35704.22955801839, 44185.48723286238, 24519.684853516206, 24343.53075546393, -2313.1596819352726, 51.386660502750935, -0.10400000000000001, 0.99, 0.254, 192.0, 0.0, 0.0, 0.0, 0.0, 0.0, 0.0, 0.0, 0.0, 0.0, 1.7068825816623178E9, 0.0, 2024-02-02 15:03:01.662
22.0, 59856.33997396708, 63210.39804344154, -31513.23276915941, -2631.292060767658, 17563.106723202076, 8987.68114896788, 28589.51283568297, 4314.1996042966375, 34610.08931518666, 46089.85586045455, 35694.3724387136, 44177.954694980945, 24517.024995926025, 24356.740636437018, -2321.6086413393787, 42.53536969844934, -0.10400000000000001, 0.99, 0.254, 192.0, 0.0, 0.0, 0.0, 0.0, 0.0, 0.0, 0.0, 0.0, 0.0, 1.7068825816702385E9, 0.0, 2024-02-02 15:03:01.670
24.0, 59850.1261890085, 63203.848982316136, -31530.309501923264, -2617.2775169941806, 17549.80743525117, 8993.693768226358, 28579.365143700263, 4305.393016981247, 34658.10086227666, 46077.249476581754, 35707.045877819764, 44181.9780089829, 24527.798536753482, 24350.303334033888, -2323.3520774068925, 38.109724296298545, -0.10400000000000001, 0.989, 0.25, 192.0, 126.0, 96.0, 15.0, 112.0, 3.5, 88.0, 0.0, 0.0, 0.0, 1.706882581678363E9, 0.0, 2024-02-02 15:03:01.678
26.0, 59853.52365416571, 63210.912133564016, -31500.984013197904, -2591.818880059586, 17567.107685459578, 9010.234059123286, 28588.797579860402, 4316.054799086428, 34682.55367071077, 46074.63432248048, 35700.474464949904, 44185.375474140106, 24518.65667327126, 24347.777586910437, -2330.504635632591, 43.787067387946536, -0.10400000000000001, 0.989, 0.25, 192.0, 0.0, 0.0, 0.0, 0.0, 0.0, 0.0, 0.0, 0.0, 0.0, 1.7068825816865573E9, 0.0, 2024-02-02 15:03:01.686
28.0, 59843.71123834983, 63199.512743891806, -31528.320196666744, -2612.5389471696553, 17550.388580607007, 8992.240904836763, 28581.68972512361, 4307.605839682322, 34661.81125185624, 46072.6226654795, 35685.2752787203, 44177.57471532521, 24511.74998423457, 24335.014740826457, -2331.1975397107053, 46.17870404466439, -0.10400000000000001, 0.989, 0.25, 192.0, 0.0, 0.0, 0.0, 0.0, 0.0, 0.0, 0.0, 0.0, 0.0, 1.7068825816944036E9, 0.0, 2024-02-02 15:03:01.694
30.0, 59841.140787737466, 63196.98699676836, -31528.00727224437, -2617.8586623500187, 17550.969725962845, 8994.140803115464, 28574.604222131282, 4307.896412360241, 34716.193046116, 46082.636246995484, 35698.26164224883, 44184.816680528726, 24535.465185101653, 24335.037092570914, -2330.370525165859, 47.966843601088954, -0.10400000000000001, 0.989, 0.25, 192.0, 0.0, 0.0, 0.0, 0.0, 0.0, 0.0, 0.0, 0.0, 0.0, 1.7068825817022789E9, 0.0, 2024-02-02 15:03:01.702
32.0, 59852.16019775393, 63206.46413641741, -31519.692423306995, -2632.4096479904233, 17563.687868557914, 8999.728739229291, 28590.049277549897, 4315.585412452867, 34686.66639169054, 46066.05125260964, 35664.264638932305, 44156.20644762593, 24525.3398448634, 24355.690104447618, -2345.0332695285406, 32.03004980445502, -0.10400000000000001, 0.989, 0.25, 192.0, 0.0, 0.0, 0.0, 0.0, 0.0, 0.0, 0.0, 0.0, 0.0, 1.7068825817093549E9, 0.0, 2024-02-02 15:03:01.709
34.0, 59857.36815421202, 63207.40290968453, -31503.062725432246, -2595.3057521946134, 17568.091162215613, 9002.567410775115, 28586.18242575913, 4317.932345620674, 34750.279456410346, 46093.74506398977, 35720.680441937504, 44193.64561958857, 24523.082318673412, 24360.607488227786, -2308.6669812997557, 60.26030305150784, -0.10300000000000001, 0.9915, 0.25, 192.0, 126.0, 104.0, 15.5, 8.0, 3.5, 104.0, 0.0, 0.0, 0.0, 1.7068825817183704E9, 0.0, 2024-02-02 15:03:01.718
36.0, 59840.51493889272, 63189.00742399781, -31530.46596413445, -2633.0578485796273, 17547.885185228013, 8971.274968537686, 28576.235899476516, 4303.8730983582855, 34709.97926115743, 46072.89088641297, 35691.8243398457, 44178.513488592325, 24516.935588948203, 24331.840793113806, -2322.6144698398675, 44.54702669942698, -0.10300000000000001, 0.9915, 0.25, 192.0, 0.0, 0.0, 0.0, 0.0, 0.0, 0.0, 0.0, 0.0, 0.0, 1.7068825817263408E9, 0.0, 2024-02-02 15:03:01.726
38.0, 59841.498415648755, 63193.83540080016, -31533.57285661374, -2630.934432856373, 17556.37884812103, 8977.667567451903, 28590.585719416824, 4312.0314850844725, 34751.240581421924, 46043.29717675414, 35670.65723784653, 44151.177305123485, 24503.301024830464, 24330.723205891038, -2345.9720427956636, 17.523767652960736, -0.10300000000000001, 0.9915, 0.25, 192.0, 0.0, 0.0, 0.0, 0.0, 0.0, 0.0, 0.0, 0.0, 0.0, 1.7068825817333212E9, 0.0, 2024-02-02 15:03:01.733
40.0, 59847.913366307424, 63200.473868903384, -31529.795411800795, -2615.3105634821136, 17560.536272589718, 8998.25352409524, 28587.791751359913, 4315.160729308215, 34756.426186135555, 46050.80736289112, 35667.57269711169, 44167.09174717567, 24542.863612516358, 24323.14596452069, -2332.203368211194, 38.22148301857508, -0.10300000000000001, 0.9915, 0.25, 192.0, 0.0, 0.0, 0.0, 0.0, 0.0, 0.0, 0.0, 0.0, 0.0, 1.706882581742557E9, 0.0, 2024-02-02 15:03:01.742
42.0, 59845.85700581754, 63197.165810724, -31516.85375176117, -2635.673002680898, 17557.22821441033, 8989.201067590842, 28580.88506232322, 4310.511566461511, 34742.03166270634, 46074.030825380185, 35689.38799970007, 44177.35119788065, 24504.351556819864, 24334.165374537155, -2330.4822838881355, 38.310889996396305, -0.10300000000000001, 0.9915, 0.25, 192.0, 0.0, 0.0, 0.0, 0.0, 0.0, 0.0, 0.0, 0.0, 0.0, 1.7068825817503293E9, 0.0, 2024-02-02 15:03:01.750
44.0, 59846.169930239914, 63200.138592736555, -31523.112240208655, -2642.289119039669, 17560.80449352318, 8989.782212946679, 28587.47882693754, 4314.75839790802, 34753.78868028983, 46066.25241830974, 35685.76701709831, 44164.945979707954, 24529.698435032184, 24321.20136275308, -2324.737885563122, 39.2496632635192, -0.10250000000000001, 0.99175, 0.248, 192.0, 126.0, 104.0, 15.5, 0.0, 3.5, 88.0, 0.0, 0.0, 0.0, 1.7068825817583525E9, 0.0, 2024-02-02 15:03:01.758
46.0, 59822.03004622818, 63181.65370007202, -31569.827386120247, -2663.8809041834957, 17526.203993106366, 8966.514046968705, 28554.957038755067, 4289.500926673523, 34735.5496568143, 46065.73832818727, 35662.7670720538, 44153.50188654684, 24496.148466604765, 24366.01661038597, -2346.888464318331, 22.396447944217677, -0.10250000000000001, 0.99175, 0.248, 192.0, 0.0, 0.0, 0.0, 0.0, 0.0, 0.0, 0.0, 0.0, 0.0, 1.7068825817655447E9, 0.0, 2024-02-02 15:03:01.765
48.0, 59845.834654073085, 63199.512743891806, -31531.941179268502, -2610.7284558687757, 17555.8424062541, 8990.072785624598, 28579.767475100456, 4312.836147884864, 34728.50885731087, 46062.229104307786, 35650.3171503922, 44158.62043602711, 24518.90254246027, 24310.874856814728, -2356.3879557118366, 26.151541012709263, -0.10250000000000001, 0.99175, 0.248, 192.0, 0.0, 0.0, 0.0, 0.0, 0.0, 0.0, 0.0, 0.0, 0.0, 1.7068825817744703E9, 0.0, 2024-02-02 15:03:01.774
50.0, 59839.240889458764, 63196.20468571242, -31536.63504560412, -2625.7711798871974, 17540.956144446867, 8975.857076151024, 28575.073608764844, 4314.400769996735, 34763.10935772769, 46055.88120888248, 35685.029409531286, 44171.45033734445, 24505.245626598076, 24333.89715360369, -2329.7893798100213, 48.413878490195096, -0.10250000000000001, 0.99175, 0.248, 192.0, 0.0, 0.0, 0.0, 0.0, 0.0, 0.0, 0.0, 0.0, 0.0, 1.7068825817824495E9, 0.0, 2024-02-02 15:03:01.782
52.0, 59845.9240610509, 63195.55648512322, -31534.645740347594, -2658.0694506251157, 17551.57322306314, 8995.705425227336, 28575.207719231574, 4317.977049109584, 34742.97043597346, 46080.93751441688, 35658.609647585115, 44158.91100870502, 24522.94820820668, 24330.25381925748, -2354.9127405777863, 22.754075855502588, -0.10250000000000001, 0.99175, 0.248, 192.0, 0.0, 0.0, 0.0, 0.0, 0.0, 0.0, 0.0, 0.0, 0.0, 1.706882581789459E9, 0.0, 2024-02-02 15:03:01.789
54.0, 59855.267090233225, 63204.94421779445, -31518.843057017693, -2631.3144125121134, 17566.548891848193, 9001.11454738552, 28583.857844335776, 4330.091694604361, 34745.585590074734, 46049.287444268164, 35683.46478741941, 44158.732194749384, 24493.533312503496, 24336.62406642724, -2325.6766588302444, 38.35559348530692, -0.10025, 0.990875, 0.247, 192.0, 126.0, 120.0, 15.0, 120.0, 3.5, 88.0, 0.0, 0.0, 0.0, 1.706882581797752E9, 0.0, 2024-02-02 15:03:01.797
56.0, 59842.83952031607, 63194.43889790046, -31528.789583300306, -2607.42039768939, 17554.47894984233, 8989.402233290939, 28580.192158245107, 4319.89929913274, 34735.01321494737, 46051.679080924885, 35678.457996661426, 44164.118965163114, 24494.740306704083, 24361.948592895104, -2332.0916094889176, 43.76471564349123, -0.10025, 0.990875, 0.247, 192.0, 0.0, 0.0, 0.0, 0.0, 0.0, 0.0, 0.0, 0.0, 0.0, 1.7068825818065565E9, 0.0, 2024-02-02 15:03:01.806
58.0, 59842.526595893694, 63192.47194438839, -31531.42708914603, -2613.0753890365827, 17556.91528998796, 8982.719061698803, 28590.161036272173, 4320.323982277391, 34739.39415686061, 46070.9239329009, 35685.163519998016, 44186.67187531851, 24534.682874045717, 24310.04784226988, -2322.5921180954124, 56.75107917202463, -0.10025, 0.990875, 0.247, 192.0, 0.0, 0.0, 0.0, 0.0, 0.0, 0.0, 0.0, 0.0, 0.0, 1.706882581813678E9, 0.0, 2024-02-02 15:03:01.813
60.0, 59858.061058290135, 63210.55450565273, -31515.691461049493, -2612.9859820587617, 17561.899729001492, 8991.525649014193, 28579.365143700263, 4319.586374710367, 34705.37480179963, 46053.98131060378, 35677.18394722747, 44161.459107572926, 24523.41759484024, 24335.595886182295, -2332.0692577444624, 32.81236086039077, -0.10025, 0.990875, 0.247, 192.0, 0.0, 0.0, 0.0, 0.0, 0.0, 0.0, 0.0, 0.0, 0.0, 1.7068825818215165E9, 0.0, 2024-02-02 15:03:01.821
62.0, 59845.16410173942, 63199.64685435854, -31535.986845014915, -2648.18997957587, 17548.779255006226, 8981.869695409501, 28572.950193041586, 4308.298743760436, 34740.556447572286, 46060.41861300691, 35686.52697640979, 44186.80598578525, 24509.827734211416, 24341.563801951863, -2324.0673332294623, 43.340032498840394, -0.10025, 0.990875, 0.247, 192.0, 0.0, 0.0, 0.0, 0.0, 0.0, 0.0, 0.0, 0.0, 0.0, 1.706882581830562E9, 0.0, 2024-02-02 15:03:01.830
64.0, 59844.158273238936, 63199.311578191715, -31541.843002062204, -2633.9742701022947, 17541.22436538033, 8985.423622777895, 28561.59550685829, 4300.252115756526, 34690.39913301458, 46054.78597340417, 35674.83701405967, 44165.9741599529, 24492.84040842538, 24350.05746484488, -2349.36950795287, 13.612212373282, -0.098125, 0.9914375, 0.2485, 192.0, 126.5, 0.0, 15.5, 0.0, 3.5, 104.0, 0.0, 0.0, 0.0, 1.7068825818384964E9, 0.0, 2024-02-02 15:03:01.838
66.0, 59853.434247187884, 63202.95491253793, -31521.391155885598, -2609.3426477125463, 17556.602365565584, 8987.547038501149, 28572.74902734149, 4313.238479285059, 34720.95396768498, 46023.493531166736, 35681.028447273784, 44175.76422402432, 24516.108574403355, 24341.54145020741, -2341.725211349155, 39.048497563421435, -0.098125, 0.9914375, 0.2485, 192.0, 0.0, 0.0, 0.0, 0.0, 0.0, 0.0, 0.0, 0.0, 0.0, 1.706882581845604E9, 0.0, 2024-02-02 15:03:01.845
68.0, 59847.712200607326, 63201.65851135952, -31528.700176322483, -2611.5107669247113, 17544.465368326353, 8983.769593688201, 28564.7918063154, 4306.801176881931, 34694.891833650094, 46040.771429630695, 35688.20335724394, 44182.76032003884, 24503.636300997296, 24321.268417986445, -2336.1596269797838, 43.27297726547447, -0.098125, 0.9914375, 0.2485, 192.0, 0.0, 0.0, 0.0, 0.0, 0.0, 0.0, 0.0, 0.0, 0.0, 1.7068825818545456E9, 0.0, 2024-02-02 15:03:01.854
70.0, 59848.13688375198, 63200.29505494775, -31531.449440890487, -2620.9208513403955, 17541.157310146966, 8982.070861109598, 28567.384608672215, 4307.851708871331, 34682.82189164423, 46031.674269637384, 35682.25779321883, 44179.83224151519, 24511.593522023384, 24327.1916302671, -2342.6192811273672, 36.63450916224828, -0.098125, 0.9914375, 0.2485, 192.0, 0.0, 0.0, 0.0, 0.0, 0.0, 0.0, 0.0, 0.0, 0.0, 1.7068825818628042E9, 0.0, 2024-02-02 15:03:01.862
72.0, 59841.900747048945, 63196.45055490143, -31533.95283626948, -2628.7663136442084, 17548.2428131393, 8980.282721553174, 28568.70336159508, 4307.650543171232, 34672.83066187271, 46025.88516782346, 35681.38607518507, 44174.64663680156, 24498.60715849485, 24334.81357512636, -2341.5911008824232, 31.29244223742989, -0.098125, 0.9914375, 0.2485, 192.0, 0.0, 0.0, 0.0, 0.0, 0.0, 0.0, 0.0, 0.0, 0.0, 1.7068825818695543E9, 0.0, 2024-02-02 15:03:01.869
74.0, 59844.67236336141, 63198.395156669045, -31532.321158924242, -2632.431999734879, 17546.678191027426, 8976.415869762406, 28559.69560857959, 4303.515470447001, 34658.704359376956, 46016.25156596322, 35679.8214530732, 44167.24820938685, 24501.80345795196, 24325.314083732854, -2340.6076241263895, 27.000907302010933, -0.0990625, 0.99271875, 0.24725, 192.0, 126.0, 112.0, 15.5, 8.0, 3.5, 88.0, 0.0, 0.0, 0.0, 1.7068825818777173E9, 0.0, 2024-02-02 15:03:01.877
76.0, 59839.732627836784, 63194.10362173362, -31536.366824670655, -2633.7284009132864, 17544.822996237635, 8971.498485982238, 28561.75196906948, 4301.190889023649, 34658.90552507705, 46022.10772301051, 35678.10036875014, 44172.18794491148, 24509.067774899933, 24325.33643547731, -2347.9389963077306, 22.105875266298685, -0.0990625, 0.99271875, 0.24725, 192.0, 0.0, 0.0, 0.0, 0.0, 0.0, 0.0, 0.0, 0.0, 0.0, 1.7068825818866208E9, 0.0, 2024-02-02 15:03:01.886
78.0, 59843.91240404992, 63196.74112757935, -31532.611731602163, -2628.945127599851, 17548.309868372664, 8978.740451185759, 28565.08237899332, 4307.807005382419, 34655.888039575584, 46012.451769405816, 35678.54740363925, 44167.628189042596, 24506.072641142924, 24321.782508108918, -2344.0944962614176, 25.436285190139436, -0.0990625, 0.99271875, 0.24725, 192.0, 0.0, 0.0, 0.0, 0.0, 0.0, 0.0, 0.0, 0.0, 0.0, 1.7068825818947587E9, 0.0, 2024-02-02 15:03:01.894
80.0, 59845.09704650606, 63200.74208983685, -31532.008234501867, -2628.4980927107445, 17544.890051471004, 8976.080593595576, 28558.6897800791, 4305.214203025604, 34664.53816467979, 46018.889071808946, 35686.48227292088, 44174.28900889028, 24514.119269146835, 24329.851487857282, -2341.36758343787, 34.19816901661981, -0.0990625, 0.99271875, 0.24725, 192.0, 0.0, 0.0, 0.0, 0.0, 0.0, 0.0, 0.0, 0.0, 0.0, 1.706882581901611E9, 0.0, 2024-02-02 15:03:01.901
82.0, 59842.61600287152, 63199.22217121389, -31533.192876958, -2629.861549122518, 17547.41579859445, 8976.639387206958, 28561.99783825849, 4303.8730983582855, 34663.91231583504, 46028.92500506938, 35684.44826417545, 44171.74091002237, 24512.219370868133, 24319.502630174477, -2342.753391594099, 31.761828870991337, -0.0990625, 0.99271875, 0.24725, 192.0, 0.0, 0.0, 0.0, 0.0, 0.0, 0.0, 0.0, 0.0, 0.0, 1.706882581909618E9, 0.0, 2024-02-02 15:03:01.909
84.0, 59842.83952031607, 63198.64102585805, -31530.84594379019, -2626.7323048987755, 17550.299173629188, 8976.192352317852, 28571.05029476289, 4303.001380324528, 34658.59260065467, 46020.52074915418, 35685.029409531286, 44168.723424520904, 24509.04542315548, 24325.269380243946, -2342.0604875159847, 29.01256430298857, -0.09653125, 0.993359375, 0.24762499999999998, 192.0, 126.5, 8.0, 15.5, 8.0, 3.5, 96.0, 0.0, 0.0, 0.0, 1.706882581918733E9, 0.0, 2024-02-02 15:03:01.918
86.0, 59844.761770339224, 63204.49718290534, -31524.654510576074, -2622.9325083413733, 17553.00373470828, 8972.504314482727, 28565.88704179371, 4302.017903568495, 34661.833603600695, 46044.79474363265, 35690.66204913402, 44176.010093213335, 24517.963769193146, 24335.43942397111, -2338.8418363144206, 33.39350621622875, -0.09653125, 0.993359375, 0.24762499999999998, 192.0, 0.0, 0.0, 0.0, 0.0, 0.0, 0.0, 0.0, 0.0, 0.0, 1.7068825819278307E9, 0.0, 2024-02-02 15:03:01.927
88.0, 59838.14565398046, 63194.50595313382, -31525.012138487356, -2628.1851682883703, 17554.36719112005, 8984.261332066219, 28567.429312161126, 4298.262810500003, 34662.52650767881, 46052.48374372527, 35692.89722357955, 44172.0761861892, 24522.322359361933, 24333.67363615914, -2336.181978724239, 32.38767771573993, -0.09653125, 0.993359375, 0.24762499999999998, 192.0, 0.0, 0.0, 0.0, 0.0, 0.0, 0.0, 0.0, 0.0, 0.0, 1.7068825819346695E9, 0.0, 2024-02-02 15:03:01.934
90.0, 59833.60824985603, 63189.230941442365, -31528.878990278125, -2622.6642874079093, 17551.059132940667, 8969.77740165918, 28562.37781791423, 4289.545630162434, 34666.169842025025, 46046.76169714471, 35684.314153708714, 44163.493116318365, 24519.126059904822, 24333.33835999231, -2340.786438082032, 27.067962535376854, -0.09653125, 0.993359375, 0.24762499999999998, 192.0, 0.0, 0.0, 0.0, 0.0, 0.0, 0.0, 0.0, 0.0, 0.0, 1.706882581942688E9, 0.0, 2024-02-02 15:03:01.942
92.0, 59837.430398157885, 63197.74695607984, -31527.33671991071, -2615.4446739488453, 17557.161159176965, 8977.756974429723, 28567.295201694396, 4294.351255220325, 34676.11636830764, 46066.58769447657, 35684.40356068654, 44172.67968328949, 24523.70816751816, 24314.04880452738, -2338.3277461919483, 34.04170680543265, -0.09653125, 0.993359375, 0.24762499999999998, 192.0, 0.0, 0.0, 0.0, 0.0, 0.0, 0.0, 0.0, 0.0, 0.0, 1.7068825819499905E9, 0.0, 2024-02-02 15:03:01.949
94.0, 59833.94352602286, 63190.16971470949, -31530.510667623363, -2627.0452293211497, 17556.42355160994, 8973.82306740559, 28572.45845466357, 4291.557287163411, 34679.24561253138, 46069.001682877744, 35685.364685698114, 44173.014959456326, 24528.312626875955, 24318.5415051629, -2333.9691560231636, 38.06502080738793, -0.09426562499999999, 0.9876796875, 0.2498125, 192.0, 126.5, 16.0, 15.0, 88.0, 3.5, 112.0, 0.0, 0.0, 0.0, 1.7068825819576983E9, 0.0, 2024-02-02 15:03:01.957
96.0, 59834.278802189685, 63190.39323215404, -31533.796374058293, -2622.3737147299903, 17547.639316039003, 8961.306090510618, 28560.56732661335, 4281.297836458425, 34682.0842840772, 46099.780034992706, 35681.453130418435, 44170.5786193107, 24530.592504810396, 24339.127461806234, -2339.400629925803, 32.9241195826673, -0.09426562499999999, 0.9876796875, 0.2498125, 192.0, 0.0, 0.0, 0.0, 0.0, 0.0, 0.0, 0.0, 0.0, 0.0, 1.7068825819657311E9, 0.0, 2024-02-02 15:03:01.965
98.0, 59837.20688071333, 63192.47194438839, -31527.13555421061, -2611.622525646988, 17553.04843819719, 8981.847343665046, 28560.097939979787, 4288.003359795018, 34690.53324348131, 46102.0822646716, 35685.29763046475, 44173.350235623155, 24536.649827557783, 24332.220772769546, -2341.9040253047974, 27.135017768742774, -0.09426562499999999, 0.9876796875, 0.2498125, 192.0, 0.0, 0.0, 0.0, 0.0, 0.0, 0.0, 0.0, 0.0, 0.0, 1.7068825819747334E9, 0.0, 2024-02-02 15:03:01.974
100.0, 59838.68209584738, 63194.08126998917, -31528.834286789217, -2645.5971772190546, 17547.37109510554, 8973.82306740559, 28554.80057654388, 4283.734176604054, 34694.35539178317, 46127.36208765055, 35683.710656608426, 44169.46103208793, 24542.14835669379, 24340.982656596025, -2343.89333056132, 24.25164273400816, -0.09426562499999999, 0.9876796875, 0.2498125, 192.0, 0.0, 0.0, 0.0, 0.0, 0.0, 0.0, 0.0, 0.0, 0.0, 1.7068825819820085E9, 0.0, 2024-02-02 15:03:01.982
102.0, 59844.80647382814, 63197.25521770182, -31521.122934952135, -2591.7965283151307, 17549.248641639788, 8957.036907319654, 28560.992009758, 4286.885772572252, 34707.29705182279, 46144.95291053688, 35686.214051987416, 44176.300665891256, 24545.925801506735, 24374.286755834433, -2347.55901665199, 18.753113598002624, -0.09426562499999999, 0.9876796875, 0.2498125, 192.0, 0.0, 0.0, 0.0, 0.0, 0.0, 0.0, 0.0, 0.0, 0.0, 1.7068825819897254E9, 0.0, 2024-02-02 15:03:01.989
104.0, 59851.824921587104, 63206.084156761666, -31509.432972602008, -2592.109452737505, 17555.820054509648, 8993.53730601517, 28562.80250105888, 4294.440662198146, 34725.84899972069, 46145.623462870535, 35701.70381089495, 44194.29382017777, 24568.0987320064, 24326.811650611362, -2332.829217055943, 40.38960223073986, -0.0961328125, 0.98783984375, 0.24890625, 192.0, 126.0, 120.0, 15.0, 112.0, 3.5, 96.0, 0.0, 0.0, 0.0, 1.7068825819977508E9, 0.0, 2024-02-02 15:03:01.997
106.0, 59848.85213957455, 63208.45344167393, -31516.205551171966, -2603.79941508763, 17545.58295554912, 8979.925093641888, 28545.70341655057, 4281.119022502783, 34733.15802015758, 46178.61463768657, 35698.88749109358, 44195.50081437836, 24572.43497043073, 24348.649304944196, -2341.4569904156915, 37.126247540265034, -0.0961328125, 0.98783984375, 0.24890625, 192.0, 0.0, 0.0, 0.0, 0.0, 0.0, 0.0, 0.0, 0.0, 0.0, 1.7068825820057888E9, 0.0, 2024-02-02 15:03:02.005
108.0, 59848.203938985345, 63206.39708118404, -31514.70798429346, -2599.4408249188455, 17554.411894608962, 8977.041718607154, 28554.822928288333, 4285.567019649389, 34741.69638653951, 46174.70308240689, 35701.99438357286, 44191.32103816522, 24569.23867097362, 24338.747482150495, -2343.2004264832053, 34.57814867236002, -0.0961328125, 0.98783984375, 0.24890625, 192.0, 0.0, 0.0, 0.0, 0.0, 0.0, 0.0, 0.0, 0.0, 0.0, 1.706882582013775E9, 0.0, 2024-02-02 15:03:02.013
110.0, 59843.1747964829, 63200.473868903384, -31523.492219864398, -2611.04138029115, 17546.56643230515, 8969.576235959083, 28561.863727791755, 4283.622417881777, 34744.84798250771, 46174.41250972897, 35696.04881954775, 44183.632038072596, 24570.780941341036, 24350.660961945174, -2348.877769574853, 25.50334042350536, -0.0961328125, 0.98783984375, 0.24890625, 192.0, 0.0, 0.0, 0.0, 0.0, 0.0, 0.0, 0.0, 0.0, 0.0, 1.7068825820220685E9, 0.0, 2024-02-02 15:03:02.022
112.0, 59855.15533151095, 63210.95683705292, -31511.042298202792, -2593.159984726904, 17557.183510921423, 8980.327425042084, 28565.618820860247, 4290.573810407378, 34775.224003222465, 46185.02958834524, 35702.06143880623, 44192.46097713244, 24575.586566398928, 24350.303334033888, -2344.4521241727025, 32.231215504552786, -0.0961328125, 0.98783984375, 0.24890625, 192.0, 0.0, 0.0, 0.0, 0.0, 0.0, 0.0, 0.0, 0.0, 0.0, 1.7068825820308108E9, 0.0, 2024-02-02 15:03:02.030
114.0, 59858.552796668155, 63206.151211995035, -31509.432972602008, -2611.354304713524, 17561.028010967733, 8984.68601521087, 28573.643097119704, 4296.675836643677, 34795.25116625442, 46179.3522452536, 35710.53274995479, 44194.69615157797, 24592.708002651692, 24367.2012528421, -2336.0031647685964, 39.42847721916166, -0.09606640625, 0.986919921875, 0.249453125, 192.0, 126.5, 0.0, 15.0, 104.0, 3.5, 104.0, 0.0, 0.0, 0.0, 1.7068825820378113E9, 0.0, 2024-02-02 15:03:02.037
116.0, 59848.85213957455, 63204.65364511653, -31522.0393564748, -2591.908287037407, 17550.209766651365, 8977.712270940814, 28566.669352849647, 4289.143298762238, 34796.86049185521, 46173.33962599512, 35694.84182534717, 44190.404616642554, 24575.698325121204, 24358.685238204627, -2341.4793421601466, 38.109724296298545, -0.09606640625, 0.986919921875, 0.249453125, 192.0, 0.0, 0.0, 0.0, 0.0, 0.0, 0.0, 0.0, 0.0, 0.0, 1.7068825820459445E9, 0.0, 2024-02-02 15:03:02.045
118.0, 59854.59653789956, 63205.77123233929, -31520.47473436293, -2617.5010344387338, 17553.495473086296, 8966.29052952415, 28569.351562184285, 4294.552420920422, 34823.1684950791, 46187.04124534622, 35698.373400971104, 44191.36574165413, 24576.61474664387, 24348.91752587766, -2338.3500979364035, 37.81915161837955, -0.09606640625, 0.986919921875, 0.249453125, 192.0, 0.0, 0.0, 0.0, 0.0, 0.0, 0.0, 0.0, 0.0, 0.0, 1.7068825820538075E9, 0.0, 2024-02-02 15:03:02.053
120.0, 59848.31569770762, 63203.2678369603, -31526.39794664359, -2634.734229413775, 17546.879356727524, 8988.597570490549, 28566.356428427272, 4293.367778464291, 34842.681567988584, 46162.14140202301, 35686.05758977623, 44171.942075722465, 24563.76249358207, 24325.828173855327, -2344.8768073173533, 30.733648626047213, -0.09606640625, 0.986919921875, 0.249453125, 192.0, 0.0, 0.0, 0.0, 0.0, 0.0, 0.0, 0.0, 0.0, 0.0, 1.7068825820621347E9, 0.0, 2024-02-02 15:03:02.062
122.0, 59851.981383798295, 63208.34168295166, -31516.540827338795, -2620.9879065737614, 17553.651935297483, 8973.644253449947, 28571.139701740707, 4295.446490698635, 34864.496870576964, 46171.7973556277, 35694.752418369346, 44181.374511882605, 24600.06172657749, 24424.466422136597, -2341.635804371334, 23.75990435599141, -0.09606640625, 0.986919921875, 0.249453125, 192.0, 0.0, 0.0, 0.0, 0.0, 0.0, 0.0, 0.0, 0.0, 0.0, 1.7068825820698416E9, 0.0, 2024-02-02 15:03:02.069
124.0, 59853.97068905481, 63212.588514398165, -31516.585530827706, -2592.3776736709683, 17555.8424062541, 8990.385710046972, 28565.797634815888, 4296.340560476847, 34892.07892323481, 46153.603035641085, 35700.58622367218, 44184.7272735509, 24589.288185750032, 24301.19655146558, -2334.438542656725, 47.69862266762527, -0.09606640625, 0.986919921875, 0.249453125, 192.0, 0.0, 0.0, 0.0, 0.0, 0.0, 0.0, 0.0, 0.0, 0.0, 1.7068825820780945E9, 0.0, 2024-02-02 15:03:02.078
126.0, 59836.312810935124, 63199.40098516953, -31545.66515036406, -2652.8167906781187, 17536.686961255906, 8958.176846286875, 28551.201945686575, 4279.375586435269, 34888.39088539969, 46167.170544525456, 35685.69996186495, 44172.97025596741, 24562.421388914754, 24338.143985050203, -2344.98856603963, 34.824017861368404, -0.10400000000000001, 0.99, 0.25, 192.0, 126.0, 96.0, 15.0, 120.0, 3.5, 104.0, 0.0, 0.0, 0.0, 1.706882582086874E9, 0.0, 2024-02-02 15:03:02.086
128.0, 59854.10479952155, 63208.40873818502, -31529.90717052307, -2648.704069698342, 17550.500339329283, 8985.043643122155, 28566.669352849647, 4286.774013849976, 34895.94577502558, 46123.249366670774, 35668.69028433446, 44156.631130770584, 24573.261984975576, 24349.58807821132, -2352.364641709881, 16.74145659702499, -0.10400000000000001, 0.99, 0.25, 192.0, 0.0, 0.0, 0.0, 0.0, 0.0, 0.0, 0.0, 0.0, 0.0, 1.7068825820931685E9, 0.0, 2024-02-02 15:03:02.093
130.0, 59849.522691908205, 63195.958816523416, -31514.305652893265, -2620.5408716846555, 17556.736476032314, 8983.926055899388, 28569.75389358448, 4291.222010996582, 34940.91748486966, 46137.576834866624, 35704.36366848513, 44183.16265143903, 24590.29401425052, 24344.491880475507, -2325.1849204522277, 51.96780585858892, -0.10400000000000001, 0.99, 0.25, 192.0, 0.0, 0.0, 0.0, 0.0, 0.0, 0.0, 0.0, 0.0, 0.0, 1.706882582102124E9, 0.0, 2024-02-02 15:03:02.102
132.0, 59850.1261890085, 63196.3164444347, -31526.53205711032, -2606.906307566918, 17545.918231715947, 8981.065032609109, 28558.399207401184, 4283.778880092965, 34937.408260990174, 46108.8324914971, 35691.310249723225, 44162.93432270698, 24584.460208947687, 24334.835926870815, -2336.3607926798813, 41.37307898677337, -0.10400000000000001, 0.99, 0.25, 192.0, 0.0, 0.0, 0.0, 0.0, 0.0, 0.0, 0.0, 0.0, 0.0, 1.706882582110154E9, 0.0, 2024-02-02 15:03:02.110
134.0, 59850.05913377513, 63197.54579037974, -31522.84401927519, -2618.260993750214, 17548.399275350486, 8971.744355171246, 28558.75683531247, 4282.996569037029, 34942.97384535955, 46062.76554617471, 35688.046895032756, 44165.61653204162, 24588.39411597182, 24329.069176801346, -2341.8146183269764, 35.449866706117, -0.10400000000000001, 0.99, 0.25, 192.0, 0.0, 0.0, 0.0, 0.0, 0.0, 0.0, 0.0, 0.0, 0.0, 1.706882582117915E9, 0.0, 2024-02-02 15:03:02.117
136.0, 59845.99111628427, 63194.684767089464, -31535.18218221452, -2642.4232295064007, 17546.499377071785, 8973.532494727671, 28556.566364355847, 4277.833316067853, 34940.58220870283, 46105.45737808435, 35687.48810142137, 44169.438680343475, 24572.680839619738, 24335.77470013794, -2339.333574692437, 35.673384150670074, -0.098, 0.99, 0.248, 192.0, 126.0, 120.0, 15.0, 120.0, 3.5, 96.0, 0.0, 0.0, 0.0, 1.7068825821260924E9, 0.0, 2024-02-02 15:03:02.126
138.0, 59854.46242743283, 63200.429165414476, -31533.77402231384, -2643.80903766263, 17550.27682188473, 8974.739488928257, 28564.47888189303, 4280.962560291596, 34941.72214767005, 46056.909389127424, 35678.189775727966, 44153.010148168825, 24572.882005319836, 24326.834002355816, -2340.2052927261943, 26.71033462409194, -0.098, 0.99, 0.248, 192.0, 0.0, 0.0, 0.0, 0.0, 0.0, 0.0, 0.0, 0.0, 0.0, 1.7068825821339066E9, 0.0, 2024-02-02 15:03:02.133
140.0, 59861.2797094917, 63208.744014351854, -31511.0870016917, -2613.321258225591, 17556.580013821127, 8988.329349557085, 28574.55951864237, 4287.511621417001, 34995.88042448526, 46043.3195284986, 35706.08475280819, 44181.26275316033, 24580.079267034445, 24354.39370326921, -2319.596984338401, 38.57911092985999, -0.098, 0.99, 0.248, 192.0, 0.0, 0.0, 0.0, 0.0, 0.0, 0.0, 0.0, 0.0, 0.0, 1.7068825821419568E9, 0.0, 2024-02-02 15:03:02.141
142.0, 59867.158218283446, 63212.63321788707, -31506.527245822817, -2610.8402145910522, 17565.833636025625, 8991.659759480925, 28580.572137900846, 4302.152014035227, 34983.45285456811, 46031.27193823719, 35708.07405806471, 44182.80502352775, 24598.63121493235, 24317.736842362505, -2317.048885470496, 50.42553549117273, -0.098, 0.99, 0.248, 192.0, 0.0, 0.0, 0.0, 0.0, 0.0, 0.0, 0.0, 0.0, 0.0, 1.7068825821489444E9, 0.0, 2024-02-02 15:03:02.148
144.0, 59856.742305367276, 63197.09875549064, -31523.559275097763, -2654.4931715122666, 17552.914327730457, 8980.461535508817, 28569.016286017453, 4295.0665110428945, 34978.08843589883, 46023.87351082248, 35697.43462770398, 44164.677758774495, 24587.053011304502, 24345.117729320256, -2325.766065808066, 36.0757155508656, -0.098, 0.99, 0.248, 192.0, 0.0, 0.0, 0.0, 0.0, 0.0, 0.0, 0.0, 0.0, 0.0, 1.7068825821580195E9, 0.0, 2024-02-02 15:03:02.158
146.0, 59853.56835765462, 63201.323235192685, -31532.90230428008, -2615.6011361600326, 17547.147577660988, 8968.950387114333, 28560.902602780177, 4285.857592327308, 34982.04469466743, 46002.34878091202, 35690.9749735564, 44173.52904957879, 24578.648755389306, 24341.317932762853, -2333.7456385786104, 27.738514869036063, -0.094, 0.994, 0.25, 192.0, 126.5, 8.0, 15.5, 8.0, 3.5, 104.0, 0.0, 0.0, 0.0, 1.7068825821659665E9, 0.0, 2024-02-02 15:03:02.165
148.0, 59849.32152620811, 63188.5156856198, -31546.827441075737, -2667.1442588739706, 17537.111644400557, 8960.72494515478, 28557.147509711685, 4279.956731791107, 34948.85235415129, 45963.56850428206, 35674.255868703825, 44147.757488221825, 24553.793615555005, 24315.211095239058, -2345.010917784085, 20.09421826532105, -0.094, 0.994, 0.25, 192.0, 0.0, 0.0, 0.0, 0.0, 0.0, 0.0, 0.0, 0.0, 0.0, 1.7068825821729896E9, 0.0, 2024-02-02 15:03:02.172
150.0, 59865.57124442712, 63207.827592829184, -31515.199722671478, -2612.1142640250046, 17562.95026099089, 8988.217590834807, 28572.41375117466, 4293.434833697657, 35006.45279961262, 46007.46733039228, 35697.7252003819, 44166.53295356428, 24594.362031741388, 24333.96420883706, -2331.1528362217946, 29.101971280809796, -0.094, 0.994, 0.25, 192.0, 0.0, 0.0, 0.0, 0.0, 0.0, 0.0, 0.0, 0.0, 0.0, 1.7068825821823175E9, 0.0, 2024-02-02 15:03:02.182
152.0, 59865.77241012722, 63204.76540383881, -31519.75947854036, -2632.6555171794316, 17555.37301962054, 8979.992148875255, 28564.03184700392, 4287.176345250171, 35007.391572879744, 45983.19333591382, 35697.926366082, 44170.80213675525, 24564.880080804836, 24330.43263321312, -2324.044981485007, 38.02031731847731, -0.094, 0.994, 0.25, 192.0, 0.0, 0.0, 0.0, 0.0, 0.0, 0.0, 0.0, 0.0, 0.0, 1.7068825821900313E9, 0.0, 2024-02-02 15:03:02.190
154.0, 59873.05907881965, 63210.57685739719, -31515.177370927024, -2630.9567846008285, 17557.80935976617, 8986.58591348957, 28565.8423383048, 4297.547554677433, 35010.49846535903, 45970.654007274396, 35704.07309580721, 44173.30553213424, 24595.479618964153, 24333.226601270035, -2322.770932051055, 35.42751496166169, -0.094, 0.994, 0.25, 192.0, 0.0, 0.0, 0.0, 0.0, 0.0, 0.0, 0.0, 0.0, 0.0, 1.7068825821980984E9, 0.0, 2024-02-02 15:03:02.198
156.0, 59875.36130849854, 63217.975284811895, -31509.500027835376, -2627.1569880434263, 17567.465313370863, 8992.933808914877, 28576.861748321266, 4299.2909907449475, 35016.30991891741, 45984.28857139213, 35705.727124896905, 44175.518354835316, 24588.9529095832, 24349.498671233498, -2313.0926267019067, 44.81524763289066, -0.098, 0.994, 0.25, 192.0, 126.0, 120.0, 15.5, 8.0, 3.5, 104.0, 0.0, 0.0, 0.0, 1.7068825822050583E9, 0.0, 2024-02-02 15:03:02.205
158.0, 59872.65674741945, 63210.88978181956, -31514.305652893265, -2613.3659617145017, 17567.085333715124, 8989.379881546483, 28579.186329744618, 4296.497022688034, 35013.09126771585, 45977.694806777814, 35704.00604057384, 44182.179174683, 24584.080229291943, 24356.405360270186, -2309.985734222619, 46.73749765604707, -0.098, 0.994, 0.25, 192.0, 0.0, 0.0, 0.0, 0.0, 0.0, 0.0, 0.0, 0.0, 0.0, 1.7068825822143552E9, 0.0, 2024-02-02 15:03:02.214
160.0, 59865.86181710504, 63204.45247941643, -31523.33575765321, -2636.0529823366383, 17557.04940045469, 8981.512067498215, 28566.244669704996, 4288.919781317685, 35013.53830260495, 45962.07093740356, 35698.55221492675, 44172.63497980058, 24577.53116816654, 24336.78052863843, -2313.986696480119, 45.575206944371104, -0.098, 0.994, 0.25, 192.0, 0.0, 0.0, 0.0, 0.0, 0.0, 0.0, 0.0, 0.0, 0.0, 1.7068825822220592E9, 0.0, 2024-02-02 15:03:02.222
162.0, 59866.84529386107, 63205.391252683556, -31522.91107450856, -2630.129770055982, 17560.648031311994, 8982.786116932168, 28577.487597166015, 4294.03833079795, 35010.476113614575, 45955.72304197825, 35692.83016834619, 44167.762299509326, 24571.205624485687, 24346.212964798568, -2324.3132024184706, 31.627718404259493, -0.098, 0.994, 0.25, 192.0, 0.0, 0.0, 0.0, 0.0, 0.0, 0.0, 0.0, 0.0, 0.0, 1.7068825822290905E9, 0.0, 2024-02-02 15:03:02.229
164.0, 59865.32537523811, 63205.79358408375, -31522.575798341728, -2633.706049168831, 17564.313717402663, 8977.0193668627, 28579.90158556719, 4296.765243621498, 35016.35462240632, 45938.75806793667, 35701.524996939304, 44175.98774146888, 24580.77217111256, 24343.083720574825, -2314.5231383470464, 41.26132026449684, -0.098, 0.994, 0.25, 192.0, 0.0, 0.0, 0.0, 0.0, 0.0, 0.0, 0.0, 0.0, 0.0, 1.706882582237141E9, 0.0, 2024-02-02 15:03:02.237
166.0, 59857.61402340103, 63198.57397062469, -31529.86246703416, -2638.1540463154374, 17553.875452742035, 8984.820125677601, 28568.211623217063, 4289.769147606987, 35008.375049635775, 45941.17205633784, 35686.214051987416, 44161.9731976954, 24567.62934537284, 24343.15077580819, -2325.8778245303424, 27.894977080223214, -0.1, 0.994, 0.252, 192.0, 126.0, 112.0, 15.5, 8.0, 3.5, 112.0, 0.0, 0.0, 0.0, 1.7068825822462654E9, 0.0, 2024-02-02 15:03:02.246
168.0, 59874.914273609436, 63213.50493592083, -31511.265815647344, -2618.417455961401, 17574.439057640917, 9005.629599765492, 28585.109542025275, 4306.689418159654, 35018.50038987403, 45939.80859992607, 35697.03229630378, 44171.15976466653, 24585.1531130258, 24340.803842640384, -2311.4833011011247, 48.7268029125694, -0.1, 0.994, 0.252, 192.0, 0.0, 0.0, 0.0, 0.0, 0.0, 0.0, 0.0, 0.0, 0.0, 1.7068825822530801E9, 0.0, 2024-02-02 15:03:02.253
170.0, 59864.56541592663, 63206.911171306514, -31520.60884482966, -2639.584557960577, 17562.212653423867, 8986.027119878188, 28572.592565130304, 4288.763319106498, 35028.022233011994, 45947.7434692077, 35703.8272266182, 44175.56305832423, 24590.04814506151, 24354.147834080202, -2305.627144053834, 50.44788723562804, -0.1, 0.994, 0.252, 192.0, 0.0, 0.0, 0.0, 0.0, 0.0, 0.0, 0.0, 0.0, 0.0, 1.7068825822611246E9, 0.0, 2024-02-02 15:03:02.261
172.0, 59856.295270478164, 63199.69155784745, -31527.828458288728, -2632.879034623985, 17556.0435719542, 8981.869695409501, 28564.83650980431, 4281.163725991693, 35017.58396835136, 45935.56176847956, 35694.64065964707, 44167.047043686754, 24577.084133277433, 24351.845604401304, -2318.434693626725, 37.48387545154994, -0.1, 0.994, 0.252, 192.0, 0.0, 0.0, 0.0, 0.0, 0.0, 0.0, 0.0, 0.0, 0.0, 1.706882582270418E9, 0.0, 2024-02-02 15:03:02.270
174.0, 59859.91625307992, 63199.82566831418, -31526.800278043782, -2691.708826030353, 17558.72578128884, 8963.809485889613, 28565.305896437872, 4279.621455624278, 34981.664715011684, 45919.42380898283, 35685.47644442039, 44156.25115111484, 24569.082208762433, 24348.62695319974, -2324.693182074211, 24.3634014562847, -0.1, 0.994, 0.252, 192.0, 0.0, 0.0, 0.0, 0.0, 0.0, 0.0, 0.0, 0.0, 0.0, 1.70688258227859E9, 0.0, 2024-02-02 15:03:02.278
176.0, 59854.23890998828, 63201.524400892784, -31530.86829553465, -2590.0083887587057, 17547.37109510554, 8995.459556038328, 28554.55470735487, 4281.342539947336, 35037.54407614995, 45955.0971931335, 35694.327735224695, 44164.70011051895, 24569.28337446253, 24385.12735189526, -2326.749542564099, 21.927061310656228, -0.10200000000000001, 0.99, 0.252, 192.0, 126.0, 104.0, 15.0, 120.0, 3.5, 112.0, 0.0, 0.0, 0.0, 1.7068825822851703E9, 0.0, 2024-02-02 15:03:02.285
178.0, 59855.89293907797, 63197.32227293519, -31520.18416168501, -2615.511729182211, 17562.547929590695, 8989.335178057574, 28572.771379085945, 4293.412481953202, 35011.28077641497, 45958.71817573526, 35687.15282525454, 44178.55819208124, 24572.367915197363, 24337.20521178308, -2326.2578041860825, 42.602424931815264, -0.10200000000000001, 0.99, 0.252, 192.0, 0.0, 0.0, 0.0, 0.0, 0.0, 0.0, 0.0, 0.0, 0.0, 1.706882582293167E9, 0.0, 2024-02-02 15:03:02.293
180.0, 59857.83754084558, 63200.29505494775, -31513.65745230406, -2605.386388943957, 17562.346763890597, 8991.011558891722, 28570.312687195863, 4297.391092466247, 35016.332270661864, 45970.43048982984, 35689.14213051106, 44172.098537933656, 24572.457322175185, 24338.85924087277, -2318.434693626725, 41.37307898677337, -0.10200000000000001, 0.99, 0.252, 192.0, 0.0, 0.0, 0.0, 0.0, 0.0, 0.0, 0.0, 0.0, 0.0, 1.7068825823024333E9, 0.0, 2024-02-02 15:03:02.302
182.0, 59861.547930425164, 63203.33489219366, -31506.840170245192, -2617.098703038538, 17568.068810471155, 8995.794832205156, 28578.873405322243, 4302.844918113341, 35023.59658760984, 45984.22151615877, 35701.14501728356, 44177.17238392501, 24581.688592635226, 24346.458833987577, -2312.176205179239, 52.72776517006936, -0.10200000000000001, 0.99, 0.252, 192.0, 0.0, 0.0, 0.0, 0.0, 0.0, 0.0, 0.0, 0.0, 0.0, 1.7068825823092473E9, 0.0, 2024-02-02 15:03:02.309
184.0, 59858.485741434786, 63198.14928748004, -31514.61857731564, -2650.8274854215965, 17565.744229047803, 8990.54217225816, 28576.012382031964, 4296.385263965758, 34994.69578202913, 45956.23713210072, 35692.07020903471, 44152.160781879524, 24576.65945013278, 24375.337287823833, -2313.4949581021024, 36.410991717695204, -0.10200000000000001, 0.99, 0.252, 192.0, 0.0, 0.0, 0.0, 0.0, 0.0, 0.0, 0.0, 0.0, 0.0, 1.7068825823172684E9, 0.0, 2024-02-02 15:03:02.317
186.0, 59856.00469780025, 63199.579799125175, -31517.09962095018, -2618.6409734059544, 17560.96095573437, 8986.787079189668, 28587.188254259618, 4296.742891877043, 35029.3186341904, 46009.18841471534, 35696.51820618132, 44180.83807001568, 24579.654583889795, 24361.903889406192, -2310.365713878359, 42.17774178716443, -0.1, 0.994, 0.244, 192.0, 126.0, 112.0, 15.5, 8.0, 3.5, 80.0, 0.0, 0.0, 0.0, 1.706882582326226E9, 0.0, 2024-02-02 15:03:02.326
188.0, 59851.1767209979, 63193.79069731125, -31524.319234409242, -2612.650705891932, 17560.290403400708, 8981.10973609802, 28580.28156522293, 4292.5407639194445, 35004.44114261164, 45983.26039114719, 35681.7213513519, 44170.198639654955, 24571.205624485687, 24360.518081249964, -2327.8671297868646, 26.55387241290479, -0.1, 0.994, 0.244, 192.0, 0.0, 0.0, 0.0, 0.0, 0.0, 0.0, 0.0, 0.0, 0.0, 1.7068825823343816E9, 0.0, 2024-02-02 15:03:02.334
190.0, 59851.556700653644, 63193.25425544432, -31517.792525028293, -2625.033572320172, 17565.0960284586, 8990.698634469347, 28574.045428519898, 4294.194793009137, 35036.58295113837, 45971.972760197255, 35690.751456111844, 44163.11313666262, 24584.504912436594, 24336.445252471596, -2325.5425483635127, 32.18651201564217, -0.1, 0.994, 0.244, 192.0, 0.0, 0.0, 0.0, 0.0, 0.0, 0.0, 0.0, 0.0, 0.0, 1.7068825823412523E9, 0.0, 2024-02-02 15:03:02.341
192.0, 59850.863796575526, 63190.639101343055, -31516.585530827706, -2620.13854028446, 17569.275804671743, 8987.859962923523, 28577.867576821754, 4296.787595365953, 34996.52862507446, 45972.77742299765, 35674.81466231521, 44160.65444477254, 24555.648810344795, 24325.559952921863, -2329.9011385322974, 27.02325904646624, -0.1, 0.994, 0.244, 192.0, 0.0, 0.0, 0.0, 0.0, 0.0, 0.0, 0.0, 0.0, 0.0, 1.7068825823492951E9, 0.0, 2024-02-02 15:03:02.349
194.0, 59855.200034999856, 63189.297996675734, -31511.981071469912, -2636.656479436932, 17564.85015926959, 8977.73462268527, 28573.911318053168, 4293.345426719836, 35057.95121883765, 45973.38092009794, 35702.79904637326, 44171.4279856, 24585.935424081734, 24337.518136205454, -2314.321972646949, 34.488741694538795, -0.1, 0.994, 0.244, 192.0, 0.0, 0.0, 0.0, 0.0, 0.0, 0.0, 0.0, 0.0, 0.0, 1.706882582358379E9, 0.0, 2024-02-02 15:03:02.358
196.0, 59846.41579942892, 63181.474886116375, -31534.086946736214, -2643.607871962532, 17542.23019388082, 8950.823122361078, 28552.833623031813, 4275.776955577964, 35034.77245983749, 45956.81827745656, 35682.7718833413, 44141.051964885235, 24572.90435706429, 24344.76010140897, -2331.0857809884287, 18.820168831368548, -0.10200000000000001, 0.998, 0.242, 192.0, 126.0, 104.0, 15.5, 24.0, 3.5, 72.0, 0.0, 0.0, 0.0, 1.7068825823652878E9, 0.0, 2024-02-02 15:03:02.365
198.0, 59864.073677548615, 63203.2678369603, -31503.889739977094, -2634.3766015024903, 17574.796685552203, 9004.914343942923, 28582.829664090834, 4303.8730983582855, 35044.89780007575, 45978.65593178939, 35695.53472942528, 44172.2773518893, 24595.39021198633, 24323.61535115425, -2327.464798386669, 30.75600037050252, -0.10200000000000001, 0.998, 0.242, 192.0, 0.0, 0.0, 0.0, 0.0, 0.0, 0.0, 0.0, 0.0, 0.0, 1.7068825823734174E9, 0.0, 2024-02-02 15:03:02.373
200.0, 59861.0785437916, 63204.7207003499, -31509.09769643518, -2602.6594761204096, 17566.437133125917, 8979.098079097043, 28577.66641112166, 4295.446490698635, 35013.91828226069, 45999.26424017719, 35695.177101514, 44170.958598966434, 24581.1521507683, 24373.97383141206, -2309.0022574665854, 35.22634926156393, -0.10200000000000001, 0.998, 0.242, 192.0, 0.0, 0.0, 0.0, 0.0, 0.0, 0.0, 0.0, 0.0, 0.0, 1.7068825823812983E9, 0.0, 2024-02-02 15:03:02.381
202.0, 59856.92111932291, 63199.4680404029, -31514.640929060097, -2622.843101363552, 17562.324412146143, 8992.151497858942, 28574.380704686726, 4297.681665144166, 35051.46921294561, 45979.75116726771, 35702.9778603289, 44177.21708741392, 24563.986011026624, 24319.927313319127, -2315.1936906807055, 41.52954119796052, -0.10200000000000001, 0.998, 0.242, 192.0, 0.0, 0.0, 0.0, 0.0, 0.0, 0.0, 0.0, 0.0, 0.0, 1.706882582389331E9, 0.0, 2024-02-02 15:03:02.389
204.0, 59868.29815725067, 63206.06180501721, -31505.767286511338, -2616.9198890828957, 17571.734496561825, 8992.129146114487, 28586.137722270218, 4307.114101304305, 35038.147573250244, 45965.80367872759, 35707.85054062016, 44160.69914826145, 24570.222147729655, 24343.53075546393, -2312.9361644907194, 37.10389579580973, -0.10200000000000001, 0.998, 0.242, 192.0, 0.0, 0.0, 0.0, 0.0, 0.0, 0.0, 0.0, 0.0, 0.0, 1.7068825823973389E9, 0.0, 2024-02-02 15:03:02.397
206.0, 59855.401200699955, 63192.27077868829, -31521.257045418864, -2651.721555199809, 17558.166987677454, 8987.25646582323, 28580.46037917857, 4300.341522734347, 35050.239867000564, 45987.12724293795, 35705.57066268571, 44169.50573557684, 24571.09386576341, 24352.87378464625, -2315.1042837028845, 48.01154708999957, -0.096, 0.992, 0.244, 192.0, 126.5, 0.0, 15.5, 0.0, 3.5, 80.0, 0.0, 0.0, 0.0, 1.7068825824055889E9, 0.0, 2024-02-02 15:03:02.405
208.0, 59851.690811120374, 63194.84122930065, -31518.038394217303, -2616.428150704879, 17567.308851159676, 8985.49067801126, 28582.98612630202, 4302.397883224236, 35037.02998602748, 45968.48588806223, 35698.41810446002, 44164.09661341865, 24573.887833820325, 24356.271249803456, -2319.3958186383034, 36.94743358462257, -0.096, 0.992, 0.244, 192.0, 0.0, 0.0, 0.0, 0.0, 0.0, 0.0, 0.0, 0.0, 0.0, 1.706882582414362E9, 0.0, 2024-02-02 15:03:02.414
210.0, 59856.49643617826, 63202.28436020427, -31511.779905769818, -2603.777063343175, 17567.75588604878, 8987.748204201247, 28581.51091116797, 4304.007208825017, 35043.13201226378, 45960.52866703614, 35706.06240106373, 44184.83903227318, 24590.159903783788, 24327.1916302671, -2312.2209086681496, 47.94449185663365, -0.096, 0.992, 0.244, 192.0, 0.0, 0.0, 0.0, 0.0, 0.0, 0.0, 0.0, 0.0, 0.0, 1.706882582421362E9, 0.0, 2024-02-02 15:03:02.421
212.0, 59854.909462321935, 63196.45055490143, -31522.46403961945, -2633.0802003240824, 17565.118380203054, 8990.788041447167, 28578.202852988587, 4301.414406468201, 35039.60043663984, 45974.52085906516, 35700.72033413891, 44170.73508152188, 24571.652659374795, 24333.47247045904, -2317.4288651262364, 45.06111682189904, -0.096, 0.992, 0.244, 192.0, 0.0, 0.0, 0.0, 0.0, 0.0, 0.0, 0.0, 0.0, 0.0, 1.7068825824295413E9, 0.0, 2024-02-02 15:03:02.429
214.0, 59851.333183209084, 63192.15901996601, -31523.693385564493, -2645.194845818859, 17560.893900501003, 8984.864829166512, 28573.93366979762, 4298.754548878021, 35011.43723862615, 45951.92324542085, 35690.7738078563, 44159.425098827494, 24565.10359824939, 24343.307238019377, -2322.9944494956076, 30.465427692583525, -0.096, 0.992, 0.244, 192.0, 0.0, 0.0, 0.0, 0.0, 0.0, 0.0, 0.0, 0.0, 0.0, 1.706882582437392E9, 0.0, 2024-02-02 15:03:02.437
216.0, 59848.2262907298, 63186.45932512991, -31526.040318732303, -2621.010258318217, 17553.80839750867, 8980.506238997727, 28566.043504004898, 4296.027636054473, 35032.917265047705, 45943.22841682773, 35691.06438053422, 44167.98581695388, 24570.691534363217, 24333.360711736765, -2328.917661776264, 34.75696262800248, -0.098, 0.99, 0.23800000000000002, 192.0, 126.0, 120.0, 15.0, 120.0, 3.5, 56.0, 0.0, 0.0, 0.0, 1.7068825824455545E9, 0.0, 2024-02-02 15:03:02.445
218.0, 59859.15629376844, 63196.98699676836, -31510.77407726933, -2615.9811158157727, 17572.270938428752, 8988.239942579263, 28576.61587913226, 4306.622362926289, 35050.86571584531, 45956.930036178834, 35699.64745040506, 44168.41050009853, 24586.71773513767, 24335.707644904574, -2325.0061064965853, 39.33907024134043, -0.098, 0.99, 0.23800000000000002, 192.0, 0.0, 0.0, 0.0, 0.0, 0.0, 0.0, 0.0, 0.0, 0.0, 1.706882582453416E9, 0.0, 2024-02-02 15:03:02.453
220.0, 59849.61209888603, 63189.253293186826, -31518.843057017693, -2636.298851525647, 17568.091162215613, 8979.433355263873, 28575.431236676126, 4301.436758212657, 35032.69374760315, 45958.42760305734, 35698.44045620447, 44171.20446815544, 24566.042371516513, 24357.902927148694, -2310.857452256376, 39.80845687490188, -0.098, 0.99, 0.23800000000000002, 192.0, 0.0, 0.0, 0.0, 0.0, 0.0, 0.0, 0.0, 0.0, 0.0, 1.7068825824617498E9, 0.0, 2024-02-02 15:03:02.461
222.0, 59839.19618596986, 63180.82668552717, -31532.030586246325, -2670.251151353258, 17547.773426505737, 8985.222457077796, 28559.785015557412, 4292.384301708258, 35023.46247714311, 45940.81442842656, 35682.302496707736, 44150.68556674547, 24563.0472377595, 24343.843679886304, -2326.1236937193507, 31.694773637625413, -0.098, 0.99, 0.23800000000000002, 192.0, 0.0, 0.0, 0.0, 0.0, 0.0, 0.0, 0.0, 0.0, 0.0, 1.7068825824704988E9, 0.0, 2024-02-02 15:03:02.470
224.0, 59849.120360508015, 63186.280511174264, -31520.1394581961, -2607.5768599005773, 17563.62081332455, 8973.510142983216, 28572.726675597034, 4302.129662290771, 35030.27975920198, 45948.16815235235, 35688.15865375503, 44153.16661038001, 24571.607955885884, 24327.504554689476, -2326.704839075189, 33.90759633870081, -0.098, 0.99, 0.23800000000000002, 192.0, 0.0, 0.0, 0.0, 0.0, 0.0, 0.0, 0.0, 0.0, 0.0, 1.7068825824769018E9, 0.0, 2024-02-02 15:03:02.476
226.0, 59845.74524709526, 63181.3631273941, -31525.928560010027, -2635.136560813971, 17555.752999276283, 8984.417794277406, 28558.734483568012, 4293.23366799756, 35030.90560804673, 45941.46262901576, 35687.756322354835, 44163.04608142925, 24569.23867097362, 24322.9895023095, -2326.2354524416273, 38.288538251941, -0.097, 0.99, 0.243, 192.0, 126.5, 0.0, 15.0, 120.0, 3.5, 96.0, 0.0, 0.0, 0.0, 1.7068825824858572E9, 0.0, 2024-02-02 15:03:02.485
228.0, 59852.6295843875, 63187.30869141921, -31516.250254660878, -2629.190996788859, 17568.0464587267, 8987.479983267784, 28571.765550585456, 4301.548516934934, 35029.922131290696, 45925.16820730784, 35691.042028789765, 44158.665139516015, 24577.754685611093, 24324.0400342989, -2324.8943477743087, 35.136942283742705, -0.097, 0.99, 0.243, 192.0, 0.0, 0.0, 0.0, 0.0, 0.0, 0.0, 0.0, 0.0, 0.0, 1.706882582493508E9, 0.0, 2024-02-02 15:03:02.493
230.0, 59845.9240610509, 63182.88304601706, -31524.185123942512, -2640.2104068053254, 17558.368153377553, 8974.9183028839, 28561.12612022473, 4291.534935418956, 35026.85994230032, 45934.06420160105, 35689.700924122444, 44160.94501745046, 24559.940345280214, 24345.58711595382, -2324.044981485007, 34.37698297226226, -0.097, 0.99, 0.243, 192.0, 0.0, 0.0, 0.0, 0.0, 0.0, 0.0, 0.0, 0.0, 0.0, 1.7068825825014896E9, 0.0, 2024-02-02 15:03:02.501
232.0, 59847.645145373965, 63186.66049083001, -31521.681728563515, -2630.0403630781607, 17563.352592391086, 8978.44987850784, 28572.525509896936, 4298.732197133565, 35026.54701787794, 45937.148742335885, 35687.44339793246, 44160.609741283624, 24578.71581062267, 24331.729034391527, -2325.766065808066, 36.52275043997174, -0.097, 0.99, 0.243, 192.0, 0.0, 0.0, 0.0, 0.0, 0.0, 0.0, 0.0, 0.0, 0.0, 1.7068825825097198E9, 0.0, 2024-02-02 15:03:02.509
234.0, 59851.60140414255, 63190.907322276515, -31521.05587971877, -2631.9179096124067, 17561.877377257035, 8982.473192509793, 28568.03280926142, 4296.899354088229, 35025.1165062328, 45933.81833241205, 35690.86321483412, 44162.97902619589, 24571.272679719055, 24328.443327956596, -2328.314164675971, 33.90759633870081, -0.097, 0.99, 0.243, 192.0, 0.0, 0.0, 0.0, 0.0, 0.0, 0.0, 0.0, 0.0, 0.0, 1.7068825825175393E9, 0.0, 2024-02-02 15:03:02.517
236.0, 59854.618889644014, 63196.62936885707, -31517.70311805047, -2630.6215084339988, 17564.269013913752, 8985.602436733538, 28577.934632055123, 4301.369702979291, 35029.02806151248, 45951.498562276196, 35696.004116058844, 44169.5280873213, 24574.62544138735, 24342.05554032988, -2322.9720977511524, 41.127209797765, -0.0995, 0.992, 0.2445, 192.0, 126.0, 104.0, 15.5, 8.0, 3.5, 88.0, 0.0, 0.0, 0.0, 1.7068825825255702E9, 0.0, 2024-02-02 15:03:02.525
238.0, 59856.33997396708, 63199.512743891806, -31515.602054071675, -2625.301793253636, 17560.670383056447, 8982.741413443258, 28566.445835405095, 4293.591295908845, 35028.268102201, 45952.86201868797, 35701.41323821703, 44174.71369203493, 24576.212415243677, 24340.602676940285, -2323.17326345125, 40.166084786186794, -0.0995, 0.992, 0.2445, 192.0, 0.0, 0.0, 0.0, 0.0, 0.0, 0.0, 0.0, 0.0, 0.0, 1.7068825825325837E9, 0.0, 2024-02-02 15:03:02.532
240.0, 59861.65968914744, 63199.17746772498, -31511.75755402536, -2621.1443687849487, 17561.22917666783, 8982.272026809696, 28561.059064991365, 4288.405691195213, 35027.374032422784, 45960.372204824955, 35704.69894465196, 44175.74187227987, 24579.408714700785, 24343.75427290848, -2323.307373917982, 38.95909058560021, -0.0995, 0.992, 0.2445, 192.0, 0.0, 0.0, 0.0, 0.0, 0.0, 0.0, 0.0, 0.0, 0.0, 1.7068825825417316E9, 0.0, 2024-02-02 15:03:02.541
242.0, 59855.98234605579, 63197.143458979546, -31517.70311805047, -2626.5087874542223, 17556.84823475459, 8976.035890106665, 28551.827794531324, 4280.761394591498, 35027.57519812288, 45976.71133002178, 35703.11197079563, 44177.485308347386, 24578.067610033468, 24347.039979343415, -2323.0391529845183, 40.613119675292936, -0.0995, 0.992, 0.2445, 192.0, 0.0, 0.0, 0.0, 0.0, 0.0, 0.0, 0.0, 0.0, 0.0, 1.706882582549574E9, 0.0, 2024-02-02 15:03:02.549
244.0, 59856.876415834005, 63202.19495322645, -31512.830437759214, -2619.6020984175325, 17568.33703140462, 8985.468326266806, 28576.459416921072, 4294.865345342797, 35023.14955272074, 45984.33327488104, 35700.474464949904, 44175.33954087967, 24575.921842565756, 24342.882554874726, -2323.240318684616, 35.58397717284885, -0.0995, 0.992, 0.2445, 192.0, 0.0, 0.0, 0.0, 0.0, 0.0, 0.0, 0.0, 0.0, 0.0, 1.7068825825576196E9, 0.0, 2024-02-02 15:03:02.557
246.0, 59843.375962182996, 63192.76251706631, -31527.649644333083, -2661.198694848859, 17555.06009519817, 8973.688956938859, 28558.868594034746, 4280.94020854714, 35017.89689277374, 46013.34583918403, 35691.37730495659, 44168.32109312071, 24580.77217111256, 24351.756197423485, -2324.760237307577, 33.617023660781825, -0.10175000000000001, 0.992, 0.24625, 192.0, 126.0, 96.0, 15.5, 0.0, 3.5, 96.0, 0.0, 0.0, 0.0, 1.706882582564901E9, 0.0, 2024-02-02 15:03:02.564
248.0, 59853.724819865805, 63205.34654919464, -31516.540827338795, -2604.2688017211917, 17561.318583645654, 8985.758898944725, 28563.98714351501, 4289.366816206792, 35010.11848570329, 46034.043554549644, 35684.470615919905, 44162.1743633955, 24569.641002373817, 24379.315898336878, -2338.41715316977, 9.566546626871423, -0.10175000000000001, 0.992, 0.24625, 192.0, 0.0, 0.0, 0.0, 0.0, 0.0, 0.0, 0.0, 0.0, 0.0, 1.7068825825736043E9, 0.0, 2024-02-02 15:03:02.573
250.0, 59861.547930425164, 63217.483546433876, -31505.85669348916, -2598.882031307463, 17569.029935482733, 8989.916323413412, 28567.89869879469, 4300.073301800883, 35028.6704336012, 46062.16204907442, 35711.2256540329, 44199.59118361368, 24593.937348596737, 24335.595886182295, -2316.4453883702026, 54.091221581843094, -0.10175000000000001, 0.992, 0.24625, 192.0, 0.0, 0.0, 0.0, 0.0, 0.0, 0.0, 0.0, 0.0, 0.0, 1.7068825825816524E9, 0.0, 2024-02-02 15:03:02.581
252.0, 59859.55862516864, 63216.45536618893, -31510.639966802595, -2611.2201942467923, 17570.214577938867, 8989.089308868564, 28575.386533187215, 4298.933362833663, 35035.55477089343, 46097.388398335985, 35707.91759585352, 44196.5289946233, 24594.429086974753, 24361.188633583624, -2321.921565761753, 45.48579996654987, -0.10175000000000001, 0.992, 0.24625, 192.0, 0.0, 0.0, 0.0, 0.0, 0.0, 0.0, 0.0, 0.0, 0.0, 1.7068825825888605E9, 0.0, 2024-02-02 15:03:02.588
254.0, 59838.86090980303, 63195.44472640094, -31535.718624081448, -2651.699203455353, 17545.068865426645, 8962.49073296675, 28549.994951485987, 4269.6078741083, 34991.454779083106, 46076.93655215938, 35690.46088343392, 44170.64567454406, 24574.916014065268, 24368.967040654068, -2334.1926734677168, 28.118494524776285, -0.10175000000000001, 0.992, 0.24625, 192.0, 0.0, 0.0, 0.0, 0.0, 0.0, 0.0, 0.0, 0.0, 0.0, 1.706882582597623E9, 0.0, 2024-02-02 15:03:02.597
0.0, 59849.65680237494, 63204.07249976069, -31523.76044079786, -2616.6293164049766, 17550.18741490691, 8980.34977678654, 28552.163070698152, 4274.726423588565, 35031.307939446924, 46110.77709326471, 35690.9749735564, 44179.94400023747, 24583.029697302547, 24340.46856647355, -2344.1839032392386, 20.00481128749982, -0.098875, 0.99, 0.24412499999999998, 192.0, 126.5, 0.0, 15.0, 112.0, 3.5, 72.0, 0.0, 0.0, 0.0, 1.7068825826057527E9, 0.0, 2024-02-02 15:03:02.605
2.0, 59860.09506703557, 63217.21532550041, -31506.326080122722, -2583.392272399935, 17571.600386095095, 8990.989207147266, 28567.786940072412, 4292.808984852909, 35032.09025050286, 46123.7858085377, 35703.290784751276, 44191.20927944294, 24591.67982240675, 24352.225584057043, -2327.4871501311245, 32.38767771573993, -0.098875, 0.99, 0.24412499999999998, 192.0, 0.0, 0.0, 0.0, 0.0, 0.0, 0.0, 0.0, 0.0, 0.0, 1.7068825826126416E9, 0.0, 2024-02-02 15:03:02.612
4.0, 59846.34874419555, 63205.92769455048, -31523.782792542315, -2616.003467560228, 17554.90363298698, 8966.469343479794, 28551.179593942117, 4277.6097986233, 35038.46049767262, 46121.930613747914, 35706.487084208384, 44191.76807305433, 24600.173485299765, 24353.164357324167, -2322.860339028876, 43.31768075438509, -0.098875, 0.99, 0.24412499999999998, 192.0, 0.0, 0.0, 0.0, 0.0, 0.0, 0.0, 0.0, 0.0, 0.0, 1.7068825826208901E9, 0.0, 2024-02-02 15:03:02.620
6.0, 59833.4741393893, 63197.29992119074, -31541.91005729557, -2639.4504474938453, 17553.495473086296, 8970.067974337098, 28561.886079536212, 4279.196772479627, 34998.60733730881, 46110.464168842336, 35678.167423983505, 44165.70593901944, 24567.785807584027, 24345.028322342438, -2342.1722462382613, 25.48098867905005, -0.098875, 0.99, 0.24412499999999998, 192.0, 0.0, 0.0, 0.0, 0.0, 0.0, 0.0, 0.0, 0.0, 0.0, 1.7068825826287513E9, 0.0, 2024-02-02 15:03:02.628
