%OpenBCI Raw EXG Data
%Number of channels = 16
%Sample Rate = 125 Hz
%Board = OpenBCI_GUI$BoardCytonSerialDaisy
Sample Index, EXG Channel 0, EXG Channel 1, EXG Channel 2, EXG Channel 3, EXG Channel 4, EXG Channel 5, EXG Channel 6, EXG Channel 7, EXG Channel 8, EXG Channel 9, EXG Channel 10, EXG Channel 11, EXG Channel 12, EXG Channel 13, EXG Channel 14, EXG Channel 15, Accel Channel 0, Accel Channel 1, Accel Channel 2, Other, Other, Other, Other, Other, Other, Other, Analog Channel 0, Analog Channel 1, Analog Channel 2, Timestamp, Other, Timestamp (Formatted)
252.0, 62980.86797963, 65528.25159171243, -18651.994306086817, -11225.6495625555, 16797.872400030185, 5576.939055554754, 23296.105658543787, 5027.667287310039, 41434.523932281016, 47064.81660185059, 37575.24938288324, 50462.594683479634, 23070.353039545185, 27502.547502821388, -9049.014335753243, -2942.2271778854347, 0.0, 0.0, 0.0, 192.0, 0.0, 0.0, 0.0, 0.0, 0.0, 0.0, 0.0, 0.0, 0.0, 1.7068833418017988E9, 0.0, 2024-02-02 15:15:41.801
254.0, 62985.60654945452, 65534.219507482, -18648.149806040503, -11220.50866133078, 16807.774222823886, 5583.309302724517, 23307.214475538072, 5034.462217624452, 41420.28587106298, 47047.15872373089, 37565.77224323419, 50454.54805547572, 23066.12855984313, 27493.91972946164, -9054.624623611526, -2950.0726401892475, 0.0, 0.0, 0.0, 192.0, 0.0, 0.0, 0.0, 0.0, 0.0, 0.0, 0.0, 0.0, 0.0, 1.706883341801826E9, 0.0, 2024-02-02 15:15:41.801
0.0, 31586.658249695094, 32789.047990923886, -11262.082906017651, -6139.443056517012, 8290.418480684577, 2691.775881263719, 11500.397205400135, 2437.882415995886, 20713.495697199785, 23530.17312647976, 18787.267063530333, 25233.37605397416, 11535.109464539226, 13757.34225003031, -4522.94254576475, -1470.2306950367326, -0.108, 0.972, 0.294, 192.0, 126.0, 80.0, 15.0, 48.0, 4.5, 24.0, 0.0, 0.0, 0.0, 1.7068833419081607E9, 0.0, 2024-02-02 15:15:41.908
2.0, 63162.69942077392, 65567.88123463168, -22536.638085441362, -12290.017281772767, 16567.023583295773, 5374.633416489771, 22987.897454249556, 4866.3770993205435, 41574.468204315686, 47238.22143533485, 37515.97255658777, 50454.481000242355, 22884.542987888217, 27522.753479808987, -9045.16983570693, -3490.917800774312, -0.108, 0.972, 0.294, 192.0, 0.0, 0.0, 0.0, 0.0, 0.0, 0.0, 0.0, 0.0, 0.0, 1.7068833419151447E9, 0.0, 2024-02-02 15:15:41.915
4.0, 63156.239766626335, 65563.76851365191, -22544.617658211908, -12297.706281865392, 16565.52601641727, 5370.766564699003, 22986.243425159864, 4863.62783475254, 41561.124212875875, 47234.73456319983, 37500.61690814697, 50442.321651258666, 22870.126112714544, 27505.743802278495, -9061.08427775911, -3504.530013147594, -0.108, 0.972, 0.294, 192.0, 0.0, 0.0, 0.0, 0.0, 0.0, 0.0, 0.0, 0.0, 0.0, 1.7068833419224563E9, 0.0, 2024-02-02 15:15:41.922
6.0, 63160.643060284034, 65564.19319679656, -22540.907268632327, -12294.130002752543, 16572.790333365243, 5371.750041455036, 22988.97033798341, 4866.622968509551, 41555.62568373987, 47219.60243220359, 37500.25928023568, 50438.56655819018, 22870.19316794791, 27504.179180166626, -9057.262129457251, -3503.9712195362117, -0.108, 0.972, 0.294, 192.0, 0.0, 0.0, 0.0, 0.0, 0.0, 0.0, 0.0, 0.0, 0.0, 1.7068833419311452E9, 0.0, 2024-02-02 15:15:41.931
8.0, 63163.6605457855, 65568.21651079852, -22537.152175563835, -12288.832639316635, 16576.94775783393, 5371.638282732759, 22999.520361366318, 4869.953378433393, 41561.392433809335, 47224.02807760573, 37511.27869025215, 50447.59666295012, 22879.96088027488, 27507.710755790566, -9045.750981062769, -3494.5834868649827, -0.112, 0.97, 0.296, 192.0, 126.0, 64.0, 15.0, 40.0, 4.5, 32.0, 0.0, 0.0, 0.0, 1.7068833419381857E9, 0.0, 2024-02-02 15:15:41.938
10.0, 63161.67124052897, 65564.90845261913, -22543.477719244685, -12292.453621918396, 16576.210150266907, 5366.475029763584, 22990.87023626211, 4862.465544040864, 41556.2068290957, 47226.86674915156, 37507.68005939484, 50443.59570069262, 22875.602290106093, 27497.764229507953, -9048.299079930674, -3503.1442049913653, -0.112, 0.97, 0.296, 192.0, 0.0, 0.0, 0.0, 0.0, 0.0, 0.0, 0.0, 0.0, 0.0, 1.7068833419463005E9, 0.0, 2024-02-02 15:15:41.946
12.0, 63161.31361261769, 65567.36714450922, -22544.327085533987, -12291.0007585288, 16577.4618479564, 5362.786991928458, 22995.251178175353, 4862.264378340767, 41554.955131406205, 47223.15635957198, 37510.89871059641, 50446.21085479389, 22879.11151398558, 27503.799200510886, -9044.923966517921, -3503.50183290265, -0.112, 0.97, 0.296, 192.0, 0.0, 0.0, 0.0, 0.0, 0.0, 0.0, 0.0, 0.0, 0.0, 1.7068833419541447E9, 0.0, 2024-02-02 15:15:41.954
14.0, 63159.90545271701, 65566.71894392002, -22552.12784434889, -12292.900656807502, 16570.689269386443, 5360.283596549463, 22989.573835083705, 4855.268282326256, 41552.295273816024, 47227.000859618296, 37504.39435295991, 50441.964023347384, 22877.0998569846, 27507.91192149066, -9051.338917176596, -3509.8720800724127, -0.112, 0.97, 0.296, 192.0, 0.0, 0.0, 0.0, 0.0, 0.0, 0.0, 0.0, 0.0, 0.0, 1.7068833419632127E9, 0.0, 2024-02-02 15:15:41.963
16.0, 63168.823798754674, 65575.86080740223, -22540.661399443317, -12280.830714801636, 16582.222769525382, 5374.454602534128, 23003.387213157086, 4868.098183643601, 41552.518791260576, 47225.88327239553, 37509.378791973446, 50445.42854373796, 22879.647955852506, 27507.576645323832, -9050.757771820758, -3506.2734492151085, -0.112, 0.97, 0.296, 192.0, 0.0, 0.0, 0.0, 0.0, 0.0, 0.0, 0.0, 0.0, 0.0, 1.706883341970186E9, 0.0, 2024-02-02 15:15:41.970
18.0, 63161.31361261769, 65568.79765615436, -22551.479643759685, -12289.52554339475, 16571.359821720103, 5365.625663474281, 22990.579663584194, 4861.660881240473, 41558.7102244747, 47229.66071720848, 37516.508998454694, 50450.68120368495, 22888.186322234433, 27512.91871224865, -9041.906481016455, -3494.8517077984466, -0.112, 0.974, 0.29, 192.0, 126.0, 64.0, 15.0, 56.0, 4.5, 8.0, 0.0, 0.0, 0.0, 1.7068833419782076E9, 0.0, 2024-02-02 15:15:41.978
20.0, 63162.02886844026, 65568.61884219872, -22554.675943216796, -12288.944398038913, 16572.65622289851, 5370.3642332988065, 22993.574797341204, 4864.320738830655, 41544.71803244568, 47225.57034797315, 37502.36034421448, 50439.48297971285, 22874.77527556125, 27500.2899766314, -9055.965728278843, -3507.1675189933208, -0.112, 0.974, 0.29, 192.0, 0.0, 0.0, 0.0, 0.0, 0.0, 0.0, 0.0, 0.0, 0.0, 1.7068833419872825E9, 0.0, 2024-02-02 15:15:41.987
22.0, 63166.0074789533, 65571.83749340028, -22557.067579873514, -12286.977444526845, 16575.830170611163, 5373.582884500371, 22994.111239208134, 4867.338224332121, 41547.199076080215, 47221.65879269347, 37506.85304485, 50440.62291868006, 22883.15717973199, 27505.92261623414, -9048.276728186218, -3498.7185595892147, -0.112, 0.974, 0.29, 192.0, 0.0, 0.0, 0.0, 0.0, 0.0, 0.0, 0.0, 0.0, 0.0, 1.7068833419932668E9, 0.0, 2024-02-02 15:15:41.993
24.0, 63155.56921429268, 65562.49446421796, -22570.098646890958, -12297.080433020645, 16563.000269293818, 5363.032861117466, 22971.06659067471, 4852.429610780431, 41540.35944227689, 47231.02417362025, 37499.94635581331, 50438.186578534434, 22876.295194184208, 27501.58637780981, -9058.26795795774, -3501.8254520685023, -0.112, 0.974, 0.29, 192.0, 0.0, 0.0, 0.0, 0.0, 0.0, 0.0, 0.0, 0.0, 0.0, 1.70688334200245E9, 0.0, 2024-02-02 15:15:42.002
26.0, 63153.46815031388, 65557.46532171551, -22569.89748119086, -12295.068776019667, 16572.90209208752, 5367.167933841698, 22994.826495030702, 4863.717241730362, 41528.73653516013, 47216.78611240222, 37493.866681321466, 50428.5529766742, 22870.640202837018, 27492.57862479432, -9064.593501638592, -3506.0499317705553, -0.112, 0.974, 0.29, 192.0, 0.0, 0.0, 0.0, 0.0, 0.0, 0.0, 0.0, 0.0, 0.0, 1.706883342010277E9, 0.0, 2024-02-02 15:15:42.010
28.0, 63151.50119680181, 65557.66648741561, -22572.98202192569, -12298.645055132516, 16570.353993219614, 5364.150448340231, 22989.819704272715, 4862.554951018686, 41531.77637240605, 47219.20010080339, 37497.3982569454, 50431.346944731114, 22878.262147696274, 27502.25693014347, -9057.195074223886, -3498.249172955653, -0.114, 0.972, 0.296, 192.0, 126.0, 56.0, 15.0, 48.0, 4.5, 32.0, 0.0, 0.0, 0.0, 1.706883342018288E9, 0.0, 2024-02-02 15:15:42.018
30.0, 63151.612955524084, 65558.26998451591, -22577.921757450316, -12300.634360389038, 16568.342336218637, 5363.614006473304, 22982.376573369096, 4858.464581783364, 41522.56745369047, 47217.21079554687, 37484.88128005043, 50423.14385451601, 22870.215519692367, 27495.86433122925, -9067.543931906692, -3512.8448620849686, -0.114, 0.972, 0.296, 192.0, 0.0, 0.0, 0.0, 0.0, 0.0, 0.0, 0.0, 0.0, 0.0, 1.7068833420264127E9, 0.0, 2024-02-02 15:15:42.026
32.0, 63156.21741488188, 65567.21068229803, -22570.99271666917, -12292.453621918396, 16581.261644513805, 5378.008529902521, 23002.537846867785, 4875.764831991772, 41524.6014624359, 47220.18357755942, 37494.11255051047, 50434.2526715103, 22880.67613609745, 27502.167523165648, -9054.199940466875, -3503.635943369382, -0.114, 0.972, 0.296, 192.0, 0.0, 0.0, 0.0, 0.0, 0.0, 0.0, 0.0, 0.0, 0.0, 1.7068833420342977E9, 0.0, 2024-02-02 15:15:42.034
34.0, 63149.71305724538, 65556.88417635967, -22578.726420250707, -12299.583828399638, 16575.919577588986, 5369.805439687424, 22996.905207265045, 4871.495648800808, 41526.434305481234, 47230.15245558649, 37493.24083247672, 50437.6054331786, 22883.33599368763, 27511.86818025925, -9049.617832853537, -3502.317190446519, -0.114, 0.972, 0.296, 192.0, 0.0, 0.0, 0.0, 0.0, 0.0, 0.0, 0.0, 0.0, 0.0, 1.706883342043336E9, 0.0, 2024-02-02 15:15:42.043
36.0, 63152.68583925794, 65559.20875778302, -22580.42515282931, -12299.270903977264, 16576.098391544627, 5372.085317621865, 22996.346413653664, 4870.623930767051, 41523.7520961466, 47216.80846414667, 37493.06201852107, 50429.71526738587, 22880.34085993062, 27509.185970924613, -9052.45650439936, -3506.6757806153037, -0.114, 0.972, 0.296, 192.0, 0.0, 0.0, 0.0, 0.0, 0.0, 0.0, 0.0, 0.0, 0.0, 1.706883342049348E9, 0.0, 2024-02-02 15:15:42.049
38.0, 63142.538147275234, 65548.7704931224, -22595.892559992382, -12312.145508783522, 16561.882682071053, 5356.908483136712, 22975.06755293221, 4851.982575891326, 41518.23121526614, 47214.752103656785, 37487.027047518146, 50425.02140105026, 22873.47887438284, 27505.386174367213, -9058.357364935562, -3511.8837370733904, -0.112, 0.97, 0.294, 192.0, 126.0, 64.0, 15.0, 40.0, 4.5, 24.0, 0.0, 0.0, 0.0, 1.7068833420585866E9, 0.0, 2024-02-02 15:15:42.058
40.0, 63140.01240015178, 65546.4235599546, -22596.47370534822, -12308.837450604136, 16563.156731505005, 5358.316643037396, 22982.667146047013, 4853.413087536465, 41504.44018893721, 47206.75017914178, 37473.03485548912, 50412.951459044394, 22861.364228888062, 27492.77979049442, -9075.635263399514, -3530.1674640378315, -0.112, 0.97, 0.294, 192.0, 0.0, 0.0, 0.0, 0.0, 0.0, 0.0, 0.0, 0.0, 0.0, 1.7068833420666323E9, 0.0, 2024-02-02 15:15:42.066
42.0, 63144.63921125403, 65549.99983906744, -22590.70695527875, -12301.953113311902, 16567.448266440424, 5357.199055814631, 22984.276471647798, 4854.4636195258645, 41508.038819794514, 47207.08545530862, 37485.551832384095, 50426.49661618431, 22875.71404882837, 27495.327889362325, -9060.883112059011, -3516.8458243424684, -0.112, 0.97, 0.294, 192.0, 0.0, 0.0, 0.0, 0.0, 0.0, 0.0, 0.0, 0.0, 0.0, 1.7068833420743833E9, 0.0, 2024-02-02 15:15:42.074
44.0, 63145.8015019657, 65553.12908329119, -22592.249225646166, -12300.075566777656, 16566.665955384487, 5358.070773848388, 22983.27064314731, 4853.167218347457, 41506.250680238096, 47221.36822001555, 37485.30596319508, 50430.47522669736, 22875.088199983624, 27495.953738207074, -9060.726649847824, -3516.8458243424684, -0.112, 0.97, 0.294, 192.0, 0.0, 0.0, 0.0, 0.0, 0.0, 0.0, 0.0, 0.0, 0.0, 1.7068833420825772E9, 0.0, 2024-02-02 15:15:42.082
46.0, 63146.0026676658, 65553.1737867801, -22595.736097781195, -12295.560514397683, 16567.492969929335, 5363.748116940036, 22985.572872826204, 4858.732802716828, 41503.099084269896, 47212.226356533334, 37488.70342835229, 50428.910604585486, 22874.730572072338, 27493.78561899491, -9058.960862035854, -3515.258850486142, -0.112, 0.97, 0.294, 192.0, 0.0, 0.0, 0.0, 0.0, 0.0, 0.0, 0.0, 0.0, 0.0, 1.7068833420904343E9, 0.0, 2024-02-02 15:15:42.090
48.0, 63158.11731316058, 65565.60135669725, -22584.917853464827, -12279.221389200853, 16577.8641793566, 5379.483745036572, 22994.826495030702, 4873.4849540573305, 41504.03785753702, 47219.088342081115, 37493.84432957701, 50437.33721224513, 22878.709182585382, 27505.87791274523, -9056.166893978942, -3501.9148590463233, -0.112, 0.974, 0.294, 192.0, 126.0, 64.0, 15.0, 56.0, 4.5, 24.0, 0.0, 0.0, 0.0, 1.7068833420985837E9, 0.0, 2024-02-02 15:15:42.098
50.0, 63144.773321720764, 65550.60333616774, -22602.061641462045, -12295.493459164318, 16563.447304182926, 5362.161143083709, 22980.521378579306, 4858.106953872079, 41511.23511925163, 47233.572272488156, 37500.99688780271, 50446.76964840527, 22885.90644429999, 27508.40365986868, -9052.098876488075, -3494.382321164885, -0.112, 0.974, 0.294, 192.0, 0.0, 0.0, 0.0, 0.0, 0.0, 0.0, 0.0, 0.0, 0.0, 1.7068833421054907E9, 0.0, 2024-02-02 15:15:42.105
52.0, 63153.02111542477, 65558.6276124272, -22595.154952425357, -12288.0503282607, 16572.209188009405, 5365.49155300755, 22989.529131594794, 4863.538427774719, 41491.9455637867, 47207.8454146201, 37486.66941960686, 50434.18561627694, 22872.160121459976, 27495.26083412896, -9064.302928960673, -3512.1743097513095, -0.112, 0.974, 0.294, 192.0, 0.0, 0.0, 0.0, 0.0, 0.0, 0.0, 0.0, 0.0, 0.0, 1.7068833421147437E9, 0.0, 2024-02-02 15:15:42.114
54.0, 63154.697496258916, 65560.34869675025, -22596.317243137033, -12291.850124818102, 16567.671783884976, 5360.373003527285, 22988.366840883118, 4862.353785318588, 41496.34885744439, 47223.73750492782, 37494.31371621057, 50439.46062796839, 22877.47983664034, 27502.25693014347, -9058.17855097992, -3508.1956992382648, -0.112, 0.974, 0.294, 192.0, 0.0, 0.0, 0.0, 0.0, 0.0, 0.0, 0.0, 0.0, 0.0, 1.7068833421224675E9, 0.0, 2024-02-02 15:15:42.122
56.0, 63164.21933939688, 65572.37393526721, -22591.176341912313, -12281.635377602028, 16574.57847292167, 5369.984253643067, 22992.837189774178, 4869.036956910724, 41500.1933574907, 47225.88327239553, 37506.54012042763, 50448.42367749497, 22884.0512495102, 27506.12378193424, -9047.963803763843, -3500.059664256533, -0.112, 0.974, 0.294, 192.0, 0.0, 0.0, 0.0, 0.0, 0.0, 0.0, 0.0, 0.0, 0.0, 1.7068833421304655E9, 0.0, 2024-02-02 15:15:42.130
58.0, 63158.38553409404, 65570.07170558831, -22598.70887979375, -12285.368118926064, 16572.790333365243, 5361.848218661335, 22996.435820631483, 4862.510247529775, 41497.82407257844, 47226.75499042928, 37504.50611168219, 50448.893064128526, 22887.11343850058, 27502.43574409911, -9046.823864796623, -3501.087844501477, -0.114, 0.972, 0.294, 192.0, 126.0, 56.0, 15.0, 48.0, 4.5, 24.0, 0.0, 0.0, 0.0, 1.7068833421374807E9, 0.0, 2024-02-02 15:15:42.137
60.0, 63157.04442942673, 65570.13876082168, -22602.463972862242, -12283.177647969444, 16573.32677523217, 5362.518770994994, 22991.69725080696, 4857.503456771786, 41494.560717887965, 47229.88423465303, 37500.88512908043, 50447.283738527745, 22887.0016797783, 27509.051860457883, -9046.510940374248, -3503.5241846471054, -0.114, 0.972, 0.294, 192.0, 0.0, 0.0, 0.0, 0.0, 0.0, 0.0, 0.0, 0.0, 0.0, 1.7068833421465452E9, 0.0, 2024-02-02 15:15:42.146
62.0, 63162.58766205164, 65577.24661555847, -22598.261844904646, -12274.348708909596, 16575.00315606632, 5370.028957131977, 22990.46790486192, 4860.476238784342, 41494.78423533252, 47223.93867062792, 37503.65674539289, 50451.754087418805, 22888.454543167896, 27510.3929651252, -9044.901614773467, -3501.4231206683066, -0.114, 0.972, 0.294, 192.0, 0.0, 0.0, 0.0, 0.0, 0.0, 0.0, 0.0, 0.0, 0.0, 1.7068833421545496E9, 0.0, 2024-02-02 15:15:42.154
64.0, 63160.48659807284, 65575.65964170214, -22600.47466760572, -12275.600406599095, 16577.23833051185, 5368.106707108821, 23000.101506722156, 4862.934930674426, 41496.035933022016, 47237.97556614585, 37506.24954774971, 50457.073802599174, 22892.63431938104, 27512.87400875974, -9044.11930371753, -3496.125757232399, -0.114, 0.972, 0.294, 192.0, 0.0, 0.0, 0.0, 0.0, 0.0, 0.0, 0.0, 0.0, 0.0, 1.706883342161562E9, 0.0, 2024-02-02 15:15:42.161
66.0, 63153.80342648071, 65564.43906598557, -22613.058699734058, -12288.318549194164, 16568.43174319646, 5357.8025529149245, 22982.957718724934, 4849.993270634803, 41485.41885440575, 47224.43040900593, 37498.78406510163, 50445.607357693596, 22887.04638326721, 27495.082020173315, -9051.584786365604, -3507.994533538167, -0.114, 0.972, 0.294, 192.0, 0.0, 0.0, 0.0, 0.0, 0.0, 0.0, 0.0, 0.0, 0.0, 1.706883342170834E9, 0.0, 2024-02-02 15:15:42.170
68.0, 63151.21062412389, 65568.01534509842, -22620.345368426486, -12288.743232338815, 16561.32388845967, 5358.7413261820475, 22975.40282909904, 4850.10502935708, 41488.01165676256, 47229.88423465303, 37496.437131933824, 50440.868787869076, 22886.755810589293, 27500.40173535368, -9059.787876580702, -3514.2977254745633, -0.116, 0.974, 0.294, 192.0, 126.0, 48.0, 15.0, 56.0, 4.5, 24.0, 0.0, 0.0, 0.0, 1.706883342178558E9, 0.0, 2024-02-02 15:15:42.178
70.0, 63144.72861823185, 65564.26025202993, -22624.793365573092, -12284.161124725477, 16560.407466937002, 5362.094087850343, 22973.88291047608, 4853.793067192205, 41472.119566454836, 47235.20394983339, 37486.55766088458, 50436.309032000194, 22875.24466219481, 27499.53001731992, -9068.482705173816, -3518.0304667985997, -0.116, 0.974, 0.294, 192.0, 0.0, 0.0, 0.0, 0.0, 0.0, 0.0, 0.0, 0.0, 0.0, 1.7068833421865542E9, 0.0, 2024-02-02 15:15:42.186
72.0, 63152.12704564656, 65562.00272583995, -22616.85849629146, -12275.890979277014, 16567.492969929335, 5368.084355364365, 22976.11808492161, 4860.945625417903, 41484.994171261096, 47223.78220841673, 37498.62760289045, 50443.75216290381, 22889.929758301947, 27510.795296525397, -9058.156199235464, -3504.7758823366025, -0.116, 0.974, 0.294, 192.0, 0.0, 0.0, 0.0, 0.0, 0.0, 0.0, 0.0, 0.0, 0.0, 1.706883342194677E9, 0.0, 2024-02-02 15:15:42.194
74.0, 63144.61685950957, 65551.94444083505, -22626.939133040803, -12287.983273027334, 16563.179083249463, 5360.238893060553, 22980.342564623665, 4858.241064338811, 41487.45286315118, 47225.68210669543, 37488.345800441006, 50433.515063943276, 22884.297118699207, 27504.559159822365, -9067.566283651147, -3515.594126652971, -0.116, 0.974, 0.294, 192.0, 0.0, 0.0, 0.0, 0.0, 0.0, 0.0, 0.0, 0.0, 0.0, 1.7068833422018485E9, 0.0, 2024-02-02 15:15:42.201
76.0, 63151.94823169091, 65560.1251793057, -22627.85555456347, -12285.971616026356, 16564.18491174995, 5363.837523917857, 22981.16957916851, 4862.979634163336, 41494.33720044341, 47221.56938571565, 37488.72578009675, 50429.29058424122, 22884.319470443665, 27500.312328375858, -9069.108554018565, -3521.7185046337254, -0.116, 0.974, 0.294, 192.0, 0.0, 0.0, 0.0, 0.0, 0.0, 0.0, 0.0, 0.0, 0.0, 1.706883342209581E9, 0.0, 2024-02-02 15:15:42.209
78.0, 63157.89379571603, 65564.86374913022, -22622.37937717192, -12277.790877555713, 16571.47158044238, 5369.4254600316835, 22999.006271243845, 4875.317797102666, 41510.18458726223, 47229.88423465303, 37493.19612898781, 50434.58794767713, 22883.67126985446, 27505.028546455927, -9061.8889405595, -3509.8497283279576, -0.116, 0.978, 0.298, 192.0, 126.0, 48.0, 15.0, 72.0, 4.5, 40.0, 0.0, 0.0, 0.0, 1.7068833422186155E9, 0.0, 2024-02-02 15:15:42.218
80.0, 63154.36222009209, 65558.76172289392, -22629.800156331083, -12284.876380548047, 16566.442437939935, 5360.998852372033, 22991.384326384585, 4870.556875533685, 41526.79193339252, 47234.84632192211, 37493.576108643545, 50434.74440988832, 22885.593519877617, 27501.944005721096, -9058.782048080213, -3506.9440015487676, -0.116, 0.978, 0.298, 192.0, 0.0, 0.0, 0.0, 0.0, 0.0, 0.0, 0.0, 0.0, 0.0, 1.706883342225612E9, 0.0, 2024-02-02 15:15:42.225
82.0, 63166.387458609046, 65569.19998755456, -22621.15003122688, -12278.528485122739, 16571.538635675744, 5362.138791339254, 22984.70115479245, 4869.148715633001, 41543.488686500634, 47229.61601371956, 37498.78406510163, 50435.99610757782, 22885.928796044445, 27498.166560908146, -9052.434152654905, -3505.31232420353, -0.116, 0.978, 0.298, 192.0, 0.0, 0.0, 0.0, 0.0, 0.0, 0.0, 0.0, 0.0, 0.0, 1.7068833422337132E9, 0.0, 2024-02-02 15:15:42.233
84.0, 63160.88892947304, 65563.12031306271, -22637.176232001333, -12291.33603469563, 16559.267527969783, 5345.710259164603, 22978.77794251179, 4856.028241637736, 41563.15822162131, 47242.8035429482, 37500.41574244687, 50439.43827622393, 22881.27963319774, 27498.92652021963, -9054.937548033899, -3509.8720800724127, -0.116, 0.978, 0.298, 192.0, 0.0, 0.0, 0.0, 0.0, 0.0, 0.0, 0.0, 0.0, 0.0, 1.706883342242654E9, 0.0, 2024-02-02 15:15:42.242
86.0, 63176.848075014124, 65579.54884523735, -22632.929400554825, -12280.33897642362, 16567.314155973694, 5358.942491882145, 22987.673936805004, 4861.3926603070095, 41572.300085103525, 47231.046525364705, 37494.559585399584, 50435.191444777425, 22870.349630159097, 27491.617499782744, -9062.179513237419, -3523.439588956784, -0.116, 0.978, 0.298, 192.0, 0.0, 0.0, 0.0, 0.0, 0.0, 0.0, 0.0, 0.0, 0.0, 1.7068833422508404E9, 0.0, 2024-02-02 15:15:42.250
88.0, 63177.630386070065, 65579.68295570409, -22635.365740700454, -12280.629549101539, 16566.733010617856, 5360.864741905301, 22986.243425159864, 4860.208017850879, 41602.81021628502, 47246.53628427223, 37510.94341408532, 50455.21860780938, 22882.061944253677, 27508.694232546597, -9050.668364842935, -3507.413388182329, -0.115, 0.979, 0.299, 192.0, 126.0, 56.0, 15.0, 80.0, 4.5, 48.0, 0.0, 0.0, 0.0, 1.7068833422577555E9, 0.0, 2024-02-02 15:15:42.257
90.0, 63176.62455756957, 65577.04544985837, -22638.38322620192, -12276.561531610672, 16569.638737397043, 5363.479896006572, 22992.993651985365, 4859.582169006129, 41608.8228355435, 47247.43035405044, 37504.841387849025, 50448.78130540625, 22877.99392676281, 27503.530979577423, -9056.03278351221, -3508.6650858718262, -0.115, 0.979, 0.299, 192.0, 0.0, 0.0, 0.0, 0.0, 0.0, 0.0, 0.0, 0.0, 0.0, 1.706883342265696E9, 0.0, 2024-02-02 15:15:42.265
92.0, 63182.12308670558, 65580.28645280439, -22640.305476225076, -12269.498380362795, 16566.397734451024, 5367.0785268638765, 22987.96450948292, 4857.659918982973, 41620.93748103827, 47240.88129292504, 37511.03282106314, 50453.89985488652, 22878.932700029934, 27514.572741338343, -9051.338917176596, -3500.4843474011836, -0.115, 0.979, 0.299, 192.0, 0.0, 0.0, 0.0, 0.0, 0.0, 0.0, 0.0, 0.0, 0.0, 1.706883342275016E9, 0.0, 2024-02-02 15:15:42.275
94.0, 63171.72952553386, 65570.09405733277, -22651.90603159738, -12277.52265662225, 16556.361801190593, 5357.891959892745, 22980.946061723957, 4849.702697956884, 41625.89956830735, 47245.17282786046, 37504.32729772655, 50451.86584614109, 22875.870511039557, 27509.118915691248, -9057.55270213517, -3501.289010201575, -0.115, 0.979, 0.299, 192.0, 0.0, 0.0, 0.0, 0.0, 0.0, 0.0, 0.0, 0.0, 0.0, 1.70688334228202E9, 0.0, 2024-02-02 15:15:42.282
96.0, 63179.08324945966, 65572.91037713413, -22649.00030481819, -12277.902636277991, 16562.352068704615, 5363.748116940036, 22983.561215825226, 4852.608424736074, 41625.161960740326, 47236.45564752289, 37500.88512908043, 50444.57917744866, 22868.919118513957, 27502.748668521486, -9061.486609159305, -3510.8108533395357, -0.115, 0.979, 0.299, 192.0, 0.0, 0.0, 0.0, 0.0, 0.0, 0.0, 0.0, 0.0, 0.0, 1.7068833422897415E9, 0.0, 2024-02-02 15:15:42.289
98.0, 63173.07063020118, 65567.90358637614, -22656.82341537755, -12287.424479415951, 16558.015830280285, 5360.0377273604545, 22975.961622710423, 4846.7746194332385, 41635.89079807887, 47242.69178422592, 37507.41183846138, 50448.80365715071, 22876.943394773414, 27510.728241292032, -9052.188283465897, -3503.3006672025526, -0.1145, 0.9755, 0.3015, 192.0, 126.0, 56.0, 15.0, 48.0, 4.5, 64.0, 0.0, 0.0, 0.0, 1.7068833422977493E9, 0.0, 2024-02-02 15:15:42.297
100.0, 63177.83155177016, 65571.65867944463, -22659.125645056447, -12288.184438727432, 16564.006097794307, 5358.495456993039, 22984.276471647798, 4845.902901399481, 41634.50498992264, 47239.51783651327, 37496.66064937838, 50438.56655819018, 22869.56731910316, 27502.614558054753, -9062.447734170883, -3516.868176086924, -0.1145, 0.9755, 0.3015, 192.0, 0.0, 0.0, 0.0, 0.0, 0.0, 0.0, 0.0, 0.0, 0.0, 1.706883342306779E9, 0.0, 2024-02-02 15:15:42.306
102.0, 63182.90539776152, 65572.53039747839, -22657.650429922396, -12284.51875263676, 16566.867121084586, 5359.836561660357, 22983.561215825226, 4847.400468277988, 41647.40194647336, 47238.69082196842, 37506.98715531673, 50447.909587372495, 22877.457484895884, 27501.318156876347, -9048.544949119681, -3512.4648824292285, -0.1145, 0.9755, 0.3015, 192.0, 0.0, 0.0, 0.0, 0.0, 0.0, 0.0, 0.0, 0.0, 0.0, 1.7068833423137362E9, 0.0, 2024-02-02 15:15:42.313
104.0, 63183.59830183963, 65572.84332190077, -22657.136339799923, -12284.071717747656, 16565.414257694993, 5357.53433198146, 22981.527207079795, 4845.634680466018, 41649.279493007605, 47243.74231621532, 37504.483759937735, 50445.830875138156, 22871.824845293148, 27505.654395300677, -9050.042515998188, -3511.079074272999, -0.1145, 0.9755, 0.3015, 192.0, 0.0, 0.0, 0.0, 0.0, 0.0, 0.0, 0.0, 0.0, 0.0, 1.7068833423217697E9, 0.0, 2024-02-02 15:15:42.321
106.0, 63186.66049083001, 65577.64894695865, -22654.297668254098, -12277.14267696651, 16567.783542607252, 5365.9609396411115, 22981.326041379696, 4849.009793878769, 41657.39317624488, 47235.87450216705, 37509.8034751181, 50446.70259317191, 22875.24466219481, 27502.21222665456, -9047.494417130281, -3509.2462312276643, -0.1145, 0.9755, 0.3015, 192.0, 0.0, 0.0, 0.0, 0.0, 0.0, 0.0, 0.0, 0.0, 0.0, 1.7068833423308291E9, 0.0, 2024-02-02 15:15:42.330
108.0, 63187.57691235268, 65579.37003128172, -22656.130511299434, -12275.1980751989, 16566.93417631795, 5363.122268095287, 22983.471808847407, 4851.513189257764, 41673.307618297054, 47242.46826678137, 37517.73834439973, 50454.8609798981, 22883.268938454265, 27515.39975588319, -9041.12416996052, -3501.1101962459325, -0.11325, 0.97275, 0.30074999999999996, 192.0, 126.0, 64.0, 15.0, 40.0, 4.5, 48.0, 0.0, 0.0, 0.0, 1.7068833423379612E9, 0.0, 2024-02-02 15:15:42.337
110.0, 63182.12308670558, 65571.65867944463, -22665.942927115313, -12278.707299078382, 16563.693173371932, 5358.003718615022, 22985.617576315115, 4847.95926188937, 41671.832403163, 47240.34485105811, 37507.81416986158, 50447.52960771676, 22873.38946740502, 27505.274415644937, -9047.136789218997, -3509.469748672217, -0.11325, 0.97275, 0.30074999999999996, 192.0, 0.0, 0.0, 0.0, 0.0, 0.0, 0.0, 0.0, 0.0, 0.0, 1.7068833423457947E9, 0.0, 2024-02-02 15:15:42.345
112.0, 63183.59830183963, 65572.73156317849, -22672.2014155628, -12280.294272934709, 16564.967222805884, 5358.428401759673, 22981.303689635242, 4848.272186311744, 41671.27360955162, 47227.91728114096, 37503.52263492616, 50442.880444870054, 22868.986173747322, 27505.587340067308, -9053.685850344402, -3519.8186063550243, -0.11325, 0.97275, 0.30074999999999996, 192.0, 0.0, 0.0, 0.0, 0.0, 0.0, 0.0, 0.0, 0.0, 0.0, 1.7068833423538048E9, 0.0, 2024-02-02 15:15:42.353
114.0, 63181.92192100548, 65574.72086843502, -22676.224729564754, -12282.730613080337, 16564.52018791678, 5359.724802938081, 22986.511646093328, 4852.071982869146, 41681.37659804543, 47252.3030343417, 37504.7519808712, 50452.20112230792, 22876.18343546193, 27514.326872149333, -9049.327260175618, -3515.616478397427, -0.11325, 0.97275, 0.30074999999999996, 192.0, 0.0, 0.0, 0.0, 0.0, 0.0, 0.0, 0.0, 0.0, 0.0, 1.706883342361824E9, 0.0, 2024-02-02 15:15:42.361
116.0, 63186.12404896308, 65578.94534813707, -22673.989555119224, -12276.069793232655, 16567.403562951513, 5364.306910551419, 22992.36780314062, 4859.179837605934, 41682.18126084581, 47240.3001475692, 37498.47114067926, 50441.6063954361, 22868.62854583604, 27501.496970831988, -9055.69750734538, -3521.3385249779853, -0.11325, 0.97275, 0.30074999999999996, 192.0, 0.0, 0.0, 0.0, 0.0, 0.0, 0.0, 0.0, 0.0, 0.0, 1.7068833423698552E9, 0.0, 2024-02-02 15:15:42.369
118.0, 63191.15319146552, 65583.30393830585, -22668.088694583024, -12265.542121594206, 16568.923481574475, 5369.090183864854, 22991.94311999597, 4861.929102173937, 41695.10056914098, 47248.39147906202, 37509.736419884735, 50453.02813685276, 22874.842330794614, 27513.63396807122, -9045.16983570693, -3506.7875393375803, -0.114625, 0.975375, 0.29837499999999995, 192.0, 126.0, 48.0, 15.0, 72.0, 4.5, 32.0, 0.0, 0.0, 0.0, 1.7068833423779948E9, 0.0, 2024-02-02 15:15:42.377
120.0, 63193.723642077886, 65583.75097319495, -22670.72620042875, -12263.32929889313, 16566.777714106764, 5370.520695509994, 22984.432933858985, 4857.078773627135, 41702.76721748915, 47254.91818844297, 37513.6032716755, 50454.771572920276, 22875.848159295103, 27518.77486929594, -9040.923004260421, -3500.417292167818, -0.114625, 0.975375, 0.29837499999999995, 192.0, 0.0, 0.0, 0.0, 0.0, 0.0, 0.0, 0.0, 0.0, 0.0, 1.7068833423868625E9, 0.0, 2024-02-02 15:15:42.386
122.0, 63186.8169530412, 65574.25148180145, -22679.130456343944, -12276.069793232655, 16559.491045414336, 5361.758811683513, 22980.990765212868, 4849.5909392346075, 41702.87897621143, 47242.17769410345, 37513.022126319665, 50450.860017640596, 22873.52357787175, 27514.3939273827, -9044.432228139905, -3508.3298097049965, -0.114625, 0.975375, 0.29837499999999995, 192.0, 0.0, 0.0, 0.0, 0.0, 0.0, 0.0, 0.0, 0.0, 0.0, 1.7068833423938668E9, 0.0, 2024-02-02 15:15:42.393
124.0, 63190.92967402097, 65577.67129870312, -22680.762133689183, -12276.069793232655, 16560.42981868146, 5360.529465738472, 22980.83430300168, 4847.892206656004, 41701.62727852193, 47243.92113017096, 37502.78502735913, 50439.84060762413, 22865.923984756948, 27506.839037756807, -9052.523559632726, -3519.3268679770076, -0.114625, 0.975375, 0.29837499999999995, 192.0, 0.0, 0.0, 0.0, 0.0, 0.0, 0.0, 0.0, 0.0, 0.0, 1.7068833424018855E9, 0.0, 2024-02-02 15:15:42.401
126.0, 63193.567179866695, 65584.5779877398, -22676.291784798123, -12266.413839627963, 16566.397734451024, 5368.129058853276, 22986.064611204223, 4852.72018345835, 41717.07233394055, 47245.28458658273, 37515.3020042541, 50451.39645950752, 22873.47887438284, 27511.532904092423, -9046.153312462964, -3514.1412632633765, -0.114625, 0.975375, 0.29837499999999995, 192.0, 0.0, 0.0, 0.0, 0.0, 0.0, 0.0, 0.0, 0.0, 0.0, 1.7068833424098809E9, 0.0, 2024-02-02 15:15:42.409
128.0, 63187.80042979723, 65578.05127835885, -22679.19751157731, -12269.073697218144, 16564.542539661234, 5360.3283000383735, 22990.713774050924, 4851.826113680138, 41719.77689501964, 47245.373993560555, 37517.53717869963, 50453.89985488652, 22877.14456047351, 27513.611616326765, -9041.973536249821, -3508.6874376162814, -0.11631250000000001, 0.9736875, 0.29818749999999994, 192.0, 126.0, 40.0, 15.0, 48.0, 4.5, 40.0, 0.0, 0.0, 0.0, 1.706883342417903E9, 0.0, 2024-02-02 15:15:42.417
130.0, 63188.336871664156, 65579.3253277928, -22682.34910754551, -12264.625700071538, 16569.03524029675, 5365.312739051908, 22989.39502112806, 4853.189570091912, 41718.99458396371, 47248.950272673406, 37514.16206528689, 50451.485866485345, 22874.060019738678, 27507.241369157004, -9042.912309516943, -3507.994533538167, -0.11631250000000001, 0.9736875, 0.29818749999999994, 192.0, 0.0, 0.0, 0.0, 0.0, 0.0, 0.0, 0.0, 0.0, 0.0, 1.70688334242591E9, 0.0, 2024-02-02 15:15:42.425
132.0, 63188.42627864198, 65578.58772022578, -22681.477389511754, -12262.56933958165, 16573.12560953207, 5366.005643130022, 22989.573835083705, 4854.910654414971, 41716.513540329164, 47236.008612633785, 37512.5527396861, 50448.71425017289, 22871.131941215033, 27508.4930668465, -9041.392390893983, -3507.6369056268823, -0.11631250000000001, 0.9736875, 0.29818749999999994, 192.0, 0.0, 0.0, 0.0, 0.0, 0.0, 0.0, 0.0, 0.0, 0.0, 1.7068833424342148E9, 0.0, 2024-02-02 15:15:42.434
134.0, 63183.084211717156, 65572.23982480048, -22689.54636926012, -12270.347746652096, 16567.872949585075, 5359.255416304519, 22984.142361181064, 4848.33924154511, 41722.615566565466, 47245.10577262709, 37516.1066670545, 50452.33523277465, 22876.742229073316, 27516.696157061597, -9034.97744023531, -3504.93234454779, -0.11631250000000001, 0.9736875, 0.29818749999999994, 192.0, 0.0, 0.0, 0.0, 0.0, 0.0, 0.0, 0.0, 0.0, 0.0, 1.7068833424429214E9, 0.0, 2024-02-02 15:15:42.442
136.0, 63186.25815942981, 65573.33506027878, -22689.54636926012, -12263.865740760059, 16567.783542607252, 5365.335090796362, 22970.59720404115, 4846.10406709958, 41715.30654612858, 47232.20881607638, 37509.95993732929, 50447.82018039467, 22868.405028391484, 27509.029508713425, -9043.69462057288, -3515.996458053167, -0.11631250000000001, 0.9736875, 0.29818749999999994, 192.0, 0.0, 0.0, 0.0, 0.0, 0.0, 0.0, 0.0, 0.0, 0.0, 1.7068833424499197E9, 0.0, 2024-02-02 15:15:42.449
138.0, 63186.63813908555, 65573.46917074552, -22691.133343116446, -12261.272938403243, 16569.392868208037, 5363.591654728849, 22986.1763699265, 4850.797933435194, 41721.58738632052, 47234.600452733095, 37517.24660602172, 50454.41394500899, 22873.009487749277, 27516.606750083778, -9040.632431582502, -3507.2569259711418, -0.11415625000000001, 0.97184375, 0.29609374999999993, 192.0, 126.0, 64.0, 15.0, 40.0, 4.5, 24.0, 0.0, 0.0, 0.0, 1.7068833424581585E9, 0.0, 2024-02-02 15:15:42.458
140.0, 63182.48071461687, 65568.21651079852, -22701.63866301044, -12266.838522772614, 16559.289879714237, 5357.891959892745, 22982.30951813573, 4845.6570322104735, 41711.75261876018, 47229.995993375305, 37509.28938499563, 50445.00386059331, 22860.492510854307, 27509.811819769362, -9050.400143909472, -3515.281202230597, -0.11415625000000001, 0.97184375, 0.29609374999999993, 192.0, 0.0, 0.0, 0.0, 0.0, 0.0, 0.0, 0.0, 0.0, 0.0, 1.7068833424660666E9, 0.0, 2024-02-02 15:15:42.466
142.0, 63193.1648484665, 65579.23592081499, -22695.44722979632, -12260.200054669387, 16567.157693762507, 5367.525561752983, 22988.97033798341, 4852.966052647359, 41711.350287359994, 47228.23020556333, 37518.09597231102, 50450.68120368495, 22867.53331035773, 27514.796258782895, -9045.795684551678, -3509.9838387946893, -0.11415625000000001, 0.97184375, 0.29609374999999993, 192.0, 0.0, 0.0, 0.0, 0.0, 0.0, 0.0, 0.0, 0.0, 0.0, 1.7068833424740024E9, 0.0, 2024-02-02 15:15:42.474
144.0, 63186.928711763474, 65572.66450794513, -22698.978805420258, -12263.105781448578, 16568.275280985272, 5362.6752332061815, 22991.674899062506, 4852.161389846968, 41711.73026701573, 47240.21074059138, 37516.5537019436, 50452.20112230792, 22868.96382200287, 27519.31131116287, -9042.666440327936, -3505.6252486259045, -0.11415625000000001, 0.97184375, 0.29609374999999993, 192.0, 0.0, 0.0, 0.0, 0.0, 0.0, 0.0, 0.0, 0.0, 0.0, 1.7068833424820073E9, 0.0, 2024-02-02 15:15:42.482
146.0, 63187.59926409713, 65573.06683934532, -22699.224674609268, -12259.127170935533, 16571.985670564853, 5368.0173001309995, 22987.718640293915, 4851.870817169049, 41704.82357797904, 47232.365278287565, 37513.357402486494, 50447.06022108319, 22868.159159202478, 27517.97020649555, -9042.957013005855, -3505.9158213038236, -0.11415625000000001, 0.97184375, 0.29609374999999993, 192.0, 0.0, 0.0, 0.0, 0.0, 0.0, 0.0, 0.0, 0.0, 0.0, 1.706883342490189E9, 0.0, 2024-02-02 15:15:42.490
148.0, 63181.85486577212, 65568.01534509842, -22704.812610723093, -12260.647089558493, 16566.33067921766, 5365.558608240915, 22979.18027391199, 4849.479180512331, 41703.81774947855, 47237.193255089915, 37513.089181553034, 50452.31288103019, 22870.215519692367, 27519.333662907324, -9044.02989673971, -3503.5912398804717, -0.118078125, 0.9749218749999999, 0.29504687499999993, 192.0, 126.0, 24.0, 15.0, 72.0, 4.5, 24.0, 0.0, 0.0, 0.0, 1.706883342499273E9, 0.0, 2024-02-02 15:15:42.499
150.0, 63179.373822137575, 65561.53333920638, -22711.473430570775, -12262.703450048382, 16563.112028016094, 5364.999814629533, 22973.681744775982, 4847.467523511354, 41692.39600806189, 47234.51104575527, 37501.66744013637, 50440.779380891254, 22861.654801565983, 27518.752517551486, -9053.574091622126, -3512.93426906279, -0.118078125, 0.9749218749999999, 0.29504687499999993, 192.0, 0.0, 0.0, 0.0, 0.0, 0.0, 0.0, 0.0, 0.0, 0.0, 1.706883342505066E9, 0.0, 2024-02-02 15:15:42.505
152.0, 63181.69840356093, 65561.24276652846, -22711.093450915036, -12265.408011127474, 16566.822417595675, 5364.843352418346, 22976.78863725527, 4850.037974123714, 41697.782778475615, 47231.69472595391, 37508.48472219524, 50446.92611061646, 22866.23690917932, 27519.534828607422, -9048.12026597503, -3508.1062922604433, -0.118078125, 0.9749218749999999, 0.29504687499999993, 192.0, 0.0, 0.0, 0.0, 0.0, 0.0, 0.0, 0.0, 0.0, 0.0, 1.706883342514372E9, 0.0, 2024-02-02 15:15:42.514
154.0, 63175.88695000255, 65555.14074029216, -22721.330549875565, -12277.0979734776, 16557.4570366689, 5352.907520879212, 22973.39117209806, 4842.125456586535, 41695.122920885435, 47235.29335681121, 37499.27580347965, 50439.63944192403, 22863.06296146667, 27511.085869203314, -9054.803437567167, -3517.9410598207787, -0.118078125, 0.9749218749999999, 0.29504687499999993, 192.0, 0.0, 0.0, 0.0, 0.0, 0.0, 0.0, 0.0, 0.0, 0.0, 1.706883342522077E9, 0.0, 2024-02-02 15:15:42.522
156.0, 63177.80920002571, 65558.09117056026, -22719.989445208248, -12271.532389108228, 16563.179083249463, 5356.439096503151, 22980.499026834852, 4849.859160168071, 41689.0879498825, 47222.35169677159, 37493.33023945454, 50431.95044183141, 22854.90457474048, 27500.58054930932, -9059.832580069611, -3526.635888413893, -0.118078125, 0.9749218749999999, 0.29504687499999993, 192.0, 0.0, 0.0, 0.0, 0.0, 0.0, 0.0, 0.0, 0.0, 0.0, 1.7068833425300608E9, 0.0, 2024-02-02 15:15:42.530
158.0, 63178.56915933719, 65558.13587404917, -22719.318892874588, -12266.883226261525, 16562.933214060453, 5359.166009326698, 22981.39309661306, 4854.575378248141, 41700.085008154514, 47232.96877538786, 37503.589690159526, 50443.79686639272, 22864.202900433887, 27510.884703503216, -9049.908405531456, -3513.69422837427, -0.11703906250000001, 0.9774609375, 0.2945234375, 192.0, 126.0, 48.0, 15.0, 80.0, 4.5, 24.0, 0.0, 0.0, 0.0, 1.7068833425370994E9, 0.0, 2024-02-02 15:15:42.537
160.0, 63187.73337456386, 65567.36714450922, -22716.793145751137, -12262.94931923739, 16565.70483037291, 5366.005643130022, 22977.68270703348, 4856.497628271298, 41699.50386279868, 47238.91433941297, 37502.740323870225, 50446.63553793854, 22860.447807365395, 27509.58830232481, -9055.094010245086, -3514.40948419684, -0.11703906250000001, 0.9774609375, 0.2945234375, 192.0, 0.0, 0.0, 0.0, 0.0, 0.0, 0.0, 0.0, 0.0, 0.0, 1.7068833425461068E9, 0.0, 2024-02-02 15:15:42.546
162.0, 63185.22997918487, 65565.28843227487, -22722.671654542883, -12265.0950867051, 16562.03914428224, 5359.836561660357, 22968.31732610671, 4851.669651468951, 41701.694333755295, 47233.88519691053, 37511.345745485516, 50452.51404673029, 22861.0960079546, 27517.21024718407, -9052.300042188173, -3514.476539430206, -0.11703906250000001, 0.9774609375, 0.2945234375, 192.0, 0.0, 0.0, 0.0, 0.0, 0.0, 0.0, 0.0, 0.0, 0.0, 1.706883342554078E9, 0.0, 2024-02-02 15:15:42.554
164.0, 63180.781982038265, 65563.25442352945, -22725.957360977813, -12268.29138616221, 16564.09550477213, 5358.115477337298, 22979.426143100995, 4852.183741591423, 41697.00046741968, 47243.004708648295, 37502.8520825925, 50447.641366439035, 22856.066865452154, 27518.484296618022, -9056.502170145772, -3517.0469900425664, -0.11703906250000001, 0.9774609375, 0.2945234375, 192.0, 0.0, 0.0, 0.0, 0.0, 0.0, 0.0, 0.0, 0.0, 0.0, 1.7068833425611472E9, 0.0, 2024-02-02 15:15:42.561
166.0, 63182.681880316966, 65563.32147876281, -22724.30333188812, -12264.916272749457, 16569.526978674767, 5368.509038509016, 22994.60297758615, 4863.091392885613, 41694.497072040685, 47236.72386845635, 37503.74615237071, 50443.573348948164, 22856.84917650809, 27515.57856983883, -9047.7849898082, -3513.8506905854574, -0.11703906250000001, 0.9774609375, 0.2945234375, 192.0, 0.0, 0.0, 0.0, 0.0, 0.0, 0.0, 0.0, 0.0, 0.0, 1.706883342570389E9, 0.0, 2024-02-02 15:15:42.570
168.0, 63181.00549948282, 65563.16501655162, -22730.181840679867, -12266.905578005979, 16562.150903004516, 5363.904579151223, 22985.662279804026, 4854.664785225962, 41696.039342408105, 47238.91433941297, 37508.30590823959, 50448.08840132814, 22858.167929430954, 27522.127630964238, -9045.482760129305, -3510.6543911283484, -0.11751953125, 0.9777304687499999, 0.29426171874999996, 192.0, 126.0, 40.0, 15.0, 72.0, 4.5, 24.0, 0.0, 0.0, 0.0, 1.7068833425781307E9, 0.0, 2024-02-02 15:15:42.578
170.0, 63181.38547913855, 65563.14266480716, -22730.07008195759, -12265.18449368292, 16561.167426248485, 5367.659672219715, 22976.25219538834, 4851.4684857688535, 41690.026723149625, 47240.85894118058, 37502.96384131478, 50443.46159022589, 22853.898746239993, 27518.64075882921, -9051.920062532434, -3513.247193485164, -0.11751953125, 0.9777304687499999, 0.29426171874999996, 192.0, 0.0, 0.0, 0.0, 0.0, 0.0, 0.0, 0.0, 0.0, 0.0, 1.7068833425851305E9, 0.0, 2024-02-02 15:15:42.585
172.0, 63178.815028526195, 65564.10378981875, -22730.360654635508, -12261.921138992446, 16563.022621038275, 5367.68202396417, 22978.576776811693, 4852.63077648053, 41690.339647572, 47233.32640329914, 37507.16596927238, 50445.87557862706, 22858.19028117541, 27519.512476862965, -9049.662536342446, -3508.5533271495497, -0.11751953125, 0.9777304687499999, 0.29426171874999996, 192.0, 0.0, 0.0, 0.0, 0.0, 0.0, 0.0, 0.0, 0.0, 0.0, 1.7068833425932903E9, 0.0, 2024-02-02 15:15:42.593
174.0, 63182.92774950597, 65568.99882185446, -22733.467547114797, -12259.57420582464, 16560.876853570564, 5364.329262295873, 22976.140436666064, 4849.859160168071, 41691.90426968387, 47240.81423769167, 37510.652841407406, 50452.536398474746, 22860.783083532227, 27523.49108737601, -9050.333088676107, -3508.0168852826223, -0.11751953125, 0.9777304687499999, 0.29426171874999996, 192.0, 0.0, 0.0, 0.0, 0.0, 0.0, 0.0, 0.0, 0.0, 0.0, 1.7068833426021404E9, 0.0, 2024-02-02 15:15:42.602
176.0, 63183.62065358408, 65564.50612121893, -22737.334398905565, -12258.054287201678, 16561.167426248485, 5365.290387307452, 22981.46015184643, 4850.932043901926, 41689.80320570507, 47235.18159808894, 37511.837483863535, 50453.47517174187, 22857.76559803076, 27523.96047400957, -9053.864664300045, -3512.666048129326, -0.11751953125, 0.9777304687499999, 0.29426171874999996, 192.0, 0.0, 0.0, 0.0, 0.0, 0.0, 0.0, 0.0, 0.0, 0.0, 1.7068833426092396E9, 0.0, 2024-02-02 15:15:42.609
178.0, 63184.045336728734, 65573.04448760087, -22729.578343579575, -12248.286574874708, 16572.52211243178, 5372.778221699979, 22992.36780314062, 4859.381003306032, 41687.47862428172, 47239.11550511307, 37514.854969365, 50456.73852643234, 22861.587746332618, 27524.63102634323, -9045.572167107126, -3506.519318404117, -0.11575976562500001, 0.976865234375, 0.29313085937499994, 192.0, 126.0, 56.0, 15.0, 64.0, 4.5, 16.0, 0.0, 0.0, 0.0, 1.7068833426172204E9, 0.0, 2024-02-02 15:15:42.617
180.0, 63170.16490342199, 65561.39922873965, -22742.765872808206, -12258.680136046427, 16562.687344871443, 5361.53529423896, 22979.873177990103, 4848.071020611646, 41681.13072885641, 47249.419659306965, 37511.122228040964, 50458.191389821935, 22860.268993409754, 27524.362805409768, -9045.706277573858, -3507.7486643491584, -0.11575976562500001, 0.976865234375, 0.29313085937499994, 192.0, 0.0, 0.0, 0.0, 0.0, 0.0, 0.0, 0.0, 0.0, 0.0, 1.7068833426266005E9, 0.0, 2024-02-02 15:15:42.626
182.0, 63172.22126391188, 65559.49933046095, -22744.799881553638, -12257.540197079206, 16562.016792537786, 5363.323433795385, 22970.73131450788, 4846.528750244231, 41673.754653186166, 47225.927975884435, 37504.50611168219, 50445.42854373796, 22853.407007861973, 27512.963415737562, -9052.165931721442, -3516.4881964311835, -0.11575976562500001, 0.976865234375, 0.29313085937499994, 192.0, 0.0, 0.0, 0.0, 0.0, 0.0, 0.0, 0.0, 0.0, 0.0, 1.7068833426341956E9, 0.0, 2024-02-02 15:15:42.634
184.0, 63179.865560515595, 65568.21651079852, -22744.509308875717, -12252.399295854486, 16566.643603640034, 5367.614968730804, 22981.01311695732, 4852.474314269342, 41678.76144394415, 47238.95904290188, 37512.239815263725, 50454.011613608796, 22860.693676554405, 27526.44151764411, -9048.924928775421, -3510.6543911283484, -0.11575976562500001, 0.976865234375, 0.29313085937499994, 192.0, 0.0, 0.0, 0.0, 0.0, 0.0, 0.0, 0.0, 0.0, 0.0, 1.706883342641229E9, 0.0, 2024-02-02 15:15:42.641
186.0, 63182.63717682805, 65570.83166489979, -22745.336323420564, -12252.198130154387, 16567.917653073986, 5366.989119886055, 22982.89066349157, 4851.177913090934, 41677.800318932575, 47237.23795857882, 37515.458466465294, 50455.106849087104, 22862.258298666275, 27521.92646526414, -9045.683925829402, -3509.469748672217, -0.11575976562500001, 0.976865234375, 0.29313085937499994, 192.0, 0.0, 0.0, 0.0, 0.0, 0.0, 0.0, 0.0, 0.0, 0.0, 1.7068833426492698E9, 0.0, 2024-02-02 15:15:42.649
188.0, 63174.52349359078, 65564.7296386635, -22750.41016941192, -12259.104819191078, 16559.60280413661, 5360.507113994016, 22976.922747722, 4843.3100990426665, 41673.62054271943, 47238.69082196842, 37513.33505074204, 50454.16807581998, 22861.252470165786, 27522.440555386613, -9049.12609447552, -3509.9838387946893, -0.11575976562500001, 0.976865234375, 0.29313085937499994, 192.0, 0.0, 0.0, 0.0, 0.0, 0.0, 0.0, 0.0, 0.0, 0.0, 1.7068833426583035E9, 0.0, 2024-02-02 15:15:42.658
190.0, 63177.3621651366, 65567.56831020932, -22745.783358309673, -12255.014449955755, 16566.285975728748, 5366.430326274673, 22982.667146047013, 4848.629814223029, 41664.232810048205, 47238.98139464634, 37508.84235010652, 50449.56361646219, 22858.257336408777, 27519.40071814069, -9050.444847398383, -3514.633001641393, -0.11, 0.97, 0.302, 192.0, 126.0, 72.0, 15.0, 40.0, 4.5, 56.0, 0.0, 0.0, 0.0, 1.7068833426654625E9, 0.0, 2024-02-02 15:15:42.665
192.0, 63192.00255775483, 65582.0745923608, -22736.663846571904, -12242.788045738704, 16576.321908989183, 5379.796669458946, 22994.133590952588, 4860.789163206717, 41672.279438052115, 47243.2505778373, 37525.00266134771, 50464.047546869224, 22867.801531291192, 27533.45996540308, -9036.8326350251, -3502.1383764908765, -0.11, 0.97, 0.302, 192.0, 0.0, 0.0, 0.0, 0.0, 0.0, 0.0, 0.0, 0.0, 0.0, 1.7068833426732757E9, 0.0, 2024-02-02 15:15:42.673
194.0, 63174.85876975761, 65566.65188868665, -22757.674486359894, -12265.564473338662, 16560.541577403736, 5362.809343672913, 22975.358125610128, 4844.67355545444, 41667.89849613887, 47253.755897731295, 37518.92298685587, 50466.729756203866, 22865.365191145564, 27525.726261821543, -9043.091123472586, -3503.1442049913653, -0.11, 0.97, 0.302, 192.0, 0.0, 0.0, 0.0, 0.0, 0.0, 0.0, 0.0, 0.0, 0.0, 1.7068833426816237E9, 0.0, 2024-02-02 15:15:42.681
196.0, 63179.01619422629, 65567.54595846486, -22756.668657859405, -12263.798685526692, 16565.32485071717, 5368.0173001309995, 22974.64286978756, 4848.540407245208, 41655.3815192439, 47235.092191111115, 37510.429323962846, 50450.07770658466, 22859.1961096759, 27511.10822094777, -9051.003641009765, -3514.1636150078316, -0.11, 0.97, 0.302, 192.0, 0.0, 0.0, 0.0, 0.0, 0.0, 0.0, 0.0, 0.0, 0.0, 1.706883342690298E9, 0.0, 2024-02-02 15:15:42.690
198.0, 63172.62359531208, 65559.09699906076, -22761.87661431749, -12270.995947241301, 16562.329716960157, 5361.222369816586, 22977.034506444277, 4848.786276434216, 41652.766365142634, 47234.06401086617, 37513.24564376422, 50451.59762520762, 22860.827787021135, 27519.78069779643, -9046.130960718509, -3506.6981323597593, -0.11, 0.97, 0.302, 192.0, 0.0, 0.0, 0.0, 0.0, 0.0, 0.0, 0.0, 0.0, 0.0, 1.7068833426973248E9, 0.0, 2024-02-02 15:15:42.697
200.0, 63171.193083666934, 65558.33703974927, -22761.36252419502, -12271.934720508423, 16568.521150174278, 5362.786991928458, 22984.70115479245, 4855.111820115068, 41641.72460338171, 47229.05722010818, 37504.61787040447, 50441.069953569175, 22851.66357179446, 27507.263720901457, -9051.093047987586, -3516.2646789866308, -0.116, 0.97, 0.3, 192.0, 126.0, 48.0, 15.0, 40.0, 4.5, 48.0, 0.0, 0.0, 0.0, 1.7068833427053404E9, 0.0, 2024-02-02 15:15:42.705
202.0, 63175.50697034681, 65564.26025202993, -22758.702666604837, -12266.413839627963, 16572.388001965046, 5367.614968730804, 22988.79152402777, 4860.409183550976, 41646.01613831713, 47226.10678984008, 37511.79278037462, 50445.98733734934, 22860.71602829886, 27514.68450006062, -9037.324373403117, -3506.5863736374827, -0.116, 0.97, 0.3, 192.0, 0.0, 0.0, 0.0, 0.0, 0.0, 0.0, 0.0, 0.0, 0.0, 1.7068833427143552E9, 0.0, 2024-02-02 15:15:42.714
204.0, 63161.24655738432, 65555.40896122564, -22766.65988763093, -12273.365232153563, 16563.402600694015, 5359.814209915902, 22973.9723174539, 4850.440305523909, 41640.33879522548, 47234.86867366656, 37505.08725703803, 50445.674412926965, 22858.48085385333, 27510.325909891835, -9043.672268828424, -3509.5815073944937, -0.116, 0.97, 0.3, 192.0, 0.0, 0.0, 0.0, 0.0, 0.0, 0.0, 0.0, 0.0, 0.0, 1.7068833427213516E9, 0.0, 2024-02-02 15:15:42.721
206.0, 63170.07549644417, 65561.7792083954, -22761.87661431749, -12265.408011127474, 16573.99732756583, 5370.006605387522, 22988.65741356104, 4857.7493259607945, 41636.337832967976, 47232.27587130974, 37506.96480357228, 50445.87557862706, 22861.744208543805, 27516.897322761695, -9041.705315316358, -3508.128644004899, -0.116, 0.97, 0.3, 192.0, 0.0, 0.0, 0.0, 0.0, 0.0, 0.0, 0.0, 0.0, 0.0, 1.7068833427293575E9, 0.0, 2024-02-02 15:15:42.729
208.0, 63160.68776377294, 65552.90556584664, -22771.711381877827, -12270.347746652096, 16568.878778085564, 5360.909445394212, 22986.35518388214, 4851.982575891326, 41632.09100152147, 47231.672374209455, 37506.026030305155, 50442.63457568104, 22862.37005738855, 27513.701023304588, -9041.280632171707, -3507.189870737776, -0.116, 0.97, 0.3, 192.0, 0.0, 0.0, 0.0, 0.0, 0.0, 0.0, 0.0, 0.0, 0.0, 1.7068833427375443E9, 0.0, 2024-02-02 15:15:42.737
210.0, 63157.133836404544, 65549.66456290061, -22780.249748259754, -12279.847238045602, 16562.933214060453, 5352.527541223471, 22978.59912855615, 4841.968994375347, 41621.89860604985, 47228.76664743026, 37497.04062903412, 50433.716229643374, 22852.33412412812, 27498.658299286166, -9047.919100274934, -3519.148054021365, -0.112, 0.976, 0.296, 192.0, 126.0, 64.0, 15.0, 64.0, 4.5, 32.0, 0.0, 0.0, 0.0, 1.706883342746372E9, 0.0, 2024-02-02 15:15:42.746
212.0, 63165.89572023103, 65560.28164151689, -22778.46160870333, -12271.063002474666, 16564.07315302767, 5356.975538370078, 22970.93248020798, 4845.075886854635, 41620.55750138253, 47219.46832173685, 37503.455579692796, 50438.87948261255, 22853.33995262861, 27503.530979577423, -9044.052248484166, -3518.0528185430553, -0.112, 0.976, 0.296, 192.0, 0.0, 0.0, 0.0, 0.0, 0.0, 0.0, 0.0, 0.0, 0.0, 1.7068833427534437E9, 0.0, 2024-02-02 15:15:42.753
214.0, 63165.38163010855, 65558.96288859402, -22779.109809292535, -12267.486723361817, 16566.80006585122, 5357.735497681559, 22983.06947744721, 4850.909692157471, 41618.67995484829, 47230.890063153514, 37500.52750116915, 50441.919319858476, 22851.23888864981, 27510.01298546946, -9050.60130960957, -3516.6223068979157, -0.112, 0.976, 0.296, 192.0, 0.0, 0.0, 0.0, 0.0, 0.0, 0.0, 0.0, 0.0, 0.0, 1.7068833427614174E9, 0.0, 2024-02-02 15:15:42.761
216.0, 63163.705249274404, 65559.25346127195, -22782.149646538455, -12268.470200117852, 16567.47061818488, 5358.808381415413, 22983.225939658398, 4855.089468370613, 41619.99870777115, 47230.5994904756, 37505.06490529358, 50445.473247226866, 22856.893879997002, 27510.951758736584, -9042.197053694374, -3512.9789725517003, -0.112, 0.976, 0.296, 192.0, 0.0, 0.0, 0.0, 0.0, 0.0, 0.0, 0.0, 0.0, 0.0, 1.7068833427697163E9, 0.0, 2024-02-02 15:15:42.769
218.0, 63162.319441118176, 65556.86182461522, -22786.955271596347, -12268.961938495868, 16562.79910359372, 5359.30011979343, 22977.861520989125, 4856.318814315655, 41617.875292047895, 47228.61018521908, 37503.88026283745, 50444.89210187103, 22858.167929430954, 27510.951758736584, -9043.918138017432, -3515.6835336307927, -0.112, 0.976, 0.296, 192.0, 0.0, 0.0, 0.0, 0.0, 0.0, 0.0, 0.0, 0.0, 0.0, 1.7068833427774177E9, 0.0, 2024-02-02 15:15:42.777
220.0, 63166.76743826478, 65562.40505724015, -22785.614166929026, -12267.956109995379, 16567.872949585075, 5368.151410597731, 22984.32117513671, 4863.896055686004, 41615.506007135635, 47234.533397499734, 37503.38852445943, 50448.31191877269, 22859.95606898738, 27516.316177405857, -9043.649917083969, -3509.961487050234, -0.108, 0.976, 0.298, 192.0, 126.0, 80.0, 15.0, 64.0, 4.5, 40.0, 0.0, 0.0, 0.0, 1.7068833427856505E9, 0.0, 2024-02-02 15:15:42.785
222.0, 63159.592528294634, 65557.33121124879, -22795.627748445004, -12273.208769942376, 16566.397734451024, 5362.049384361432, 22977.190968655465, 4855.111820115068, 41607.593489598454, 47220.67531593744, 37498.49349242372, 50439.08064831265, 22858.257336408777, 27500.58054930932, -9048.656707841958, -3515.6835336307927, -0.108, 0.976, 0.298, 192.0, 0.0, 0.0, 0.0, 0.0, 0.0, 0.0, 0.0, 0.0, 0.0, 1.706883342793466E9, 0.0, 2024-02-02 15:15:42.793
224.0, 63162.76647600729, 65560.61691768371, -22795.65010018946, -12266.391487883508, 16571.672746142478, 5360.3283000383735, 22983.44945710295, 4857.346994560599, 41608.46520763221, 47230.24186256431, 37496.66064937838, 50441.78520939174, 22860.112531198567, 27512.516380848454, -9048.41083865295, -3517.248155742664, -0.108, 0.976, 0.298, 192.0, 0.0, 0.0, 0.0, 0.0, 0.0, 0.0, 0.0, 0.0, 0.0, 1.7068833428014889E9, 0.0, 2024-02-02 15:15:42.801
226.0, 63163.95111846342, 65561.10865606173, -22797.058260090147, -12263.195188426398, 16573.61734791009, 5363.748116940036, 22977.54859656675, 4857.7493259607945, 41608.4205041433, 47229.5489584862, 37502.51680642567, 50446.523779216266, 22863.353534144586, 27516.740860550508, -9042.085294972097, -3512.1072545179436, -0.108, 0.976, 0.298, 192.0, 0.0, 0.0, 0.0, 0.0, 0.0, 0.0, 0.0, 0.0, 0.0, 1.706883342809476E9, 0.0, 2024-02-02 15:15:42.809
228.0, 63156.373877093065, 65552.34677223525, -22803.875542149013, -12269.364269896063, 16564.609594894602, 5355.67913719167, 22968.384381340074, 4848.786276434216, 41601.871443017895, 47226.37501077355, 37498.895823823914, 50445.92028211597, 22859.218461420354, 27516.249122172492, -9048.388486908494, -3519.3939232103735, -0.108, 0.976, 0.298, 192.0, 0.0, 0.0, 0.0, 0.0, 0.0, 0.0, 0.0, 0.0, 0.0, 1.7068833428175318E9, 0.0, 2024-02-02 15:15:42.817
230.0, 63158.29612711622, 65550.0668943008, -22808.837629418093, -12272.225293186342, 16566.5094931733, 5353.041631345944, 22980.54373032376, 4849.702697956884, 41593.80246326953, 47227.20202531839, 37490.55862314208, 50435.88434885554, 22850.322467127142, 27507.800162768384, -9056.613928868048, -3527.798179125569, -0.106, 0.97, 0.3, 192.0, 126.0, 88.0, 15.0, 40.0, 4.5, 48.0, 0.0, 0.0, 0.0, 1.7068833428268588E9, 0.0, 2024-02-02 15:15:42.826
232.0, 63164.44285684143, 65555.0736850588, -22806.17777182791, -12270.23598792982, 16569.817551352688, 5357.467276748094, 22981.773076268804, 4853.368384047554, 41597.33403889347, 47221.5470339712, 37498.828768590545, 50440.24293902433, 22856.200975918888, 27506.97314822354, -9052.925891032923, -3526.3006122470633, -0.106, 0.97, 0.3, 192.0, 0.0, 0.0, 0.0, 0.0, 0.0, 0.0, 0.0, 0.0, 0.0, 1.7068833428328507E9, 0.0, 2024-02-02 15:15:42.832
234.0, 63156.01624918178, 65546.28944948786, -22817.778327200216, -12279.489610134318, 16560.38511519255, 5349.420648744184, 22970.150169152043, 4844.67355545444, 41595.97058248169, 47229.97364163085, 37498.76171335718, 50440.06412506868, 22858.52555734224, 27505.810857511864, -9056.055135256665, -3524.020734312622, -0.106, 0.97, 0.3, 192.0, 0.0, 0.0, 0.0, 0.0, 0.0, 0.0, 0.0, 0.0, 0.0, 1.7068833428415432E9, 0.0, 2024-02-02 15:15:42.841
236.0, 63165.00165045282, 65561.39922873965, -22810.64812071897, -12267.844351273103, 16568.23057749636, 5365.9162361522, 22977.280375633287, 4857.726974216339, 41586.336980621454, 47227.38083927403, 37493.97844004374, 50442.969851847876, 22852.691752039405, 27507.040203456905, -9058.98321378031, -3521.025600555611, -0.106, 0.97, 0.3, 192.0, 0.0, 0.0, 0.0, 0.0, 0.0, 0.0, 0.0, 0.0, 0.0, 1.7068833428495724E9, 0.0, 2024-02-02 15:15:42.849
238.0, 63167.348583620624, 65563.81321714082, -22813.397385286975, -12270.593615841106, 16563.246138482828, 5362.339957039351, 22973.435875586973, 4857.682270727429, 41589.24270740065, 47234.82397017765, 37503.54498667061, 50454.145724075526, 22858.123225942043, 27517.76904079545, -9050.936585776399, -3509.827376583502, -0.106, 0.97, 0.3, 192.0, 0.0, 0.0, 0.0, 0.0, 0.0, 0.0, 0.0, 0.0, 0.0, 1.7068833428576825E9, 0.0, 2024-02-02 15:15:42.857
240.0, 63160.73246726185, 65557.33121124879, -22824.953237170368, -12281.791839813213, 16559.42399018097, 5349.845331888835, 22972.072419175198, 4847.62398572254, 41578.46916657319, 47229.705420697384, 37492.65968712088, 50443.84156988163, 22848.511975826263, 27502.525151076934, -9062.201864981875, -3521.5620424225385, -0.112, 0.966, 0.298, 192.0, 126.0, 64.0, 15.0, 24.0, 4.5, 40.0, 0.0, 0.0, 0.0, 1.7068833428657067E9, 0.0, 2024-02-02 15:15:42.865
242.0, 63165.672202786474, 65562.31565026232, -22821.980455157813, -12279.981348512334, 16563.827283838666, 5348.325413265874, 22979.18027391199, 4848.763924689762, 41575.518736305086, 47215.310897268166, 37495.833634833536, 50442.4557617254, 22848.534327570716, 27489.49408405949, -9057.776219579724, -3528.5581384370494, -0.112, 0.966, 0.298, 192.0, 0.0, 0.0, 0.0, 0.0, 0.0, 0.0, 0.0, 0.0, 0.0, 1.7068833428735769E9, 0.0, 2024-02-02 15:15:42.873
244.0, 63166.11923767558, 65560.95219385055, -22822.3380830691, -12279.869589790058, 16563.13437976055, 5347.0066603430105, 22967.49031156186, 4844.762962432261, 41580.70434101872, 47225.12331308405, 37499.27580347965, 50446.07674432716, 22851.887089239015, 27502.547502821388, -9056.45746665686, -3526.5688331805272, -0.112, 0.966, 0.298, 192.0, 0.0, 0.0, 0.0, 0.0, 0.0, 0.0, 0.0, 0.0, 0.0, 1.706883342881873E9, 0.0, 2024-02-02 15:15:42.881
246.0, 63168.890853988036, 65566.0260398419, -22822.09221388009, -12274.48281937633, 16568.543501918735, 5353.600424957326, 22976.341602366163, 4851.267320068756, 41576.83748922795, 47225.659754950975, 37500.7510186137, 50448.535436217244, 22853.608173562072, 27503.68744178861, -9057.709164346357, -3523.797216868069, -0.112, 0.966, 0.298, 192.0, 0.0, 0.0, 0.0, 0.0, 0.0, 0.0, 0.0, 0.0, 0.0, 1.7068833428886018E9, 0.0, 2024-02-02 15:15:42.888
248.0, 63173.428258112464, 65575.70434519104, -22816.99601614428, -12267.620833828549, 16576.165446777995, 5361.959977383612, 22986.668108304515, 4861.415012051465, 41579.94438170724, 47238.10967661258, 37507.18832101683, 50455.3080147872, 22859.061999209167, 27510.3929651252, -9047.919100274934, -3511.1461295063655, -0.112, 0.966, 0.298, 192.0, 0.0, 0.0, 0.0, 0.0, 0.0, 0.0, 0.0, 0.0, 0.0, 1.7068833428976462E9, 0.0, 2024-02-02 15:15:42.897
250.0, 63156.21741488188, 65558.89583336066, -22830.697635495384, -12278.550836867194, 16565.168388505983, 5352.505189479017, 22972.295936619754, 4848.451000267387, 41576.4128060833, 47243.22822609285, 37502.0027163032, 50449.78713390674, 22855.79864451869, 27509.901226747184, -9053.529388133215, -3514.8118155970355, -0.11800000000000001, 0.972, 0.296, 192.0, 126.0, 40.0, 15.0, 48.0, 4.5, 32.0, 0.0, 0.0, 0.0, 1.7068833429056647E9, 0.0, 2024-02-02 15:15:42.905
252.0, 63153.714019502884, 65553.50906294693, -22834.02804541922, -12281.903598535491, 16558.55227214721, 5348.727744666069, 22957.230860856875, 4842.639546709007, 41564.34286407744, 47218.104865325084, 37492.70439060979, 50434.342078488124, 22851.14948167199, 27499.462962086556, -9062.537141148703, -3525.4959494466725, -0.11800000000000001, 0.972, 0.296, 192.0, 0.0, 0.0, 0.0, 0.0, 0.0, 0.0, 0.0, 0.0, 0.0, 1.7068833429140625E9, 0.0, 2024-02-02 15:15:42.914
254.0, 63165.113409175094, 65568.28356603188, -22827.411929060454, -12268.00081348429, 16566.397734451024, 5358.383698270763, 22973.122951164598, 4854.48597127032, 41571.1601461363, 47233.92990039944, 37498.269974979165, 50441.405229736, 22854.52459508474, 27507.35312787928, -9057.597405624081, -3516.510548175639, -0.11800000000000001, 0.972, 0.296, 192.0, 0.0, 0.0, 0.0, 0.0, 0.0, 0.0, 0.0, 0.0, 0.0, 1.7068833429207172E9, 0.0, 2024-02-02 15:15:42.920
0.0, 63168.66733654348, 65577.8277609143, -22820.862867935048, -12258.076638946133, 16574.354955477113, 5368.44198327565, 22989.193855427966, 4863.896055686004, 41568.27677110157, 47245.53045577174, 37506.093085538516, 50452.22347405237, 22856.312734641164, 27518.149020451194, -9049.662536342446, -3504.641771869871, -0.11800000000000001, 0.972, 0.296, 192.0, 0.0, 0.0, 0.0, 0.0, 0.0, 0.0, 0.0, 0.0, 0.0, 1.7068833429297197E9, 0.0, 2024-02-02 15:15:42.929
2.0, 63165.42633359747, 65572.10571433374, -22826.763728471247, -12262.211711670365, 16567.962356562897, 5362.474067506083, 22978.085038433677, 4855.156523603979, 41572.56830603699, 47239.92016791346, 37510.33991698503, 50453.922206630974, 22861.498339354795, 27521.50178211949, -9044.253414184263, -3500.640809612371, -0.11800000000000001, 0.972, 0.296, 192.0, 0.0, 0.0, 0.0, 0.0, 0.0, 0.0, 0.0, 0.0, 0.0, 1.7068833429378545E9, 0.0, 2024-02-02 15:15:42.937
4.0, 63167.97443246537, 65575.43612425758, -22829.51299303925, -12262.837560515114, 16568.543501918735, 5359.814209915902, 22977.74976226685, 4853.927177658937, 41577.329227605966, 47248.503237784294, 37513.82678912005, 50458.951349133415, 22864.49347311181, 27514.997424482994, -9045.192187451386, -3502.0266177686, -0.11800000000000001, 0.97, 0.292, 192.0, 126.0, 40.0, 15.0, 40.0, 4.5, 16.0, 0.0, 0.0, 0.0, 1.7068833429447176E9, 0.0, 2024-02-02 15:15:42.944
6.0, 63154.16105439199, 65559.99106883896, -22841.627638534028, -12277.545008366706, 16563.693173371932, 5345.8890731202455, 22970.664259274516, 4844.382982776521, 41562.66648324329, 47225.3468305286, 37506.2048442608, 50447.46255248339, 22857.206804419377, 27507.621348812743, -9053.082353244108, -3515.4376644417844, -0.11800000000000001, 0.97, 0.292, 192.0, 0.0, 0.0, 0.0, 0.0, 0.0, 0.0, 0.0, 0.0, 0.0, 1.706883342953781E9, 0.0, 2024-02-02 15:15:42.953
8.0, 63151.16592063498, 65559.70049616105, -22845.740359513806, -12281.05423224619, 16559.33458320315, 5341.262262017997, 22962.30470684823, 4839.57735771863, 41551.244741826624, 47221.56938571565, 37493.82197783256, 50435.817293622174, 22848.71314152636, 27493.316232361347, -9062.335975448606, -3525.987687824689, -0.11800000000000001, 0.97, 0.292, 192.0, 0.0, 0.0, 0.0, 0.0, 0.0, 0.0, 0.0, 0.0, 0.0, 1.7068833429617293E9, 0.0, 2024-02-02 15:15:42.961
10.0, 63163.54878706322, 65574.74322017947, -22838.587801288108, -12266.23502567232, 16572.07507754267, 5359.68009944917, 22975.73810526587, 4854.888302670515, 41558.531410519055, 47232.63349922103, 37505.08725703803, 50447.015517594285, 22859.643144565005, 27512.091697703803, -9050.333088676107, -3513.1130830184325, -0.11800000000000001, 0.97, 0.292, 192.0, 0.0, 0.0, 0.0, 0.0, 0.0, 0.0, 0.0, 0.0, 0.0, 1.7068833429689128E9, 0.0, 2024-02-02 15:15:42.968
12.0, 63162.43119984045, 65573.55857772334, -22846.656781036472, -12268.559607095673, 16565.861292584097, 5358.227236059575, 22971.468922074906, 4851.513189257764, 41558.01732039658, 47239.294319068715, 37504.93079482685, 50451.64232869653, 22861.073656210145, 27517.38906113971, -9047.561472363648, -3509.9167835613234, -0.11800000000000001, 0.97, 0.292, 192.0, 0.0, 0.0, 0.0, 0.0, 0.0, 0.0, 0.0, 0.0, 0.0, 1.7068833429767156E9, 0.0, 2024-02-02 15:15:42.976
14.0, 63153.5575572917, 65562.58387119578, -22855.597478818596, -12274.773392054247, 16561.882682071053, 5349.375945255273, 22969.9713551964, 4841.991346119803, 41551.334148804446, 47243.36233655958, 37499.4993209242, 50450.74825891832, 22854.90457474048, 27515.287997160915, -9056.74803933478, -3517.583431909494, -0.11, 0.97, 0.298, 192.0, 126.0, 72.0, 15.0, 40.0, 4.5, 40.0, 0.0, 0.0, 0.0, 1.7068833429857492E9, 0.0, 2024-02-02 15:15:42.985
16.0, 63159.32430736117, 65567.76947590942, -22847.99788570379, -12264.536293093717, 16573.796161865732, 5360.194189571642, 22983.382401869585, 4854.508323014775, 41547.623759224865, 47231.40415327599, 37500.52750116915, 50449.96594786239, 22860.224289920843, 27508.96245348006, -9050.64601309848, -3516.7117138757367, -0.11, 0.97, 0.298, 192.0, 0.0, 0.0, 0.0, 0.0, 0.0, 0.0, 0.0, 0.0, 0.0, 1.7068833429937582E9, 0.0, 2024-02-02 15:15:42.993
18.0, 63151.99293517983, 65563.25442352945, -22855.977458474335, -12270.973595496846, 16563.626118138567, 5355.589730213849, 22972.564157553217, 4848.048668867191, 41548.093145858424, 47239.16020860198, 37499.54402441312, 50446.434372238444, 22860.42545562094, 27518.752517551486, -9051.115399732042, -3511.369646950918, -0.11, 0.97, 0.298, 192.0, 0.0, 0.0, 0.0, 0.0, 0.0, 0.0, 0.0, 0.0, 0.0, 1.7068833430010576E9, 0.0, 2024-02-02 15:15:43.001
20.0, 63152.57408053566, 65564.26025202993, -22858.994943975802, -12272.046479230701, 16563.179083249463, 5357.601387214826, 22968.160863895522, 4848.987442134314, 41537.900750386805, 47228.945461385905, 37495.051323777596, 50440.73467740234, 22855.57512707414, 27505.520284833943, -9055.630452112015, -3513.8059870965467, -0.11, 0.97, 0.298, 192.0, 0.0, 0.0, 0.0, 0.0, 0.0, 0.0, 0.0, 0.0, 0.0, 1.706883343008777E9, 0.0, 2024-02-02 15:15:43.008
22.0, 63152.462321813386, 65563.12031306271, -22858.413798619964, -12273.119362964555, 16560.899205315018, 5351.298195278429, 22965.724523749894, 4845.612328721563, 41539.733593432145, 47227.961984629874, 37500.32633546905, 50444.623880937565, 22857.877356753037, 27506.392002867702, -9056.524521890226, -3513.336600462985, -0.11, 0.97, 0.298, 192.0, 0.0, 0.0, 0.0, 0.0, 0.0, 0.0, 0.0, 0.0, 0.0, 1.706883343017805E9, 0.0, 2024-02-02 15:15:43.017
24.0, 63156.01624918178, 65567.03186834238, -22857.67619105294, -12271.264168174765, 16568.342336218637, 5354.270977290986, 22973.704096520436, 4852.250796824789, 41532.446924739714, 47230.331269542134, 37495.6995243668, 50440.913491357984, 22856.67036255245, 27496.356069607267, -9058.60323412457, -3517.0022865536557, -0.112, 0.974, 0.296, 192.0, 126.0, 64.0, 15.0, 56.0, 4.5, 32.0, 0.0, 0.0, 0.0, 1.7068833430248706E9, 0.0, 2024-02-02 15:15:43.024
26.0, 63157.69263001593, 65566.76364740892, -22859.598441076094, -12269.878360018536, 16575.18197002196, 5357.310814536907, 22979.895529734556, 4854.910654414971, 41536.716107930675, 47225.63740320652, 37503.7014488818, 50446.859055383095, 22869.120284214056, 27506.816686012353, -9045.482760129305, -3508.441568427273, -0.112, 0.974, 0.296, 192.0, 0.0, 0.0, 0.0, 0.0, 0.0, 0.0, 0.0, 0.0, 0.0, 1.7068833430330112E9, 0.0, 2024-02-02 15:15:43.033
28.0, 63148.1037316446, 65553.73258039149, -22871.556624359684, -12281.970653768856, 16565.07898152816, 5347.453695232117, 22965.478654560884, 4843.734782187317, 41531.91048287279, 47230.15245558649, 37493.39729468791, 50437.560729689685, 22864.29230741171, 27502.97218596604, -9053.931719533412, -3516.667010386826, -0.112, 0.974, 0.296, 192.0, 0.0, 0.0, 0.0, 0.0, 0.0, 0.0, 0.0, 0.0, 0.0, 1.7068833430418847E9, 0.0, 2024-02-02 15:15:43.041
30.0, 63151.56825203518, 65559.96871709451, -22870.86372028157, -12274.66163333197, 16565.861292584097, 5355.656785447215, 22960.337753336164, 4846.618157222051, 41525.69669791421, 47224.43040900593, 37491.65385862039, 50435.16909303297, 22861.319525399154, 27505.654395300677, -9059.564359136148, -3521.7185046337254, -0.112, 0.974, 0.296, 192.0, 0.0, 0.0, 0.0, 0.0, 0.0, 0.0, 0.0, 0.0, 0.0, 1.7068833430489025E9, 0.0, 2024-02-02 15:15:43.048
32.0, 63149.28837410073, 65557.53237694889, -22870.81901679266, -12272.649976330993, 16570.130475775062, 5359.791858171447, 22978.64383204506, 4852.049631124692, 41525.31671825847, 47228.14079858551, 37493.933736554834, 50440.24293902433, 22864.359362645075, 27509.58830232481, -9053.529388133215, -3515.8176440975244, -0.112, 0.974, 0.296, 192.0, 0.0, 0.0, 0.0, 0.0, 0.0, 0.0, 0.0, 0.0, 0.0, 1.706883343057173E9, 0.0, 2024-02-02 15:15:43.057
34.0, 63145.24270835432, 65556.07951355929, -22876.76458081777, -12273.544046109206, 16569.437571696948, 5358.070773848388, 22974.106427920633, 4849.546235745697, 41520.13111354484, 47230.755952686784, 37490.75978884218, 50434.74440988832, 22860.93954574341, 27511.152924436683, -9052.8364840551, -3518.7457226211695, -0.113, 0.976, 0.297, 192.0, 126.0, 56.0, 15.0, 72.0, 4.5, 40.0, 0.0, 0.0, 0.0, 1.7068833430649087E9, 0.0, 2024-02-02 15:15:43.064
36.0, 63150.987106679335, 65560.63926942817, -22875.602290106093, -12272.225293186342, 16573.50558918781, 5361.15531458322, 22976.83334074418, 4854.888302670515, 41528.24479678211, 47226.37501077355, 37496.99592554521, 50439.01359307928, 22867.510958613275, 27519.06544197386, -9046.846216541078, -3513.6271731409042, -0.113, 0.976, 0.297, 192.0, 0.0, 0.0, 0.0, 0.0, 0.0, 0.0, 0.0, 0.0, 0.0, 1.706883343073953E9, 0.0, 2024-02-02 15:15:43.073
38.0, 63136.97256290586, 65545.59654540975, -22893.43898218143, -12289.682005605937, 16559.80396983671, 5343.899767863723, 22956.806177712224, 4840.829055408127, 41523.1038955574, 47227.02321136275, 37482.266125949165, 50429.536453430235, 22859.017295720256, 27504.648566800188, -9059.542007391692, -3524.445417457273, -0.113, 0.976, 0.297, 192.0, 0.0, 0.0, 0.0, 0.0, 0.0, 0.0, 0.0, 0.0, 0.0, 1.7068833430809052E9, 0.0, 2024-02-02 15:15:43.080
40.0, 63138.268964084265, 65546.2670977434, -22897.596406650115, -12291.045462017712, 16559.736914603345, 5343.251567274519, 22958.326096335186, 4841.410200763965, 41522.32158450146, 47212.651039677985, 37473.236021189216, 50415.56661314567, 22857.76559803076, 27491.192816638093, -9072.528370920227, -3535.6436414293817, -0.113, 0.976, 0.297, 192.0, 0.0, 0.0, 0.0, 0.0, 0.0, 0.0, 0.0, 0.0, 0.0, 1.7068833430892365E9, 0.0, 2024-02-02 15:15:43.089
42.0, 63147.96962117787, 65557.73354264897, -22893.170761247966, -12284.675214847948, 16561.56975764868, 5350.001794100022, 22968.63025052908, 4851.714354957861, 41537.38666026433, 47223.46928399435, 37480.32152418155, 50425.066104539175, 22863.398237633497, 27498.97122370854, -9067.83450458461, -3527.306440747552, -0.113, 0.976, 0.297, 192.0, 0.0, 0.0, 0.0, 0.0, 0.0, 0.0, 0.0, 0.0, 0.0, 1.7068833430979593E9, 0.0, 2024-02-02 15:15:43.097
44.0, 63154.2057578809, 65562.96385085152, -22890.19797923541, -12275.28748217672, 16566.621251895576, 5356.841427903346, 22978.576776811693, 4862.3314335741325, 41559.33607331945, 47242.11063887008, 37487.11645449596, 50433.872691854565, 22862.124188199545, 27507.576645323832, -9064.526446405227, -3519.3492197214628, -0.1155, 0.98, 0.2985, 192.0, 126.0, 40.0, 15.0, 96.0, 4.5, 48.0, 0.0, 0.0, 0.0, 1.7068833431049647E9, 0.0, 2024-02-02 15:15:43.104
46.0, 63156.507987559795, 65565.02021134141, -22890.265034468775, -12273.253473431287, 16566.665955384487, 5359.054250604421, 22973.994669198357, 4863.091392885613, 41575.13875664935, 47230.91241489797, 37492.57028014306, 50436.309032000194, 22859.978420731833, 27509.00715696897, -9059.094972502586, -3511.637867884382, -0.1155, 0.98, 0.2985, 192.0, 0.0, 0.0, 0.0, 0.0, 0.0, 0.0, 0.0, 0.0, 0.0, 1.706883343113103E9, 0.0, 2024-02-02 15:15:43.113
48.0, 63149.02015316727, 65556.43714147057, -22898.937511317436, -12281.568322368661, 16561.346240204126, 5351.186436556153, 22980.230805901385, 4860.34212831761, 41589.89090798985, 47229.41484801946, 37486.82588181805, 50432.68804939843, 22855.23985090731, 27500.893473731696, -9058.357364935562, -3511.079074272999, -0.1155, 0.98, 0.2985, 192.0, 0.0, 0.0, 0.0, 0.0, 0.0, 0.0, 0.0, 0.0, 0.0, 1.7068833431209755E9, 0.0, 2024-02-02 15:15:43.120
50.0, 63158.765513749786, 65566.24955728646, -22893.349575203607, -12274.996909498801, 16573.840865354643, 5362.0270326169775, 22982.331869880185, 4865.147753375501, 41606.18532969777, 47228.2972607967, 37486.445902162304, 50432.30806974269, 22859.263164909265, 27508.046031957394, -9050.735420076302, -3510.9226120618123, -0.1155, 0.98, 0.2985, 192.0, 0.0, 0.0, 0.0, 0.0, 0.0, 0.0, 0.0, 0.0, 0.0, 1.7068833431299968E9, 0.0, 2024-02-02 15:15:43.129
52.0, 63158.94432770542, 65565.46724623052, -22897.99873805031, -12277.0979734776, 16575.04785955523, 5356.483799992061, 22992.837189774178, 4863.2702068412555, 41625.4748851627, 47230.688897453416, 37490.93860279782, 50436.97958433385, 22861.319525399154, 27514.572741338343, -9045.527463618215, -3507.569850393516, -0.1155, 0.98, 0.2985, 192.0, 0.0, 0.0, 0.0, 0.0, 0.0, 0.0, 0.0, 0.0, 0.0, 1.706883343137004E9, 0.0, 2024-02-02 15:15:43.137
54.0, 63152.64113576903, 65557.24180427096, -22906.87238059907, -12289.637302117028, 16570.28693798625, 5349.510055722005, 22983.44945710295, 4852.183741591423, 41638.081269035494, 47232.499388754295, 37489.463387663774, 50434.923223843965, 22858.793778275704, 27506.861389501264, -9045.616870596037, -3511.280239973097, -0.11475, 0.977, 0.29925, 192.0, 126.0, 56.0, 15.0, 56.0, 4.5, 48.0, 0.0, 0.0, 0.0, 1.7068833431452928E9, 0.0, 2024-02-02 15:15:43.145
56.0, 63162.051220184716, 65561.06395257282, -22907.58763642164, -12290.352557939597, 16572.879740343065, 5352.236968545552, 22984.49998909235, 4852.943700902903, 41648.11720229593, 47213.88038562303, 37485.73064633973, 50425.98252606184, 22855.552775329685, 27502.122819676737, -9051.204806709864, -3526.6135366694375, -0.11475, 0.977, 0.29925, 192.0, 0.0, 0.0, 0.0, 0.0, 0.0, 0.0, 0.0, 0.0, 0.0, 1.70688334315303E9, 0.0, 2024-02-02 15:15:43.153
58.0, 63162.98999345184, 65561.08630431727, -22909.68870040044, -12288.273845705253, 16572.499760687322, 5355.522674980482, 22989.93146299499, 4852.72018345835, 41665.082176337506, 47228.63253696353, 37489.03870451912, 50431.011668564286, 22862.23594692182, 27509.63300581372, -9047.002678752266, -3520.6679726443263, -0.11475, 0.977, 0.29925, 192.0, 0.0, 0.0, 0.0, 0.0, 0.0, 0.0, 0.0, 0.0, 0.0, 1.70688334316104E9, 0.0, 2024-02-02 15:15:43.161
60.0, 63154.71984800338, 65556.21362402602, -22919.38935749404, -12290.978406784345, 16561.480350670856, 5352.751058668025, 22971.088942419166, 4842.773657175739, 41667.69733043877, 47228.4984264968, 37486.15532948438, 50431.95044183141, 22855.306906140675, 27506.72727903453, -9049.059039242155, -3524.2442517571753, -0.11475, 0.977, 0.29925, 192.0, 0.0, 0.0, 0.0, 0.0, 0.0, 0.0, 0.0, 0.0, 0.0, 1.706883343169172E9, 0.0, 2024-02-02 15:15:43.169
62.0, 63158.13966490504, 65561.22041478401, -22915.746023147825, -12286.150429981999, 16566.353030962113, 5357.556683725916, 22981.795428013258, 4848.830979923127, 41669.15019382837, 47227.17967357393, 37485.41772191736, 50430.31876448617, 22853.585821817618, 27508.850694757784, -9047.047382241177, -3521.2938214890746, -0.11475, 0.977, 0.29925, 192.0, 0.0, 0.0, 0.0, 0.0, 0.0, 0.0, 0.0, 0.0, 0.0, 1.706883343177042E9, 0.0, 2024-02-02 15:15:43.177
64.0, 63164.57696730817, 65566.83070264228, -22918.651749927016, -12292.297159707208, 16565.548368161722, 5355.1650470691975, 22980.02964020129, 4846.126418844035, 41678.91790615534, 47236.34388880061, 37486.98234402923, 50431.16813077547, 22852.982324717323, 27504.782677266918, -9048.612004353048, -3521.606745911449, -0.116375, 0.9764999999999999, 0.29862500000000003, 192.0, 126.0, 40.0, 15.0, 64.0, 4.5, 40.0, 0.0, 0.0, 0.0, 1.706883343186057E9, 0.0, 2024-02-02 15:15:43.186
66.0, 63170.83545575565, 65571.07753408879, -22913.667310913483, -12284.406993914485, 16572.09742928713, 5361.803515172424, 22989.327965894696, 4852.67547996944, 41690.85373769447, 47228.43137126343, 37496.63829763392, 50434.58794767713, 22860.55956608767, 27506.90609299017, -9041.191225193885, -3517.628135398404, -0.116375, 0.9764999999999999, 0.29862500000000003, 192.0, 0.0, 0.0, 0.0, 0.0, 0.0, 0.0, 0.0, 0.0, 0.0, 1.7068833431921124E9, 0.0, 2024-02-02 15:15:43.192
68.0, 63162.16297890699, 65560.974545595, -22920.39518599453, -12290.084337006134, 16566.688307128945, 5351.275843533975, 22976.363954110617, 4843.064229853658, 41697.31339184206, 47235.42746727794, 37497.82294009005, 50438.03011632325, 22860.917193998957, 27523.11110772027, -9036.430303624906, -3510.833205083991, -0.116375, 0.9764999999999999, 0.29862500000000003, 192.0, 0.0, 0.0, 0.0, 0.0, 0.0, 0.0, 0.0, 0.0, 0.0, 1.7068833432012656E9, 0.0, 2024-02-02 15:15:43.201
70.0, 63170.38842086654, 65565.78017065288, -22913.62260742457, -12278.729650822837, 16574.891397344043, 5358.718974437592, 22989.775000783804, 4850.2391398238115, 41698.341572087, 47226.88910089601, 37496.459483678285, 50432.7551046318, 22858.19028117541, 27511.2423314145, -9037.704353058858, -3516.1305685198986, -0.116375, 0.9764999999999999, 0.29862500000000003, 192.0, 0.0, 0.0, 0.0, 0.0, 0.0, 0.0, 0.0, 0.0, 0.0, 1.706883343209092E9, 0.0, 2024-02-02 15:15:43.209
72.0, 63162.6100137961, 65559.54403394986, -22922.00451159531, -12282.015357257767, 16564.810760594697, 5353.309852279407, 22975.224015143398, 4841.656069952974, 41711.283232126625, 47234.73456319983, 37504.32729772655, 50443.88627337054, 22862.548871344196, 27517.366709395257, -9032.898728000966, -3510.8555568284464, -0.116375, 0.9764999999999999, 0.29862500000000003, 192.0, 0.0, 0.0, 0.0, 0.0, 0.0, 0.0, 0.0, 0.0, 0.0, 1.7068833432171042E9, 0.0, 2024-02-02 15:15:43.217
74.0, 63161.067743428684, 65559.78990313887, -22928.128889576066, -12286.9997962713, 16562.553234404713, 5353.399259257229, 22976.810988999725, 4842.214863564356, 41706.90229021339, 47233.3487550436, 37496.48183542274, 50435.59377617762, 22854.56929857365, 27509.722412791543, -9041.884129272, -3518.41044645434, -0.1151875, 0.97525, 0.2993125, 192.0, 126.0, 56.0, 15.0, 56.0, 4.5, 48.0, 0.0, 0.0, 0.0, 1.7068833432252593E9, 0.0, 2024-02-02 15:15:43.225
76.0, 63172.176560422966, 65568.99882185446, -22923.34561626263, -12280.38367991253, 16568.00706005181, 5361.53529423896, 22979.515550078817, 4849.076849112135, 41714.50188332819, 47230.24186256431, 37499.119341268466, 50439.684145412946, 22853.876394495535, 27513.96924423805, -9037.771408292223, -3517.248155742664, -0.1151875, 0.97525, 0.2993125, 192.0, 0.0, 0.0, 0.0, 0.0, 0.0, 0.0, 0.0, 0.0, 0.0, 1.706883343233281E9, 0.0, 2024-02-02 15:15:43.233
78.0, 63168.64498479903, 65562.60622294023, -22930.609933210606, -12290.598427128605, 16565.190740250437, 5352.862817390302, 22978.621480300604, 4841.834883908616, 41728.06939221256, 47241.28362432523, 37503.41087620388, 50445.27208152677, 22858.52555734224, 27520.74182280801, -9034.508053601749, -3510.542632406072, -0.1151875, 0.97525, 0.2993125, 192.0, 0.0, 0.0, 0.0, 0.0, 0.0, 0.0, 0.0, 0.0, 0.0, 1.7068833432411983E9, 0.0, 2024-02-02 15:15:43.241
80.0, 63173.49531334583, 65566.58483345328, -22929.849973899123, -12291.425441673451, 16566.42008619548, 5351.454657489617, 22981.25898614633, 4843.175988575935, 41728.80699977958, 47227.738467185314, 37501.823902347554, 50437.292508756225, 22855.105740440576, 27507.509590090467, -9037.950222247866, -3521.092655788977, -0.1151875, 0.97525, 0.2993125, 192.0, 0.0, 0.0, 0.0, 0.0, 0.0, 0.0, 0.0, 0.0, 0.0, 1.706883343248196E9, 0.0, 2024-02-02 15:15:43.248
82.0, 63179.95496749342, 65573.22330155651, -22926.988950608844, -12284.138772981021, 16566.733010617856, 5357.53433198146, 22981.996593713357, 4848.540407245208, 41738.619415595465, 47231.35944978708, 37508.261204750685, 50446.36731700508, 22855.44101660741, 27505.45322960058, -9035.916213502433, -3518.186929009787, -0.1151875, 0.97525, 0.2993125, 192.0, 0.0, 0.0, 0.0, 0.0, 0.0, 0.0, 0.0, 0.0, 0.0, 1.706883343257322E9, 0.0, 2024-02-02 15:15:43.257
84.0, 63172.02009821178, 65563.85792062973, -22934.58854372365, -12286.91038929348, 16558.08288551365, 5351.789933656447, 22962.036485914767, 4838.012735606759, 41743.55915112009, 47239.76370570227, 37510.786951874135, 50449.65302344001, 22855.530423585227, 27515.712680305565, -9038.821940281623, -3517.963411565234, -0.11559375, 0.975625, 0.29765624999999996, 192.0, 126.0, 48.0, 15.0, 64.0, 4.5, 32.0, 0.0, 0.0, 0.0, 1.7068833432653668E9, 0.0, 2024-02-02 15:15:43.265
86.0, 63167.437990598446, 65558.85112987175, -22937.24840131383, -12282.976482269345, 16557.56879539118, 5354.561549968905, 22974.575814554195, 4845.746439188295, 41736.16072370538, 47225.503292739784, 37503.7014488818, 50440.51115995779, 22846.343856614098, 27510.661186058664, -9041.884129272, -3520.533862177594, -0.11559375, 0.975625, 0.29765624999999996, 192.0, 0.0, 0.0, 0.0, 0.0, 0.0, 0.0, 0.0, 0.0, 0.0, 1.7068833432722018E9, 0.0, 2024-02-02 15:15:43.272
88.0, 63168.399115610024, 65561.60039443975, -22935.370854779587, -12281.23304620183, 16561.525054159767, 5359.881265149268, 22979.135570423077, 4848.920386900948, 41746.12960173245, 47241.90947316998, 37506.51776868317, 50444.73563965984, 22849.04841769319, 27519.69129081861, -9034.955088490855, -3509.514452161128, -0.11559375, 0.975625, 0.29765624999999996, 192.0, 0.0, 0.0, 0.0, 0.0, 0.0, 0.0, 0.0, 0.0, 0.0, 1.706883343280336E9, 0.0, 2024-02-02 15:15:43.280
90.0, 63172.42242961198, 65567.34479276476, -22937.44956701393, -12275.958034510379, 16568.074115285173, 5365.692718707647, 22979.60495705664, 4851.870817169049, 41752.097517502014, 47235.2486533223, 37507.61300416148, 50443.26042452579, 22852.401179361485, 27519.73599430752, -9034.508053601749, -3510.9449638062674, -0.11559375, 0.975625, 0.29765624999999996, 192.0, 0.0, 0.0, 0.0, 0.0, 0.0, 0.0, 0.0, 0.0, 0.0, 1.7068833432892573E9, 0.0, 2024-02-02 15:15:43.289
92.0, 63170.991917966836, 65566.51777821992, -22945.607953740116, -12280.160162467977, 16561.457998926402, 5362.116439594798, 22976.632175044084, 4848.4733520118425, 41756.34434894852, 47237.17090334546, 37508.529425684144, 50446.41202049399, 22852.110606683567, 27524.094584476305, -9034.351591390561, -3506.832242826491, -0.11559375, 0.975625, 0.29765624999999996, 192.0, 0.0, 0.0, 0.0, 0.0, 0.0, 0.0, 0.0, 0.0, 0.0, 1.706883343296276E9, 0.0, 2024-02-02 15:15:43.296
94.0, 63161.60418529561, 65554.24667051395, -22954.436892799964, -12291.760717840281, 16557.814664580186, 5348.727744666069, 22972.273584875296, 4836.202244305879, 41754.10917450299, 47238.13202835704, 37498.62760289045, 50439.103000057105, 22845.56154555816, 27514.237465171514, -9041.83942578309, -3517.8516528429573, -0.115796875, 0.9738125, 0.295828125, 192.0, 126.0, 48.0, 15.0, 48.0, 4.5, 24.0, 0.0, 0.0, 0.0, 1.7068833433042848E9, 0.0, 2024-02-02 15:15:43.304
96.0, 63168.73439177685, 65561.44393222856, -22948.424273541485, -12287.33507243813, 16564.006097794307, 5353.958052868611, 22978.956756467433, 4842.281918797722, 41758.467764671776, 47227.470246251854, 37502.71797212577, 50442.522816958764, 22850.56833631615, 27514.25981691597, -9035.200957679863, -3521.6738011448147, -0.115796875, 0.9738125, 0.295828125, 192.0, 0.0, 0.0, 0.0, 0.0, 0.0, 0.0, 0.0, 0.0, 0.0, 1.7068833433135433E9, 0.0, 2024-02-02 15:15:43.313
98.0, 63167.54974932072, 65559.23110952749, -22953.900450933033, -12291.783069584737, 16557.255870968806, 5349.711221422103, 22963.06466615971, 4833.430627993421, 41762.669892629376, 47237.260310323276, 37501.130998269444, 50442.36635474758, 22849.47310083784, 27512.941063993105, -9036.385600135995, -3523.12666453441, -0.115796875, 0.9738125, 0.295828125, 192.0, 0.0, 0.0, 0.0, 0.0, 0.0, 0.0, 0.0, 0.0, 0.0, 1.7068833433212936E9, 0.0, 2024-02-02 15:15:43.321
100.0, 63176.04341221374, 65565.93663286408, -22954.034561399767, -12287.446831160407, 16560.6086326371, 5359.076602348877, 22973.100599420144, 4841.276090297233, 41759.47359317227, 47231.33709804262, 37500.86277733598, 50437.73954364533, 22842.409949589965, 27511.39879362569, -9042.711143816847, -3527.284089003097, -0.115796875, 0.9738125, 0.295828125, 192.0, 0.0, 0.0, 0.0, 0.0, 0.0, 0.0, 0.0, 0.0, 0.0, 1.7068833433283737E9, 0.0, 2024-02-02 15:15:43.328
102.0, 63176.512798847296, 65565.69076367507, -22957.052046901234, -12287.71505209387, 16560.765094848288, 5358.7413261820475, 22975.179311654487, 4841.4325525084205, 41768.03431129865, 47234.86867366656, 37509.736419884735, 50449.83183739565, 22850.411874104964, 27520.786526296917, -9030.820015766623, -3513.7836353520916, -0.115796875, 0.9738125, 0.295828125, 192.0, 0.0, 0.0, 0.0, 0.0, 0.0, 0.0, 0.0, 0.0, 0.0, 1.7068833433363307E9, 0.0, 2024-02-02 15:15:43.336
104.0, 63175.41756336899, 65567.50125497596, -22959.39898006904, -12284.921084036958, 16560.85450182611, 5359.34482328234, 22976.363954110617, 4841.186683319412, 41759.67475887237, 47242.89294992602, 37502.606213403495, 50446.79200014973, 22843.95221995738, 27526.530924621933, -9035.513882102237, -3516.8458243424684, -0.1148984375, 0.97090625, 0.29591406249999996, 192.0, 126.0, 56.0, 15.0, 32.0, 4.5, 32.0, 0.0, 0.0, 0.0, 1.7068833433453348E9, 0.0, 2024-02-02 15:15:43.345
106.0, 63176.95983373641, 65568.70824917653, -22958.68372424647, -12282.775316569248, 16561.525054159767, 5359.34482328234, 22969.904299963036, 4837.05161059518, 41755.69614835932, 47236.5003510118, 37512.15040828591, 50449.69772692892, 22842.968743201345, 27520.272436174448, -9032.317582645128, -3515.0353330415887, -0.1148984375, 0.97090625, 0.29591406249999996, 192.0, 0.0, 0.0, 0.0, 0.0, 0.0, 0.0, 0.0, 0.0, 0.0, 1.706883343352352E9, 0.0, 2024-02-02 15:15:43.352
108.0, 63173.65177555702, 65562.20389154005, -22964.96456443841, -12290.844296317613, 16560.452170425913, 5352.684003434659, 22974.46405583192, 4833.2741657822335, 41749.08003200055, 47242.557673759184, 37504.52846342665, 50447.641366439035, 22838.118414654546, 27520.965340252562, -9038.419608881428, -3521.0032488111556, -0.1148984375, 0.97090625, 0.29591406249999996, 192.0, 0.0, 0.0, 0.0, 0.0, 0.0, 0.0, 0.0, 0.0, 0.0, 1.7068833433607771E9, 0.0, 2024-02-02 15:15:43.360
110.0, 63185.65466232952, 65571.09988583326, -22962.528224292782, -12285.837505559624, 16565.101333272618, 5359.993023871544, 22973.100599420144, 4836.425761750432, 41750.085860501036, 47241.529493514245, 37512.172760030364, 50452.08936358564, 22845.360379858063, 27524.295750176403, -9033.41281812344, -3519.058647043544, -0.1148984375, 0.97090625, 0.29591406249999996, 192.0, 0.0, 0.0, 0.0, 0.0, 0.0, 0.0, 0.0, 0.0, 0.0, 1.7068833433693645E9, 0.0, 2024-02-02 15:15:43.369
112.0, 63170.47782784436, 65556.86182461522, -22974.240538387363, -12301.662540633983, 16560.921557059475, 5344.34680275283, 22972.005363941833, 4830.7484186587835, 41746.084898243535, 47233.19229283241, 37510.40697221839, 50447.95429086141, 22844.66747577995, 27518.43959312911, -9036.273841413718, -3521.5843941669937, -0.1148984375, 0.97090625, 0.29591406249999996, 192.0, 0.0, 0.0, 0.0, 0.0, 0.0, 0.0, 0.0, 0.0, 0.0, 1.7068833433774087E9, 0.0, 2024-02-02 15:15:43.377
114.0, 63171.52835983376, 65558.6276124272, -22971.96066045292, -12296.991026042822, 16561.27918497076, 5342.156331796209, 22963.55640453773, 4827.7532849017725, 41730.41632538036, 47224.43040900593, 37497.30884996759, 50432.17395927596, 22835.369150086543, 27501.78754350991, -9047.181492707909, -3535.6436414293817, -0.11444921875, 0.9704531249999999, 0.29695703124999995, 192.0, 126.0, 56.0, 15.0, 40.0, 4.5, 40.0, 0.0, 0.0, 0.0, 1.7068833433843942E9, 0.0, 2024-02-02 15:15:43.384
116.0, 63186.436973385455, 65573.93855737908, -22957.074398645687, -12279.66842408996, 16575.494894444335, 5356.640262203248, 22977.325079122198, 4841.700773441884, 41744.40851740939, 47227.09026659611, 37516.28548101014, 50449.22834029536, 22849.67426653794, 27513.365747137756, -9031.602326822558, -3520.6232691554155, -0.11444921875, 0.9704531249999999, 0.29695703124999995, 192.0, 0.0, 0.0, 0.0, 0.0, 0.0, 0.0, 0.0, 0.0, 0.0, 1.70688334339243E9, 0.0, 2024-02-02 15:15:43.392
118.0, 63179.105601204115, 65567.68006893159, -22967.713829006414, -12287.603293371594, 16564.94487106143, 5352.281672034464, 22968.898471462548, 4838.370363518044, 41747.4036511664, 47241.21656909187, 37516.508998454694, 50456.246788054326, 22849.160176415466, 27514.282168660426, -9032.228175667307, -3518.477501687706, -0.11444921875, 0.9704531249999999, 0.29695703124999995, 192.0, 0.0, 0.0, 0.0, 0.0, 0.0, 0.0, 0.0, 0.0, 0.0, 1.7068833434017568E9, 0.0, 2024-02-02 15:15:43.401
120.0, 63186.59343559664, 65577.24661555847, -22966.30566910573, -12281.076583990643, 16571.315118231192, 5361.691756450147, 22980.946061723957, 4849.680346212429, 41740.4522586408, 47235.87450216705, 37514.497341453716, 50453.96691011988, 22842.544060056694, 27516.20441868358, -9038.17373969242, -3521.517338933628, -0.11444921875, 0.9704531249999999, 0.29695703124999995, 192.0, 0.0, 0.0, 0.0, 0.0, 0.0, 0.0, 0.0, 0.0, 0.0, 1.7068833434085004E9, 0.0, 2024-02-02 15:15:43.408
122.0, 63181.07255471618, 65574.00561261244, -22975.045201187757, -12289.369081183564, 16565.056629783707, 5352.214616801098, 22962.416465570506, 4839.19737806289, 41745.481401143246, 47242.580025503645, 37516.88897811043, 50458.191389821935, 22848.2437548928, 27524.40750889868, -9034.485701857293, -3519.9750685662116, -0.11444921875, 0.9704531249999999, 0.29695703124999995, 192.0, 0.0, 0.0, 0.0, 0.0, 0.0, 0.0, 0.0, 0.0, 0.0, 1.7068833434164526E9, 0.0, 2024-02-02 15:15:43.416
124.0, 63176.17752268047, 65570.74225792197, -22983.11418093612, -12291.112517251076, 16560.049839025716, 5351.767581911991, 22962.796445226246, 4840.002040863281, 41736.63011033894, 47241.373031303054, 37503.38852445943, 50449.384802506545, 22839.81714723315, 27521.88176177523, -9048.03085899721, -3527.2393855141863, -0.11422460937500001, 0.9732265625, 0.29547851562499994, 192.0, 126.0, 56.0, 15.0, 64.0, 4.5, 24.0, 0.0, 0.0, 0.0, 1.7068833434254713E9, 0.0, 2024-02-02 15:15:43.425
126.0, 63175.68578430245, 65569.44585674356, -22986.131666437588, -12288.832639316635, 16559.491045414336, 5352.39343075674, 22964.11519814911, 4842.170160075446, 41737.45712488379, 47232.00765037628, 37505.62369890496, 50452.961081619396, 22839.1912983884, 27519.31131116287, -9042.59938509457, -3523.3278302345075, -0.11422460937500001, 0.9732265625, 0.29547851562499994, 192.0, 0.0, 0.0, 0.0, 0.0, 0.0, 0.0, 0.0, 0.0, 0.0, 1.7068833434336383E9, 0.0, 2024-02-02 15:15:43.433
128.0, 63169.22613015487, 65566.62953694219, -22995.117067708623, -12298.846220832613, 16551.042086010228, 5341.910462607201, 22955.48742478936, 4832.022468092736, 41725.36483113347, 47232.432333520934, 37490.93860279782, 50441.85226462511, 22822.963931913848, 27512.426973870635, -9059.765524836246, -3539.4657897312395, -0.11422460937500001, 0.9732265625, 0.29547851562499994, 192.0, 0.0, 0.0, 0.0, 0.0, 0.0, 0.0, 0.0, 0.0, 0.0, 1.7068833434404707E9, 0.0, 2024-02-02 15:15:43.440
130.0, 63189.94619726494, 65587.55076975236, -22980.007288456833, -12284.295235192209, 16569.124647274573, 5358.137829081754, 22975.40282909904, 4846.90872989997, 41738.1500289619, 47241.70830746988, 37508.41766696187, 50454.771572920276, 22837.403158831974, 27517.00908148397, -9042.755847305758, -3532.6485076723707, -0.11422460937500001, 0.9732265625, 0.29547851562499994, 192.0, 0.0, 0.0, 0.0, 0.0, 0.0, 0.0, 0.0, 0.0, 0.0, 1.7068833434487493E9, 0.0, 2024-02-02 15:15:43.448
132.0, 63184.693537317944, 65580.7781911824, -22987.65158506055, -12287.916217793969, 16562.933214060453, 5355.545026724938, 22970.97718369689, 4845.947604888393, 41741.480438885745, 47244.56933076016, 37513.580919931046, 50458.549017733225, 22839.1912983884, 27519.557180351876, -9040.230100182307, -3527.4629029587395, -0.11422460937500001, 0.9732265625, 0.29547851562499994, 192.0, 0.0, 0.0, 0.0, 0.0, 0.0, 0.0, 0.0, 0.0, 0.0, 1.7068833434575012E9, 0.0, 2024-02-02 15:15:43.457
134.0, 63180.67022331599, 65574.76557192393, -22997.061669476232, -12295.29229346422, 16558.03818202474, 5351.544064467438, 22967.31149760622, 4841.298442041689, 41732.316223659065, 47243.563502259676, 37503.99202155972, 50451.776439163266, 22834.22921111932, 27518.81957278485, -9043.962841506343, -3530.0110018266446, -0.11422460937500001, 0.9732265625, 0.29547851562499994, 192.0, 0.0, 0.0, 0.0, 0.0, 0.0, 0.0, 0.0, 0.0, 0.0, 1.7068833434648223E9, 0.0, 2024-02-02 15:15:43.464
136.0, 63177.67508955897, 65572.37393526721, -22998.827457288204, -12294.934665552935, 16559.7592663478, 5352.6392999457485, 22964.003439426833, 4839.57735771863, 41726.61652882297, 47226.553824729184, 37503.63439364843, 50448.73660191734, 22832.642237262993, 27518.3948896402, -9047.226196196818, -3530.7709611381247, -0.116, 0.972, 0.294, 192.0, 126.0, 48.0, 15.0, 48.0, 4.5, 24.0, 0.0, 0.0, 0.0, 1.7068833434725983E9, 0.0, 2024-02-02 15:15:43.472
138.0, 63175.37285988008, 65571.9269003781, -22999.587416599683, -12291.760717840281, 16560.56392914819, 5352.39343075674, 22965.679820260983, 4840.069096096647, 41726.035383467126, 47233.572272488156, 37502.42739944785, 50449.47420948437, 22832.776347729727, 27518.730165807032, -9046.443885140883, -3526.635888413893, -0.116, 0.972, 0.294, 192.0, 0.0, 0.0, 0.0, 0.0, 0.0, 0.0, 0.0, 0.0, 0.0, 1.7068833434805384E9, 0.0, 2024-02-02 15:15:43.480
140.0, 63181.29607216073, 65574.65381320164, -22995.385288642086, -12284.943435781412, 16567.00123155132, 5360.082430849366, 22969.30080286274, 4845.43351476592, 41725.00720322218, 47234.756914944286, 37509.40114371791, 50456.06797409868, 22838.341932099098, 27521.702947819587, -9037.45848386985, -3520.4221034553175, -0.116, 0.972, 0.294, 192.0, 0.0, 0.0, 0.0, 0.0, 0.0, 0.0, 0.0, 0.0, 0.0, 1.706883343488566E9, 0.0, 2024-02-02 15:15:43.488
142.0, 63168.44381909893, 65560.1251793057, -23009.64570160457, -12300.880229578046, 16552.85257731111, 5346.045535331433, 22953.095788132643, 4830.010811091758, 41715.44065659531, 47228.6995921969, 37505.04255354912, 50446.859055383095, 22830.76469072875, 27516.182066939124, -9045.46040838485, -3527.5299581921054, -0.116, 0.972, 0.294, 192.0, 0.0, 0.0, 0.0, 0.0, 0.0, 0.0, 0.0, 0.0, 0.0, 1.7068833434965844E9, 0.0, 2024-02-02 15:15:43.496
144.0, 63177.71979304789, 65571.9269003781, -23005.532980624794, -12292.699491107403, 16560.765094848288, 5354.293329035441, 22965.299840605243, 4839.95733737437, 41714.59129030601, 47234.62280447755, 37504.7519808712, 50447.015517594285, 22827.23311510481, 27514.34922389379, -9048.433190397405, -3528.446379714773, -0.116, 0.972, 0.294, 192.0, 0.0, 0.0, 0.0, 0.0, 0.0, 0.0, 0.0, 0.0, 0.0, 1.706883343504578E9, 0.0, 2024-02-02 15:15:43.504
146.0, 63183.79946753973, 65580.3758597822, -23007.142306225578, -12288.0503282607, 16560.407466937002, 5359.255416304519, 22962.438817314964, 4840.359668774566, 41719.50867408618, 47235.42746727794, 37515.9055013544, 50458.28079679976, 22834.27391460823, 27521.7476513085, -9041.45944612735, -3518.7233708767144, -0.112, 0.968, 0.294, 192.0, 126.0, 64.0, 15.0, 32.0, 4.5, 24.0, 0.0, 0.0, 0.0, 1.7068833435136E9, 0.0, 2024-02-02 15:15:43.513
148.0, 63171.349545878125, 65572.68685968958, -23017.26764646383, -12296.85691557609, 16552.651411611012, 5347.2972330209295, 22952.20171835443, 4830.033162836214, 41712.71374377176, 47245.48575228283, 37508.50707393969, 50457.11850608808, 22832.57518202963, 27520.607712341276, -9047.717934574835, -3523.1713680233206, -0.112, 0.968, 0.294, 192.0, 0.0, 0.0, 0.0, 0.0, 0.0, 0.0, 0.0, 0.0, 0.0, 1.706883343519627E9, 0.0, 2024-02-02 15:15:43.519
150.0, 63168.53322607675, 65568.55178696536, -23016.574742385717, -12295.202886486399, 16556.339449446135, 5350.135904566754, 22961.365933581106, 4834.235290793811, 41699.615621520956, 47232.722906198855, 37500.505149424695, 50447.39549725002, 22823.299208080676, 27508.314252890857, -9053.015298010743, -3527.1052750474546, -0.112, 0.968, 0.294, 192.0, 0.0, 0.0, 0.0, 0.0, 0.0, 0.0, 0.0, 0.0, 0.0, 1.7068833435285876E9, 0.0, 2024-02-02 15:15:43.528
152.0, 63170.701345288915, 65572.55274922284, -23019.815745331736, -12296.43223243144, 16555.64654536802, 5349.465352233095, 22963.578756282182, 4833.676497182429, 41705.002391934686, 47232.655850965486, 37509.445847206815, 50455.9115118875, 22832.217554118342, 27508.33660463531, -9043.225233939318, -3520.958545322245, -0.112, 0.968, 0.294, 192.0, 0.0, 0.0, 0.0, 0.0, 0.0, 0.0, 0.0, 0.0, 0.0, 1.7068833435366406E9, 0.0, 2024-02-02 15:15:43.536
154.0, 63169.53905457724, 65572.26217654493, -23023.704948866958, -12297.348653954108, 16553.634888367043, 5349.353593510818, 22956.11327363411, 4829.854348880572, 41699.68267675432, 47239.40607779099, 37498.49349242372, 50453.6092822086, 22828.08248139411, 27513.07517445984, -9046.823864796623, -3527.1499785363653, -0.112, 0.968, 0.294, 192.0, 0.0, 0.0, 0.0, 0.0, 0.0, 0.0, 0.0, 0.0, 0.0, 1.7068833435446367E9, 0.0, 2024-02-02 15:15:43.544
156.0, 63170.09784818863, 65573.13389457868, -23022.207381988454, -12295.381700442042, 16562.687344871443, 5356.349689525329, 22968.138512151065, 4837.655107695474, 41701.493168055196, 47232.58879573212, 37504.684925637834, 50455.79975316522, 22833.826879719127, 27519.937160007616, -9040.095989715575, -3522.9031470898567, -0.11, 0.964, 0.292, 192.0, 126.0, 72.0, 15.0, 16.0, 4.5, 16.0, 0.0, 0.0, 0.0, 1.7068833435529132E9, 0.0, 2024-02-02 15:15:43.552
158.0, 63158.25142362731, 65563.00855434043, -23032.243315248885, -12305.372930213563, 16555.355972690104, 5351.856988889813, 22955.53212827827, 4830.770770403239, 41689.37852256042, 47234.82397017765, 37493.28553596563, 50448.200160050415, 22824.103870881067, 27514.505686104978, -9047.136789218997, -3528.5581384370494, -0.11, 0.964, 0.292, 192.0, 0.0, 0.0, 0.0, 0.0, 0.0, 0.0, 0.0, 0.0, 0.0, 1.7068833435606525E9, 0.0, 2024-02-02 15:15:43.560
160.0, 63159.88310097255, 65562.38270549568, -23035.394911217085, -12305.216468002376, 16557.412333179993, 5352.77341041248, 22958.929593435478, 4834.257642538267, 41683.947048657785, 47231.82883642064, 37492.749094098705, 50441.964023347384, 22825.556734270664, 27509.811819769362, -9047.7849898082, -3526.725295391714, -0.11, 0.964, 0.292, 192.0, 0.0, 0.0, 0.0, 0.0, 0.0, 0.0, 0.0, 0.0, 0.0, 1.7068833435687647E9, 0.0, 2024-02-02 15:15:43.568
162.0, 63166.163941164494, 65564.48376947448, -23033.27149549383, -12303.048348790211, 16562.84380708263, 5355.589730213849, 22974.084076176176, 4842.572491475641, 41682.94122015729, 47232.63349922103, 37499.00758254619, 50443.26042452579, 22828.0377779052, 27508.73893603551, -9044.633393840002, -3523.9089755903456, -0.11, 0.964, 0.292, 192.0, 0.0, 0.0, 0.0, 0.0, 0.0, 0.0, 0.0, 0.0, 0.0, 1.7068833435759137E9, 0.0, 2024-02-02 15:15:43.575
164.0, 63167.50504583181, 65569.53526372138, -23034.500841438872, -12301.39431970052, 16558.95460354741, 5356.081468591866, 22966.551538294738, 4839.3761920185325, 41679.94608640028, 47239.495484768806, 37497.19709124531, 50443.34983150361, 22826.89783893798, 27511.555255836876, -9045.192187451386, -3525.3618389799403, -0.11, 0.964, 0.292, 192.0, 0.0, 0.0, 0.0, 0.0, 0.0, 0.0, 0.0, 0.0, 0.0, 1.7068833435847468E9, 0.0, 2024-02-02 15:15:43.584
166.0, 63169.89668248853, 65574.25148180145, -23028.84585009168, -12294.778203341748, 16565.90599607301, 5362.429364017173, 22969.3231546072, 4847.62398572254, 41680.594286989486, 47237.461476023374, 37506.83069310554, 50453.6092822086, 22831.725815740327, 27514.885665760718, -9038.441960625883, -3520.176234266309, -0.11, 0.964, 0.292, 192.0, 126.0, 72.0, 15.0, 16.0, 4.5, 16.0, 0.0, 0.0, 0.0, 1.7068833435927532E9, 0.0, 2024-02-02 15:15:43.592
168.0, 63154.11635090308, 65557.6217839267, -23040.066425808243, -12307.116366281078, 16556.339449446135, 5350.605291200315, 22959.108407391122, 4836.805741406172, 41674.17933633082, 47241.1495138585, 37501.30981222508, 50447.484904227844, 22830.3400075841, 27510.102392447283, -9040.07363797112, -3521.6290976559044, -0.11, 0.964, 0.292, 192.0, 0.0, 0.0, 0.0, 0.0, 0.0, 0.0, 0.0, 0.0, 0.0, 1.7068833436009097E9, 0.0, 2024-02-02 15:15:43.600
170.0, 63162.45355158491, 65563.54499620736, -23034.120861783133, -12301.81900284517, 16566.151865262018, 5362.071736105888, 22973.03354418678, 4847.288709555711, 41665.350397270966, 47231.29239455371, 37498.87347207945, 50442.23224428085, 22822.651007491473, 27510.43766861411, -9043.180530450409, -3527.5523099365605, -0.11, 0.964, 0.292, 192.0, 0.0, 0.0, 0.0, 0.0, 0.0, 0.0, 0.0, 0.0, 0.0, 1.706883343608744E9, 0.0, 2024-02-02 15:15:43.608
172.0, 63165.24751964182, 65565.46724623052, -23036.199574017475, -12302.95894181239, 16563.22378673837, 5357.8025529149245, 22964.294012104754, 4843.220692064845, 41669.73133918421, 47232.25351956529, 37505.400181460405, 50449.49656122882, 22830.228248861822, 27515.936197750118, -9036.810283280645, -3520.2656412441306, -0.11, 0.964, 0.292, 192.0, 0.0, 0.0, 0.0, 0.0, 0.0, 0.0, 0.0, 0.0, 0.0, 1.706883343616941E9, 0.0, 2024-02-02 15:15:43.616
174.0, 63165.00165045282, 65566.51777821992, -23039.328818241218, -12307.406938958997, 16565.99540305083, 5352.8181139013905, 22965.143378394056, 4840.225558307834, 41665.52921122661, 47231.85118816509, 37501.37686745845, 50443.5062937148, 22832.552830285174, 27512.426973870635, -9042.129998461009, -3527.708772147748, -0.11, 0.964, 0.292, 192.0, 0.0, 0.0, 0.0, 0.0, 0.0, 0.0, 0.0, 0.0, 0.0, 1.706883343624772E9, 0.0, 2024-02-02 15:15:43.624
176.0, 63166.83449349815, 65564.90845261913, -23043.08391130971, -12310.357369227097, 16566.75536236231, 5354.24862554653, 22968.183215639976, 4839.95733737437, 41666.69150193829, 47221.189406059915, 37506.0036785607, 50444.51212221529, 22835.45855706436, 27506.97314822354, -9039.336030404094, -3532.2014727832643, -0.112, 0.972, 0.3, 192.0, 126.0, 64.0, 15.0, 48.0, 4.5, 48.0, 0.0, 0.0, 0.0, 1.7068833436318767E9, 0.0, 2024-02-02 15:15:43.631
178.0, 63170.36606912209, 65565.44489448606, -23040.580515930717, -12306.177593013954, 16569.526978674767, 5353.555721468416, 22979.046163445255, 4846.90872989997, 41665.52921122661, 47224.85509215058, 37505.51194018268, 50451.17294206297, 22835.838536720104, 27505.609691811766, -9037.771408292223, -3530.189815782287, -0.112, 0.972, 0.3, 192.0, 0.0, 0.0, 0.0, 0.0, 0.0, 0.0, 0.0, 0.0, 0.0, 1.7068833436407764E9, 0.0, 2024-02-02 15:15:43.640
180.0, 63178.70326980392, 65573.93855737908, -23033.003274560368, -12293.660616118983, 16576.321908989183, 5365.558608240915, 22984.008250714334, 4858.017546894258, 41668.837269405994, 47222.3964002605, 37512.32922224155, 50454.39159326453, 22842.05232167868, 27513.365747137756, -9030.730608788803, -3520.086827288488, -0.112, 0.972, 0.3, 192.0, 0.0, 0.0, 0.0, 0.0, 0.0, 0.0, 0.0, 0.0, 0.0, 1.706883343649007E9, 0.0, 2024-02-02 15:15:43.649
182.0, 63165.40398185301, 65564.88610087468, -23047.0401700783, -12304.635322646538, 16566.665955384487, 5355.835599402857, 22971.670087775005, 4847.512227000264, 41664.47867923721, 47218.99893510329, 37512.35157398601, 50453.18459906395, 22842.65581877897, 27521.412375141666, -9028.473082598815, -3516.018809797622, -0.112, 0.972, 0.3, 192.0, 0.0, 0.0, 0.0, 0.0, 0.0, 0.0, 0.0, 0.0, 0.0, 1.706883343656809E9, 0.0, 2024-02-02 15:15:43.656
184.0, 63161.24655738432, 65558.04646707136, -23057.500786483382, -12313.643075662027, 16560.18394949245, 5350.046497588933, 22965.03161967178, 4841.521959486242, 41651.29115000858, 47215.69087692391, 37497.08533252303, 50441.67345066946, 22829.535344783708, 27505.49793308949, -9045.393353151483, -3529.2063390262533, -0.112, 0.972, 0.3, 192.0, 0.0, 0.0, 0.0, 0.0, 0.0, 0.0, 0.0, 0.0, 0.0, 1.7068833436648245E9, 0.0, 2024-02-02 15:15:43.664
186.0, 63165.51574057528, 65559.85695837224, -23054.729170170925, -12313.285447750743, 16568.297632729726, 5352.549892967927, 22974.486407576373, 4844.606500221074, 41648.94421684077, 47206.88428960852, 37500.99688780271, 50441.42758148046, 22832.530478540717, 27506.324947634334, -9038.777236792712, -3526.0323913136, -0.116, 0.972, 0.302, 192.0, 126.0, 48.0, 15.0, 48.0, 4.5, 56.0, 0.0, 0.0, 0.0, 1.706883343672826E9, 0.0, 2024-02-02 15:15:43.672
188.0, 63160.68776377294, 65556.5265484484, -23063.17812957503, -12318.694569908926, 16557.233519224348, 5344.726782408569, 22955.040389900256, 4832.357744259566, 41646.3290627395, 47211.958135599874, 37496.034800533635, 50441.44993322491, 22834.922115197434, 27499.842941742296, -9047.941452019388, -3531.4638652162394, -0.116, 0.972, 0.302, 192.0, 0.0, 0.0, 0.0, 0.0, 0.0, 0.0, 0.0, 0.0, 0.0, 1.7068833436810775E9, 0.0, 2024-02-02 15:15:43.681
190.0, 63179.41852562649, 65576.46430450253, -23045.11792005514, -12297.080433020645, 16575.62900491107, 5364.44102101815, 22974.084076176176, 4850.2391398238115, 41654.84507737697, 47217.97075485835, 37507.65770765039, 50453.07284034167, 22841.42647283393, 27513.432802371124, -9041.280632171707, -3525.7865221245916, -0.116, 0.972, 0.302, 192.0, 0.0, 0.0, 0.0, 0.0, 0.0, 0.0, 0.0, 0.0, 0.0, 1.7068833436878722E9, 0.0, 2024-02-02 15:15:43.687
192.0, 63172.57889182316, 65574.0279643569, -23054.639763193103, -12300.455546433395, 16568.409391452, 5355.790895913947, 22974.59816629865, 4845.209997321367, 41657.99667334517, 47224.16218807247, 37515.592576932024, 50464.472230013875, 22844.57806880213, 27521.613540841765, -9031.26705065573, -3516.3540859644518, -0.116, 0.972, 0.302, 192.0, 0.0, 0.0, 0.0, 0.0, 0.0, 0.0, 0.0, 0.0, 0.0, 1.7068833436969047E9, 0.0, 2024-02-02 15:15:43.696
194.0, 63174.38938312404, 65576.55371148034, -23052.98573410341, -12299.762642355281, 16571.806856609208, 5358.875436648779, 22977.54859656675, 4849.099200856591, 41648.25131276266, 47228.85605440808, 37509.26703325117, 50457.94552063293, 22838.073711165634, 27515.35505239428, -9036.430303624906, -3521.5843941669937, -0.116, 0.972, 0.302, 192.0, 0.0, 0.0, 0.0, 0.0, 0.0, 0.0, 0.0, 0.0, 0.0, 1.7068833437050478E9, 0.0, 2024-02-02 15:15:43.705
196.0, 63170.74604877783, 65570.45168524406, -23059.870071395646, -12307.786918614736, 16569.348164719126, 5354.762715669002, 22981.25898614633, 4848.741572945306, 41645.569103428024, 47226.64323170701, 37512.865664108474, 50458.23609331085, 22841.739397256304, 27515.131534949727, -9030.440036110884, -3519.863309843935, -0.12, 0.976, 0.304, 192.0, 126.0, 32.0, 15.0, 64.0, 4.5, 64.0, 0.0, 0.0, 0.0, 1.7068833437128744E9, 0.0, 2024-02-02 15:15:43.712
198.0, 63169.62846155506, 65572.30688003384, -23063.111074341665, -12309.016264559777, 16561.70386811541, 5351.365250511796, 22963.444645815453, 4843.108933342568, 41640.69642313677, 47228.36431603006, 37505.78016111615, 50453.095192086126, 22838.140766399, 27509.38713662471, -9036.966745491833, -3524.9371558352896, -0.12, 0.976, 0.304, 192.0, 0.0, 0.0, 0.0, 0.0, 0.0, 0.0, 0.0, 0.0, 0.0, 1.7068833437199223E9, 0.0, 2024-02-02 15:15:43.719
200.0, 63170.23195865536, 65573.51387423443, -23061.41234176306, -12300.43319468894, 16567.112990273596, 5355.388564513751, 22971.35716335263, 4850.172084590446, 41637.29895797956, 47223.625746205544, 37507.143617527916, 50454.905683387005, 22838.677208265926, 27510.3929651252, -9038.576071092615, -3525.2724320021193, -0.12, 0.976, 0.304, 192.0, 0.0, 0.0, 0.0, 0.0, 0.0, 0.0, 0.0, 0.0, 0.0, 1.7068833437289548E9, 0.0, 2024-02-02 15:15:43.728
202.0, 63165.91807197548, 65568.01534509842, -23063.535757486316, -12305.060005791189, 16568.767019363288, 5349.443000488639, 22973.92761396499, 4846.886378155516, 41636.67310913481, 47223.75985667227, 37508.752943128704, 50458.28079679976, 22841.694693767393, 27509.722412791543, -9031.959954733844, -3519.148054021365, -0.12, 0.976, 0.304, 192.0, 0.0, 0.0, 0.0, 0.0, 0.0, 0.0, 0.0, 0.0, 0.0, 1.7068833437362487E9, 0.0, 2024-02-02 15:15:43.736
204.0, 63169.516702832785, 65570.76460966642, -23061.457045251973, -12306.378758714052, 16570.823379853176, 5348.191302799142, 22975.26871863231, 4846.707564199873, 41631.33104220999, 47226.218548562356, 37505.1543122714, 50453.56457871969, 22839.101891410577, 27499.172389408635, -9036.810283280645, -3522.2772982451083, -0.12, 0.976, 0.304, 192.0, 0.0, 0.0, 0.0, 0.0, 0.0, 0.0, 0.0, 0.0, 0.0, 1.7068833437439754E9, 0.0, 2024-02-02 15:15:43.743
206.0, 63167.12506617607, 65566.71894392002, -23065.48035925393, -12309.53035468225, 16570.08577228615, 5340.658764917704, 22980.007288456833, 4843.645375209496, 41632.359222454936, 47218.395438003, 37514.51969319817, 50461.544151490234, 22843.348722857085, 27507.39783136819, -9030.037704710687, -3520.60091741096, -0.11800000000000001, 0.974, 0.302, 192.0, 126.0, 40.0, 15.0, 56.0, 4.5, 56.0, 0.0, 0.0, 0.0, 1.7068833437529664E9, 0.0, 2024-02-02 15:15:43.752
208.0, 63163.16880740748, 65566.45072298656, -23075.85156868119, -12312.950171583912, 16564.497836172322, 5336.881320104757, 22967.535015050773, 4835.3305262721215, 41623.03854501707, 47219.781246159226, 37505.62369890496, 50454.905683387005, 22835.70442625337, 27499.082982430817, -9038.330201903605, -3524.0430860570773, -0.11800000000000001, 0.974, 0.302, 192.0, 0.0, 0.0, 0.0, 0.0, 0.0, 0.0, 0.0, 0.0, 0.0, 1.7068833437610579E9, 0.0, 2024-02-02 15:15:43.761
210.0, 63171.2601389003, 65571.88219688919, -23072.118827357153, -12304.47886043535, 16572.030374053764, 5349.241834788541, 22976.185140154976, 4847.914558400459, 41620.892777549365, 47221.30116478219, 37506.40600996089, 50456.04562235423, 22836.419682075943, 27506.34729937879, -9038.486664114793, -3528.4016762258625, -0.11800000000000001, 0.974, 0.302, 192.0, 0.0, 0.0, 0.0, 0.0, 0.0, 0.0, 0.0, 0.0, 0.0, 1.7068833437683845E9, 0.0, 2024-02-02 15:15:43.768
212.0, 63165.09105743063, 65570.38463001068, -23072.074123868242, -12304.992950557822, 16572.70092638742, 5350.493532478039, 22980.36491636812, 4850.306195057177, 41624.69257410677, 47222.53051072723, 37512.48568445274, 50460.96300613439, 22843.259315879266, 27511.4434971146, -9026.819053509123, -3518.3880947098846, -0.11800000000000001, 0.974, 0.302, 192.0, 0.0, 0.0, 0.0, 0.0, 0.0, 0.0, 0.0, 0.0, 0.0, 1.7068833437760177E9, 0.0, 2024-02-02 15:15:43.776
214.0, 63156.01624918178, 65563.81321714082, -23083.451161795994, -12317.375816986063, 16560.720391359377, 5343.743305652536, 22963.60110802664, 4837.744514673294, 41612.71203907872, 47219.15539731448, 37499.879300579945, 50446.590834449635, 22832.731644240816, 27503.083944688315, -9038.97840249281, -3530.547443693572, -0.11800000000000001, 0.974, 0.302, 192.0, 0.0, 0.0, 0.0, 0.0, 0.0, 0.0, 0.0, 0.0, 0.0, 1.706883343785015E9, 0.0, 2024-02-02 15:15:43.785
216.0, 63171.97539472287, 65578.4759615035, -23073.32582155774, -12299.96380805538, 16576.94775783393, 5360.685927949658, 22984.008250714334, 4858.263416083267, 41617.09298099196, 47213.52275771174, 37508.10474253949, 50452.737564174844, 22839.01248443276, 27512.046994214892, -9032.116416945031, -3525.540652935583, -0.112, 0.974, 0.296, 192.0, 126.0, 64.0, 15.0, 56.0, 4.5, 32.0, 0.0, 0.0, 0.0, 1.7068833437920864E9, 0.0, 2024-02-02 15:15:43.792
218.0, 63164.912243474995, 65572.35158352274, -23086.938033931023, -12309.686816893438, 16563.179083249463, 5352.259320290008, 22968.63025052908, 4847.95926188937, 41622.1221234944, 47228.83370266363, 37510.228158262755, 50457.74435493283, 22844.198089146386, 27516.562046594867, -9033.077541956609, -3519.528033677105, -0.112, 0.974, 0.296, 192.0, 0.0, 0.0, 0.0, 0.0, 0.0, 0.0, 0.0, 0.0, 0.0, 1.7068833438002627E9, 0.0, 2024-02-02 15:15:43.800
220.0, 63168.35441212111, 65579.81706617083, -23083.60762400718, -12301.86370633408, 16568.387039707548, 5357.959015126111, 22971.893605219557, 4852.384907291521, 41614.00844025713, 47221.12235082655, 37507.30007973911, 50453.96691011988, 22839.86185072206, 27510.102392447283, -9041.168873449431, -3527.4629029587395, -0.112, 0.974, 0.296, 192.0, 0.0, 0.0, 0.0, 0.0, 0.0, 0.0, 0.0, 0.0, 0.0, 1.7068833438080342E9, 0.0, 2024-02-02 15:15:43.808
222.0, 63164.33109811915, 65575.30201379085, -23087.116847886664, -12305.976427313857, 16565.32485071717, 5355.030936602466, 22970.59720404115, 4849.814456679161, 41613.91903327931, 47221.07764733764, 37512.396277474916, 50459.26427355579, 22843.125205412533, 27521.524133863943, -9034.128073946009, -3520.891490088879, -0.112, 0.974, 0.296, 192.0, 0.0, 0.0, 0.0, 0.0, 0.0, 0.0, 0.0, 0.0, 0.0, 1.706883343817062E9, 0.0, 2024-02-02 15:15:43.817
224.0, 63164.86753998608, 65575.19025506858, -23090.42490606605, -12310.044444804722, 16568.029411796262, 5354.472142991083, 22981.571910568706, 4853.681308469929, 41604.33013490798, 47223.0446008497, 37499.67813487985, 50450.6588519405, 22834.18450763041, 27512.002290725984, -9040.8335972826, -3527.7758273811137, -0.112, 0.974, 0.296, 192.0, 0.0, 0.0, 0.0, 0.0, 0.0, 0.0, 0.0, 0.0, 0.0, 1.7068833438243484E9, 0.0, 2024-02-02 15:15:43.824
226.0, 63168.22030165438, 65577.55953998084, -23087.0497926533, -12306.311703480686, 16572.119781031583, 5359.948320382634, 22980.700192534947, 4856.229407337833, 41611.41563790031, 47221.63644094902, 37509.89288209592, 50454.771572920276, 22846.075635680634, 27515.287997160915, -9028.383675620995, -3522.187891267287, -0.112, 0.98, 0.294, 192.0, 126.0, 64.0, 15.0, 80.0, 4.5, 24.0, 0.0, 0.0, 0.0, 1.706883343832254E9, 0.0, 2024-02-02 15:15:43.832
228.0, 63162.72177251837, 65574.0279643569, -23097.62216778066, -12312.883116350546, 16559.021658780774, 5347.341936509841, 22960.62832601408, 4841.298442041689, 41604.821873286, 47224.83274040613, 37503.008544803684, 50451.3070525297, 22838.654856521473, 27513.25398841548, -9038.64312632598, -3530.0110018266446, -0.112, 0.98, 0.294, 192.0, 0.0, 0.0, 0.0, 0.0, 0.0, 0.0, 0.0, 0.0, 0.0, 1.7068833438411272E9, 0.0, 2024-02-02 15:15:43.841
230.0, 63169.516702832785, 65580.42056327112, -23093.978833434445, -12306.266999991776, 16567.269452484783, 5357.288462792452, 22970.038410429766, 4848.495703756297, 41605.96181225322, 47224.16218807247, 37509.06586755108, 50457.96787237738, 22841.962914700856, 27512.337566892813, -9037.994925736777, -3527.015868069633, -0.112, 0.98, 0.294, 192.0, 0.0, 0.0, 0.0, 0.0, 0.0, 0.0, 0.0, 0.0, 0.0, 1.7068833438484032E9, 0.0, 2024-02-02 15:15:43.848
232.0, 63162.386496351544, 65574.20677831254, -23106.62992079615, -12316.034712318744, 16561.36859194858, 5345.48674172005, 22958.057875401722, 4838.280956540222, 41606.25238493113, 47218.529548469734, 37508.48472219524, 50459.17486657797, 22847.550850814685, 27519.82540128534, -9037.994925736777, -3528.960469837245, -0.112, 0.98, 0.294, 192.0, 0.0, 0.0, 0.0, 0.0, 0.0, 0.0, 0.0, 0.0, 0.0, 1.7068833438561232E9, 0.0, 2024-02-02 15:15:43.856
234.0, 63150.87534795706, 65564.01438284092, -23118.96808373548, -12323.902526367012, 16554.17133023397, 5337.14954103822, 22957.856709701624, 4832.6259651930295, 41594.875347003384, 47218.395438003, 37496.61594588947, 50449.541264717736, 22837.224344876333, 27505.45322960058, -9050.780123565213, -3537.5658914525384, -0.112, 0.98, 0.294, 192.0, 0.0, 0.0, 0.0, 0.0, 0.0, 0.0, 0.0, 0.0, 0.0, 1.7068833438641448E9, 0.0, 2024-02-02 15:15:43.864
236.0, 63162.36414460709, 65574.05031610136, -23107.0546039408, -12311.542011683228, 16561.99444079333, 5349.264186532997, 22967.333849350674, 4844.941776387904, 41586.918125977296, 47203.91150759596, 37497.644126134415, 50446.300261771714, 22831.36818782904, 27495.372592851236, -9049.997812509277, -3541.1421705653875, -0.113, 0.977, 0.295, 192.0, 126.0, 56.0, 15.0, 56.0, 4.5, 32.0, 0.0, 0.0, 0.0, 1.7068833438734896E9, 0.0, 2024-02-02 15:15:43.873
238.0, 63158.51964456077, 65569.53526372138, -23110.116792931178, -12315.140642540533, 16561.770923348777, 5347.744267910036, 22962.818796970703, 4841.209035063867, 41595.94823073724, 47221.01059210427, 37508.41766696187, 50460.09128810064, 22845.695656024895, 27512.136401192714, -9038.866643770534, -3528.692248903781, -0.113, 0.977, 0.295, 192.0, 0.0, 0.0, 0.0, 0.0, 0.0, 0.0, 0.0, 0.0, 0.0, 1.7068833438801465E9, 0.0, 2024-02-02 15:15:43.880
240.0, 63160.866577728586, 65571.47986548899, -23109.46859234197, -12313.285447750743, 16567.202397251414, 5356.595558714337, 22973.301765120243, 4848.495703756297, 41588.818024256, 47212.2934117667, 37504.841387849025, 50451.66468044099, 22842.72287401234, 27504.983842967016, -9037.682001314402, -3530.4133332268398, -0.113, 0.977, 0.295, 192.0, 0.0, 0.0, 0.0, 0.0, 0.0, 0.0, 0.0, 0.0, 0.0, 1.7068833438881886E9, 0.0, 2024-02-02 15:15:43.888
242.0, 63165.24751964182, 65576.79958066935, -23107.456935340993, -12308.323360481663, 16573.013850809795, 5356.684965692159, 22974.97814595439, 4851.423782279942, 41591.321419634995, 47213.81333038966, 37511.412800718885, 50456.04562235423, 22851.842385750104, 27511.152924436683, -9030.64120181098, -3520.8467865999687, -0.113, 0.977, 0.295, 192.0, 0.0, 0.0, 0.0, 0.0, 0.0, 0.0, 0.0, 0.0, 0.0, 1.706883343896391E9, 0.0, 2024-02-02 15:15:43.896
244.0, 63152.84230146913, 65566.4283712421, -23122.320845403774, -12320.080378065155, 16561.010964037298, 5344.033878330455, 22960.807139969726, 4835.486988483309, 41585.82289049899, 47222.798731660696, 37505.534291927135, 50455.62093920958, 22846.925001969936, 27506.615520312254, -9038.26314667024, -3528.0664000590327, -0.113, 0.977, 0.295, 192.0, 0.0, 0.0, 0.0, 0.0, 0.0, 0.0, 0.0, 0.0, 0.0, 1.7068833439041984E9, 0.0, 2024-02-02 15:15:43.904
246.0, 63159.05608642771, 65575.01144111293, -23113.313092388285, -12308.658636648493, 16573.460885698903, 5355.254454047019, 22975.179311654487, 4848.383945034021, 41574.78112873806, 47212.85220537808, 37502.874434336954, 50450.4576862404, 22846.455615336374, 27506.414354612156, -9039.403085637461, -3531.1062373049544, -0.1135, 0.9744999999999999, 0.2945, 192.0, 126.0, 56.0, 15.0, 48.0, 4.5, 24.0, 0.0, 0.0, 0.0, 1.706883343912278E9, 0.0, 2024-02-02 15:15:43.912
248.0, 63143.029885653246, 65561.10865606173, -23130.456880385504, -12327.501157224317, 16556.65237386851, 5335.29434624843, 22960.62832601408, 4829.966107602848, 41575.9657711942, 47222.41875200495, 37502.89678608141, 50451.84349439663, 22850.210708404866, 27510.3929651252, -9041.593556594082, -3530.279222760108, -0.1135, 0.9744999999999999, 0.2945, 192.0, 0.0, 0.0, 0.0, 0.0, 0.0, 0.0, 0.0, 0.0, 0.0, 1.7068833439202535E9, 0.0, 2024-02-02 15:15:43.920
250.0, 63146.33794383263, 65568.26121428743, -23127.886429773145, -12322.96375309989, 16562.352068704615, 5343.408029485707, 22967.378552839586, 4836.761037917261, 41562.21944835418, 47208.6947809094, 37492.36911444296, 50438.767723890276, 22838.163118143453, 27499.574720808832, -9047.852045041567, -3544.60669095596, -0.1135, 0.9744999999999999, 0.2945, 192.0, 0.0, 0.0, 0.0, 0.0, 0.0, 0.0, 0.0, 0.0, 0.0, 1.706883343929469E9, 0.0, 2024-02-02 15:15:43.929
252.0, 63139.051275140206, 65561.93567060657, -23133.407310653605, -12325.981238601356, 16554.551309889714, 5341.0163928289885, 22956.895584690046, 4832.201282048379, 41561.526544276065, 47211.28758326621, 37497.286498223126, 50448.22251179487, 22837.17964138742, 27504.000366210985, -9042.331164161107, -3540.739839165192, -0.1135, 0.9744999999999999, 0.2945, 192.0, 0.0, 0.0, 0.0, 0.0, 0.0, 0.0, 0.0, 0.0, 0.0, 1.706883343936229E9, 0.0, 2024-02-02 15:15:43.936
254.0, 63141.10763563009, 65563.96967935201, -23131.30624667481, -12323.164918799988, 16558.686382613945, 5339.742343395036, 22960.74008473636, 4835.844616394594, 41557.10089887392, 47223.2457665498, 37492.100893509494, 50450.39063100704, 22840.733568755815, 27503.39686911069, -9046.622699096526, -3540.5610252095494, -0.1135, 0.9744999999999999, 0.2945, 192.0, 0.0, 0.0, 0.0, 0.0, 0.0, 0.0, 0.0, 0.0, 0.0, 1.7068833439442737E9, 0.0, 2024-02-02 15:15:43.944
0.0, 63134.04448438221, 65555.43131297009, -23141.073959001777, -12332.709113682404, 16554.104275000605, 5333.260337502997, 22952.62640149908, 4828.803816891172, 41555.20100059522, 47209.96883034335, 37493.19612898781, 50445.31678501568, 22844.93569671341, 27500.133514420217, -9046.779161307712, -3540.382211253907, -0.11375, 0.97225, 0.29525, 192.0, 126.0, 56.0, 15.0, 40.0, 4.5, 32.0, 0.0, 0.0, 0.0, 1.706883343952286E9, 0.0, 2024-02-02 15:15:43.952
2.0, 63133.373932048555, 65556.48184495949, -23145.276086959373, -12336.35244802862, 16551.019734265774, 5328.544119422927, 22948.133700863567, 4825.674572667429, 41549.143677847824, 47204.71617039635, 37481.774387571146, 50432.73275288734, 22836.75495824277, 27491.237520127004, -9059.877283558522, -3552.116877092943, -0.11375, 0.97225, 0.29525, 192.0, 0.0, 0.0, 0.0, 0.0, 0.0, 0.0, 0.0, 0.0, 0.0, 1.706883343959294E9, 0.0, 2024-02-02 15:15:43.959
4.0, 63147.075551399656, 65567.43419974258, -23133.47436588697, -12326.405921746007, 16565.36955420608, 5339.183549783654, 22966.238613872363, 4839.6667646964515, 41555.33511106195, 47209.790016387706, 37491.206823731285, 50436.867825611575, 22845.047455435688, 27494.053839928372, -9052.255338699262, -3548.9876328692003, -0.11375, 0.97225, 0.29525, 192.0, 0.0, 0.0, 0.0, 0.0, 0.0, 0.0, 0.0, 0.0, 0.0, 1.7068833439683166E9, 0.0, 2024-02-02 15:15:43.968
6.0, 63147.0531996552, 65567.32244102031, -23137.63179035566, -12326.830604890658, 16558.731086102856, 5336.166064282187, 22957.45437830143, 4834.704677427373, 41562.59942800992, 47218.57425195864, 37505.91427158288, 50450.4576862404, 22853.630525306526, 27506.079078445327, -9040.006582737755, -3538.2364437861975, -0.11375, 0.97225, 0.29525, 192.0, 0.0, 0.0, 0.0, 0.0, 0.0, 0.0, 0.0, 0.0, 0.0, 1.7068833439763157E9, 0.0, 2024-02-02 15:15:43.976
