%OpenBCI Raw EXG Data
%Number of channels = 16
%Sample Rate = 125 Hz
%Board = OpenBCI_GUI$BoardCytonSerialDaisy
Sample Index, EXG Channel 0, EXG Channel 1, EXG Channel 2, EXG Channel 3, EXG Channel 4, EXG Channel 5, EXG Channel 6, EXG Channel 7, EXG Channel 8, EXG Channel 9, EXG Channel 10, EXG Channel 11, EXG Channel 12, EXG Channel 13, EXG Channel 14, EXG Channel 15, Accel Channel 0, Accel Channel 1, Accel Channel 2, Other, Other, Other, Other, Other, Other, Other, Analog Channel 0, Analog Channel 1, Analog Channel 2, Timestamp, Other, Timestamp (Formatted)
252.0, 60122.01280856285, 64748.75685557805, -28306.003309011856, -2911.180604837013, 18066.28919437995, 9520.434978060124, 29543.351178568744, 3469.326015630486, 31574.49890071141, 44431.244663148485, 34931.194476031604, 43634.0473454055, 25135.564820237738, 23825.417318989912, -2057.5004288554705, 245.53391284154807, 0.0, 0.0, 0.0, 192.0, 0.0, 0.0, 0.0, 0.0, 0.0, 0.0, 0.0, 0.0, 0.0, 1.7068825015679843E9, 0.0, 2024-02-02 15:01:41.567
254.0, 60114.16734625904, 64744.934707276196, -28311.70300384796, -2966.1658961970684, 18055.89563320823, 9495.870410903743, 29535.259847075922, 3464.2074661502206, 31546.0451300198, 44423.64507003368, 34948.00298786199, 43644.485610066135, 25078.81374106571, 23849.557203001645, -2039.708440269046, 247.5008663536151, -0.051000000000000004, 0.498, 0.111, 192.0, 126.0, 104.0, 15.5, 16.0, 3.0, 120.0, 0.0, 0.0, 0.0, 1.706882501568004E9, 0.0, 2024-02-02 15:01:41.568
0.0, 30053.686207972314, 31693.544291680373, -15458.086485634625, -1196.6676946482296, 8893.602656555493, 4727.975097653281, 14454.984897969354, 2087.049435025386, 15778.543445890362, 22199.014985443948, 17454.25372770473, 21826.45610886289, 12547.308212197806, 11917.011370302604, -1029.2754804224348, 119.51477760252686, -0.1, 0.988, 0.226, 192.0, 126.0, 112.0, 15.0, 112.0, 3.5, 8.0, 0.0, 0.0, 0.0, 1.7068825016805131E9, 0.0, 2024-02-02 15:01:41.680
2.0, 60106.098366510676, 63384.92046414858, -30917.91640733676, -2399.23624983266, 17789.70870848998, 9441.91329978863, 28918.709328020734, 4177.116355552239, 33872.32528595034, 45428.847721677754, 35326.730945912714, 43908.88439522796, 25224.56946665877, 24248.4240828066, -1939.7067355760023, 46.40222148921746, -0.1, 0.988, 0.226, 192.0, 0.0, 0.0, 0.0, 0.0, 0.0, 0.0, 0.0, 0.0, 0.0, 1.706882501687332E9, 0.0, 2024-02-02 15:01:41.687
4.0, 60101.35979668615, 63378.08083034526, -30919.056346303983, -2409.2945348375483, 17792.547380035805, 9440.594546865768, 28925.683072290787, 4179.709157909055, 33871.34180919431, 45430.90408216764, 35325.59100694549, 43898.334371845056, 25223.18365850254, 24241.875021681193, -1942.7018693330133, 32.81236086039077, -0.1, 0.988, 0.226, 192.0, 0.0, 0.0, 0.0, 0.0, 0.0, 0.0, 0.0, 0.0, 0.0, 1.7068825016944113E9, 0.0, 2024-02-02 15:01:41.694
6.0, 60097.47059315093, 63373.49872273192, -30929.204038286694, -2449.2594539236375, 17784.076068887243, 9420.790901278366, 28911.8249907285, 4166.231056002504, 33888.016210557966, 45429.674736222594, 35315.5327219406, 43880.274162325164, 25232.772556873868, 24242.41146354812, -1945.3393751787396, 15.646221118714944, -0.1, 0.988, 0.226, 192.0, 0.0, 0.0, 0.0, 0.0, 0.0, 0.0, 0.0, 0.0, 0.0, 1.7068825017023551E9, 0.0, 2024-02-02 15:01:41.702
8.0, 60103.21499147594, 63383.40054552562, -30918.229331759136, -2395.458805019713, 17784.970138665456, 9449.512892903434, 28909.790981983064, 4172.154268283161, 33891.39132397072, 45464.87873373971, 35315.2868527516, 43896.38977007744, 25218.46744042247, 24254.771978231907, -1954.190665983041, 10.147691982709407, -0.096, 1.004, 0.218, 192.0, 126.5, 0.0, 15.5, 48.0, 3.0, 104.0, 0.0, 0.0, 0.0, 1.706882501710575E9, 0.0, 2024-02-02 15:01:41.710
10.0, 60103.013825775844, 63379.26547280139, -30916.97763406964, -2425.1642734008165, 17783.964310164967, 9441.689782344078, 28909.81333372752, 4172.310730494348, 33902.075457820356, 45466.77863201841, 35322.46176272175, 43897.73087474476, 25244.32840875726, 24231.41440527611, -1953.1177822491863, 20.518901409971882, -0.096, 1.004, 0.218, 192.0, 0.0, 0.0, 0.0, 0.0, 0.0, 0.0, 0.0, 0.0, 0.0, 1.7068825017184007E9, 0.0, 2024-02-02 15:01:41.718
12.0, 60108.22178223393, 63382.618234469686, -30913.22254100115, -2382.695958935733, 17795.654272515094, 9439.745180576467, 28930.667511304324, 4179.083309064306, 33905.58468169984, 45492.37137941973, 35319.77955338712, 43902.33533410256, 25241.221516277972, 24286.556158847354, -1944.3111949337954, 25.682154379147814, -0.096, 1.004, 0.218, 192.0, 0.0, 0.0, 0.0, 0.0, 0.0, 0.0, 0.0, 0.0, 0.0, 1.706882501726384E9, 0.0, 2024-02-02 15:01:41.726
14.0, 60104.354930443165, 63375.59978671072, -30920.82213411595, -2410.725046482688, 17791.98858642442, 9438.806407309343, 28925.034871701584, 4171.573122927323, 33920.739164440536, 45494.070111998335, 35318.46080046425, 43902.871775969485, 25240.729777899956, 24235.482422766974, -1947.2392734574407, 30.577186414860062, -0.096, 1.004, 0.218, 192.0, 0.0, 0.0, 0.0, 0.0, 0.0, 0.0, 0.0, 0.0, 0.0, 1.7068825017354777E9, 0.0, 2024-02-02 15:01:41.735
16.0, 60103.572619387225, 63377.432629756055, -30924.197247528704, -2412.8708139503974, 17783.98666190942, 9421.595564078756, 28903.085458646474, 4154.898721563664, 33963.162775416706, 45495.187699221104, 35326.50742846816, 43890.17598511887, 25241.780309889356, 24231.012073875914, -1953.743631093935, 20.027163031955126, -0.096, 1.004, 0.218, 192.0, 0.0, 0.0, 0.0, 0.0, 0.0, 0.0, 0.0, 0.0, 0.0, 1.7068825017426553E9, 0.0, 2024-02-02 15:01:41.742
18.0, 60100.13045074111, 63375.21980705498, -30922.610273672377, -2413.720180239699, 17785.506580532383, 9422.891965257164, 28924.6772437903, 4162.25244548946, 33965.93439172916, 45505.20128073708, 35319.64544292038, 43897.060322411104, 25250.721007671476, 24216.058756835315, -1956.4928956619378, 15.06507576287696, -0.09, 1.002, 0.22, 192.0, 126.5, 24.0, 15.5, 40.0, 3.0, 112.0, 0.0, 0.0, 0.0, 1.7068825017504969E9, 0.0, 2024-02-02 15:01:41.750
20.0, 60104.5337443988, 63380.986557124445, -30931.88624762133, -2438.038878207073, 17778.80105719579, 9421.349694889748, 28915.91535996382, 4159.950215810563, 33982.78760704846, 45497.86990855574, 35314.07985855101, 43890.44420605233, 25248.32937101476, 24232.621399476695, -1957.163447995597, 15.221537974064109, -0.09, 1.002, 0.22, 192.0, 0.0, 0.0, 0.0, 0.0, 0.0, 0.0, 0.0, 0.0, 0.0, 1.7068825017585227E9, 0.0, 2024-02-02 15:01:41.758
22.0, 60092.888485537595, 63371.844693642226, -30940.022282603062, -2444.0962009544614, 17766.239376811907, 9426.803520536843, 28904.00188016914, 4150.674241861611, 33953.663284023205, 45487.25282993947, 35303.79805610157, 43875.22266807827, 25231.498507439916, 24274.50856858594, -1964.5395236658483, 4.5597558688826405, -0.09, 1.002, 0.22, 192.0, 0.0, 0.0, 0.0, 0.0, 0.0, 0.0, 0.0, 0.0, 0.0, 1.7068825017657144E9, 0.0, 2024-02-02 15:01:41.765
24.0, 60111.50748866886, 63388.5637984948, -30928.175858041748, -2409.339238326459, 17780.410382796574, 9432.838491539776, 28917.01059544213, 4165.49344843548, 34034.48719197359, 45494.51714688744, 35318.639614419895, 43876.027330878656, 25244.23900177944, 24223.188963316556, -1959.6444916301361, 15.020372273966347, -0.09, 1.002, 0.22, 192.0, 0.0, 0.0, 0.0, 0.0, 0.0, 0.0, 0.0, 0.0, 0.0, 1.706882501774539E9, 0.0, 2024-02-02 15:01:41.774
26.0, 60120.068206795244, 63396.20809509851, -30926.36536674087, -2400.8679271778974, 17780.835065941224, 9442.315631188827, 28920.139839665873, 4174.076518306318, 34046.981817124106, 45471.65131230967, 35325.94863485678, 43908.88439522796, 25258.18649031955, 24235.393015789155, -1951.1061252482089, 27.962032313589134, -0.09, 1.002, 0.22, 192.0, 0.0, 0.0, 0.0, 0.0, 0.0, 0.0, 0.0, 0.0, 0.0, 1.706882501781477E9, 0.0, 2024-02-02 15:01:41.781
28.0, 60102.05270076427, 63385.97099613798, -30963.64807649232, -2438.0612299515283, 17765.859397156168, 9422.6237443237, 28900.984394667674, 4153.624672129711, 34057.71065446266, 45471.15957393165, 35317.164399285844, 43891.897069441926, 25228.637484149636, 24224.55241972833, -1959.8903608191445, 23.111703766787503, -0.088, 1.002, 0.224, 192.0, 126.5, 32.0, 15.5, 40.0, 3.5, 0.0, 0.0, 0.0, 0.0, 1.706882501790508E9, 0.0, 2024-02-02 15:01:41.790
30.0, 60112.535668913806, 63396.1633916096, -30961.837585191442, -2448.141866700872, 17773.414286782063, 9419.606258822234, 28905.186522625274, 4157.424468687113, 34058.582372496414, 45393.55431718282, 35272.59502084196, 43859.665853937375, 25259.4605397535, 24194.60108215822, -1990.5346024673704, -3.263354690474831, -0.088, 1.002, 0.224, 192.0, 0.0, 0.0, 0.0, 0.0, 0.0, 0.0, 0.0, 0.0, 0.0, 1.7068825017987008E9, 0.0, 2024-02-02 15:01:41.798
32.0, 60114.636732892606, 63398.35386256622, -30926.4994772076, -2439.3799828743918, 17778.28696707332, 9444.863730056732, 28908.226359871194, 4162.274797233916, 34058.872945174335, 45488.95156251807, 35328.27321628013, 43906.24688938223, 25222.490754424427, 24286.913786758636, -1953.6989276050244, 14.483930407038976, -0.088, 1.002, 0.224, 192.0, 0.0, 0.0, 0.0, 0.0, 0.0, 0.0, 0.0, 0.0, 0.0, 1.7068825018065152E9, 0.0, 2024-02-02 15:01:41.806
34.0, 60115.731968370914, 63391.469525273984, -30941.16222157028, -2413.943697684252, 17774.71068796047, 9432.793788050865, 28905.991185425664, 4160.196084999572, 34111.69011732222, 45456.27331212441, 35315.5327219406, 43889.997171163224, 25234.515992941382, 24191.94122456804, -1965.4335934440605, 21.636488632737237, -0.088, 1.002, 0.224, 192.0, 0.0, 0.0, 0.0, 0.0, 0.0, 0.0, 0.0, 0.0, 0.0, 1.706882501814537E9, 0.0, 2024-02-02 15:01:41.814
36.0, 60103.863192065146, 63382.528827491864, -30973.482844052654, -2468.6384163663884, 17753.767103405848, 9416.76758727641, 28879.861996157408, 4144.639270858678, 34107.28682366453, 45438.3248613268, 35306.21204450274, 43873.61334247748, 25244.08253956825, 24230.1180040977, -1973.7931458703454, 14.61804087377082, -0.088, 1.002, 0.224, 192.0, 0.0, 0.0, 0.0, 0.0, 0.0, 0.0, 0.0, 0.0, 0.0, 1.7068825018229516E9, 0.0, 2024-02-02 15:01:41.822
38.0, 60115.28493348181, 63390.59780724023, -30943.442099504722, -2417.497625052646, 17772.14023734811, 9423.33900014627, 28898.503351033134, 4149.86957906122, 34100.58130032793, 45444.315128840826, 35292.55512864055, 43874.1050808555, 25257.29242054134, 24233.247248321444, -1985.5948669427476, 4.090369235321193, -0.092, 0.998, 0.226, 192.0, 126.5, 16.0, 15.5, 24.0, 3.5, 8.0, 0.0, 0.0, 0.0, 1.7068825018305583E9, 0.0, 2024-02-02 15:01:41.830
40.0, 60118.816509105745, 63395.40343229812, -30940.26815179207, -2435.043744450062, 17780.879769430136, 9450.831645826298, 28899.442124300258, 4153.6023203852565, 34113.545312112015, 45430.99348914546, 35305.072105535524, 43885.459767038796, 25215.606417132192, 24222.183134816067, -1964.807744599312, 15.44505541861718, -0.092, 0.998, 0.226, 192.0, 0.0, 0.0, 0.0, 0.0, 0.0, 0.0, 0.0, 0.0, 0.0, 1.706882501837584E9, 0.0, 2024-02-02 15:01:41.837
42.0, 60124.31503824175, 63395.69400497604, -30943.21858206017, -2428.8970147248524, 17773.615452482158, 9430.357447905237, 28908.136952893372, 4154.406983185647, 34136.76877460108, 45445.03038466339, 35324.89810286738, 43904.07877017007, 25245.803623891312, 24233.761338443917, -1952.715450848991, 34.8016661169131, -0.092, 0.998, 0.226, 192.0, 0.0, 0.0, 0.0, 0.0, 0.0, 0.0, 0.0, 0.0, 0.0, 1.70688250184656E9, 0.0, 2024-02-02 15:01:41.846
44.0, 60120.17996551752, 63386.88741766065, -30952.44985252021, -2464.1233639864167, 17775.783571694323, 9433.464340384524, 28908.136952893372, 4162.0512797893625, 34135.628835633855, 45446.393841075165, 35314.10221029547, 43868.09246159702, 25240.506260455404, 24225.35708252872, -1962.036128286854, 19.513072909483064, -0.092, 0.998, 0.226, 192.0, 0.0, 0.0, 0.0, 0.0, 0.0, 0.0, 0.0, 0.0, 0.0, 1.7068825018547032E9, 0.0, 2024-02-02 15:01:41.854
46.0, 60108.91468631205, 63376.60561521121, -30936.781279657043, -2422.794988488554, 17780.410382796574, 9428.144625204162, 28908.695746504756, 4165.15817226865, 34093.048762446495, 45369.50384014891, 35279.479358134195, 43872.27223781017, 25217.08163226624, 24182.419381430078, -1970.552142924326, 9.924174538156336, -0.092, 0.998, 0.226, 192.0, 0.0, 0.0, 0.0, 0.0, 0.0, 0.0, 0.0, 0.0, 0.0, 1.7068825018625576E9, 0.0, 2024-02-02 15:01:41.862
48.0, 60127.66779991005, 63398.64443524414, -30955.824965932963, -2471.1641634898383, 17769.27921405783, 9404.630590037179, 28895.709382976223, 4156.284529719893, 34084.97978269813, 45410.83221564677, 35318.59491093098, 43861.52104872716, 25226.782289359846, 24235.75064370044, -1966.7523463669238, 10.95235478310046, -0.09, 1.0, 0.23600000000000002, 192.0, 126.5, 24.0, 15.5, 32.0, 3.5, 48.0, 0.0, 0.0, 0.0, 1.70688250187059E9, 0.0, 2024-02-02 15:01:41.870
50.0, 60126.170233031546, 63392.00596714091, -30951.46637576418, -2415.3518575849366, 17773.548397248793, 9438.046447997862, 28910.796810483553, 4161.559541411346, 34129.63856811984, 45443.06343115133, 35303.44042819028, 43877.36843554598, 25244.775443646366, 24261.790425990872, -1966.7299946224684, 9.767712326969187, -0.09, 1.0, 0.23600000000000002, 192.0, 0.0, 0.0, 0.0, 0.0, 0.0, 0.0, 0.0, 0.0, 0.0, 1.7068825018786013E9, 0.0, 2024-02-02 15:01:41.878
52.0, 60125.41027372006, 63403.7629847244, -30916.88822709182, -2402.52195626759, 17785.86420844367, 9454.542035405879, 28911.735583750677, 4166.946311825074, 34097.295593893, 45371.78371808335, 35321.590044688, 43902.04476142464, 25207.000995516897, 24204.011166573902, -1962.2819974758622, 22.061171777388072, -0.09, 1.0, 0.23600000000000002, 192.0, 0.0, 0.0, 0.0, 0.0, 0.0, 0.0, 0.0, 0.0, 0.0, 1.7068825018857625E9, 0.0, 2024-02-02 15:01:41.885
54.0, 60129.18771853301, 63395.44813578703, -30936.177782556748, -2444.7667532881205, 17782.04206014181, 9438.426427653603, 28907.779324982086, 4162.073631533817, 34018.34923247686, 45370.062633760295, 35319.84660862048, 43901.37420909097, 25216.254617721395, 24203.720593895985, -1953.7212793494798, 27.8502735913126, -0.09, 1.0, 0.23600000000000002, 192.0, 0.0, 0.0, 0.0, 0.0, 0.0, 0.0, 0.0, 0.0, 0.0, 1.7068825018936338E9, 0.0, 2024-02-02 15:01:41.893
56.0, 60114.92730557053, 63389.54727525083, -30950.16997458577, -2427.6229652909, 17770.553263491784, 9432.324401417303, 28905.544150536556, 4161.648948389166, 33958.24539163654, 45380.478546676466, 35302.65811713435, 43877.860173924, 25204.65406234909, 24211.58840794425, -1962.6619771316025, 11.7123140945809, -0.09, 1.0, 0.23600000000000002, 192.0, 0.0, 0.0, 0.0, 0.0, 0.0, 0.0, 0.0, 0.0, 0.0, 1.706882501902655E9, 0.0, 2024-02-02 15:01:41.902
58.0, 60128.38305573262, 63396.45396428752, -30938.16708781327, -2427.310040868526, 17779.449257784996, 9437.152378219651, 28909.835685471975, 4167.616864158734, 33903.103638065295, 45377.08108151926, 35315.95740508525, 43888.052569395615, 25205.525780382846, 24255.84486196576, -1964.6736341325802, 16.36147694128477, -0.08600000000000001, 0.994, 0.23600000000000002, 192.0, 126.5, 40.0, 15.5, 8.0, 3.5, 48.0, 0.0, 0.0, 0.0, 1.7068825019107773E9, 0.0, 2024-02-02 15:01:41.910
60.0, 60133.41219823506, 63404.38883356915, -30945.811384416986, -2425.4995495676458, 17785.819504954758, 9447.635346369188, 28920.00572919914, 4175.484678207002, 33764.58987767576, 45358.77500281036, 35318.52785569762, 43893.148767131424, 25204.78817281582, 24214.672948679086, -1957.3646136956947, 25.749209612513738, -0.08600000000000001, 0.994, 0.23600000000000002, 192.0, 0.0, 0.0, 0.0, 0.0, 0.0, 0.0, 0.0, 0.0, 0.0, 1.706882501917655E9, 0.0, 2024-02-02 15:01:41.917
62.0, 60120.71640738445, 63396.27515033188, -30941.40809075929, -2443.4703521097126, 17773.57074899325, 9433.732561317987, 28905.700612747743, 4163.794715856876, 33611.81570432374, 45358.05974698779, 35312.962271328244, 43891.87471769747, 25177.004954457876, 24212.88480912266, -1962.460811431505, 20.675363621159033, -0.08600000000000001, 0.994, 0.23600000000000002, 192.0, 0.0, 0.0, 0.0, 0.0, 0.0, 0.0, 0.0, 0.0, 0.0, 1.7068825019257843E9, 0.0, 2024-02-02 15:01:41.925
64.0, 60118.34712247219, 63390.64251072914, -30941.6539599483, -2439.044706707562, 17776.543531005806, 9430.692724072067, 28912.85317097344, 4167.1027740362615, 33455.59936232559, 45338.63608105613, 35306.27909973611, 43882.64344723743, 25216.634597377135, 24204.815829374296, -1966.8194016002897, 12.204052472597656, -0.08600000000000001, 0.994, 0.23600000000000002, 192.0, 0.0, 0.0, 0.0, 0.0, 0.0, 0.0, 0.0, 0.0, 0.0, 1.7068825019346871E9, 0.0, 2024-02-02 15:01:41.934
66.0, 60121.45401495147, 63392.63181598566, -30944.202058816205, -2434.90963398333, 17777.61641473966, 9432.547918861857, 28909.187484882772, 4169.1591345261495, 33338.677387079886, 45324.755647749385, 35310.01184106014, 43887.560831017596, 25205.771649571856, 24224.619474961695, -1959.2645119743959, 21.23415723254171, -0.08600000000000001, 0.994, 0.23600000000000002, 192.0, 0.0, 0.0, 0.0, 0.0, 0.0, 0.0, 0.0, 0.0, 0.0, 1.706882501941868E9, 0.0, 2024-02-02 15:01:41.941
68.0, 60124.11387254165, 63397.66095848811, -30943.50915473809, -2434.9766892166963, 17779.404554296085, 9438.806407309343, 28914.06016517403, 4171.640178160689, 33254.5007174612, 45323.63806052662, 35308.38016371491, 43889.930115929856, 25199.423754146548, 24210.78374514386, -1962.7513841094237, 20.049514776410437, -0.08600000000000001, 0.998, 0.234, 192.0, 126.5, 40.0, 15.5, 24.0, 3.5, 40.0, 0.0, 0.0, 0.0, 1.706882501949702E9, 0.0, 2024-02-02 15:01:41.949
70.0, 60122.81747136325, 63395.91752242059, -30946.012550117084, -2434.797875261054, 17781.818542697256, 9448.44000916958, 28913.970758196207, 4182.212553288049, 33193.726324287214, 45308.66239174156, 35312.04584980558, 43888.76782521818, 25187.532626096327, 24218.249227791934, -1959.063346274298, 26.732686368547245, -0.08600000000000001, 0.998, 0.234, 192.0, 0.0, 0.0, 0.0, 0.0, 0.0, 0.0, 0.0, 0.0, 0.0, 1.7068825019587197E9, 0.0, 2024-02-02 15:01:41.958
72.0, 60111.28397122431, 63387.24504557193, -30955.959076399697, -2447.0689829670173, 17763.579519221727, 9438.985221264986, 28897.698688232744, 4159.6819948771, 33142.83140216248, 45300.12402535963, 35302.99339330118, 43881.79408094813, 25181.251785904384, 24236.778823945384, -1968.808706856812, 21.61413688828193, -0.08600000000000001, 0.998, 0.234, 192.0, 0.0, 0.0, 0.0, 0.0, 0.0, 0.0, 0.0, 0.0, 0.0, 1.7068825019668956E9, 0.0, 2024-02-02 15:01:41.966
74.0, 60125.83495686472, 63399.60556025572, -30939.061157591485, -2433.43441884928, 17786.80298171079, 9454.072648772317, 28922.263255389127, 4179.038605575395, 33116.23282626067, 45293.26203981186, 35304.69212587978, 43883.49281352673, 25185.69978305099, 24229.000416874936, -1964.8971515771332, 17.94845079761157, -0.08600000000000001, 0.998, 0.234, 192.0, 0.0, 0.0, 0.0, 0.0, 0.0, 0.0, 0.0, 0.0, 0.0, 1.7068825019737563E9, 0.0, 2024-02-02 15:01:41.973
76.0, 60112.91564856955, 63387.62502522767, -30949.253553063103, -2441.749267786654, 17773.861321671167, 9440.259270698938, 28915.557732052534, 4167.8627333477425, 33111.89658783634, 45297.486519513914, 35314.66100390685, 43892.18764211985, 25201.12248672515, 24236.75647220093, -1949.3850409251502, 30.510131181494142, -0.08600000000000001, 0.998, 0.234, 192.0, 0.0, 0.0, 0.0, 0.0, 0.0, 0.0, 0.0, 0.0, 0.0, 1.706882501981776E9, 0.0, 2024-02-02 15:01:41.981
78.0, 60119.732930628415, 63393.39177529714, -30944.246762305112, -2436.474256095202, 17779.404554296085, 9445.042544012374, 28914.171923896305, 4167.974492070019, 33099.223148730176, 45298.15707184757, 35304.24509099068, 43884.43158679386, 25193.142913954605, 24221.043195848848, -1963.287825976351, 18.507244408994246, -0.088, 0.992, 0.23, 192.0, 126.5, 32.0, 15.5, 0.0, 3.5, 24.0, 0.0, 0.0, 0.0, 1.7068825019909859E9, 0.0, 2024-02-02 15:01:41.990
80.0, 60118.59299166119, 63390.03901362885, -30945.565515227976, -2431.7803897595873, 17784.81367645427, 9442.002706766452, 28916.898836719854, 4165.448744946569, 33104.967547055196, 45291.63036246662, 35307.731963125705, 43887.47142403977, 25189.209006930472, 24216.282274279867, -1960.4938579194377, 19.088389764832232, -0.088, 0.992, 0.23, 192.0, 0.0, 0.0, 0.0, 0.0, 0.0, 0.0, 0.0, 0.0, 0.0, 1.7068825019977963E9, 0.0, 2024-02-02 15:01:41.997
82.0, 60114.30145672578, 63388.8096676838, -30950.348788541414, -2444.5432358435673, 17777.7952286953, 9425.708285058534, 28905.566502281014, 4152.127105251206, 33122.53601819706, 45313.222147610446, 35315.063335307044, 43899.20608987881, 25175.26151839036, 24255.710751499028, -1953.8330380717562, 19.893052565223286, -0.088, 0.992, 0.23, 192.0, 0.0, 0.0, 0.0, 0.0, 0.0, 0.0, 0.0, 0.0, 0.0, 1.7068825020057945E9, 0.0, 2024-02-02 15:01:42.005
84.0, 60113.80971834776, 63388.74261245044, -30938.994102358116, -2424.8960524673525, 17785.439525299018, 9454.184407494595, 28917.703499520245, 4159.4137739436355, 33117.88685535036, 45307.343638818704, 35304.35684971295, 43892.098235142024, 25199.915492524564, 24214.337672512254, -1958.10222126272, 23.49168342252772, -0.088, 0.992, 0.23, 192.0, 0.0, 0.0, 0.0, 0.0, 0.0, 0.0, 0.0, 0.0, 0.0, 1.7068825020138311E9, 0.0, 2024-02-02 15:01:42.013
86.0, 60109.585238645705, 63385.36749903769, -30949.566477485478, -2432.1156659264166, 17776.051792627786, 9432.749084561954, 28902.01257491262, 4145.220416214516, 33144.03839636307, 45327.92959546204, 35314.05750680656, 43895.71921774378, 25220.210876489982, 24254.012018920424, -1951.843732815234, 33.05823004939914, -0.088, 0.992, 0.23, 192.0, 0.0, 0.0, 0.0, 0.0, 0.0, 0.0, 0.0, 0.0, 0.0, 1.7068825020228324E9, 0.0, 2024-02-02 15:01:42.022
88.0, 60108.98174154541, 63385.0098711264, -30943.956189627195, -2442.978613731696, 17779.359850807174, 9434.827796796299, 28904.314804591515, 4148.461419160535, 33163.01502740563, 45349.09669746122, 35298.2324717322, 43883.73868271574, 25206.151629227596, 24227.256980807422, -1973.2790557478734, 13.23223271754178, -0.089, 0.995, 0.23, 192.0, 126.5, 24.0, 15.5, 24.0, 3.5, 24.0, 0.0, 0.0, 0.0, 1.7068825020298724E9, 0.0, 2024-02-02 15:01:42.029
90.0, 60114.52497417033, 63391.424821785076, -30941.02811110355, -2441.235177664182, 17776.722344961447, 9428.278735670894, 28901.230263856683, 4152.998823284963, 33211.38420240691, 45374.57768614026, 35305.94382356928, 43872.58516223254, 25207.26921645036, 24295.385097907198, -1968.7863551123567, 1.005828500488818, -0.089, 0.995, 0.23, 192.0, 0.0, 0.0, 0.0, 0.0, 0.0, 0.0, 0.0, 0.0, 0.0, 1.7068825020378764E9, 0.0, 2024-02-02 15:01:42.037
92.0, 60113.630904392114, 63387.37915603867, -30939.485840736135, -2400.689113222255, 17781.639728741615, 9442.941480033574, 28908.047545915553, 4162.006576300451, 33279.311153806586, 45382.02081704388, 35310.63768990489, 43895.45099681032, 25204.877579793643, 24240.84684143625, -1966.5064771779155, 29.459599192094707, -0.089, 0.995, 0.23, 192.0, 0.0, 0.0, 0.0, 0.0, 0.0, 0.0, 0.0, 0.0, 0.0, 1.706882502047021E9, 0.0, 2024-02-02 15:01:42.047
94.0, 60115.12847127062, 63393.704699719514, -30937.295369779513, -2429.008773447129, 17778.577539751237, 9443.38851492268, 28902.593720268458, 4160.978396055508, 33354.27890470969, 45422.61158497472, 35308.357811970454, 43894.55692703211, 25194.12639071064, 24275.268527897424, -1971.1109365357086, 11.64525886121498, -0.089, 0.995, 0.23, 192.0, 0.0, 0.0, 0.0, 0.0, 0.0, 0.0, 0.0, 0.0, 0.0, 1.7068825020538754E9, 0.0, 2024-02-02 15:01:42.053
96.0, 60117.631866649615, 63389.90490316212, -30933.83084938894, -2427.600613546445, 17781.304452574786, 9451.837474326787, 28904.940653436264, 4162.207742000549, 33427.77144047874, 45416.30839303832, 35308.04488754808, 43888.54430777363, 25226.17879225955, 24239.013998390914, -1964.2713027323846, 26.33035496835172, -0.089, 0.995, 0.23, 192.0, 0.0, 0.0, 0.0, 0.0, 0.0, 0.0, 0.0, 0.0, 0.0, 1.706882502061858E9, 0.0, 2024-02-02 15:01:42.061
98.0, 60114.32380847023, 63391.625987485175, -30944.000893116106, -2416.8717762078973, 17771.22381582544, 9440.259270698938, 28899.03979290006, 4149.355488938748, 33516.82079038868, 45440.80590496134, 35310.99531781618, 43902.60355503602, 25230.112699283683, 24284.38803963519, -1969.8592388462114, 11.354686183295987, -0.0935, 0.9944999999999999, 0.23, 192.0, 126.0, 120.0, 15.5, 8.0, 3.5, 24.0, 0.0, 0.0, 0.0, 1.7068825020702057E9, 0.0, 2024-02-02 15:01:42.070
100.0, 60116.82720384922, 63387.915597905594, -30930.12045980936, -2440.7434392861655, 17784.79132470981, 9440.460436399037, 28918.82108674301, 4161.179561755605, 33625.919655075035, 45451.66885276662, 35320.248940020676, 43899.25079336772, 25241.66855116708, 24248.245268850955, -1962.5055149204154, 29.884282336745542, -0.0935, 0.9944999999999999, 0.23, 192.0, 0.0, 0.0, 0.0, 0.0, 0.0, 0.0, 0.0, 0.0, 0.0, 1.706882502078917E9, 0.0, 2024-02-02 15:01:42.078
102.0, 60106.165421744045, 63378.147885578626, -30941.564552970478, -2442.7774480315984, 17786.490057288418, 9423.6742763131, 28910.05920291653, 4151.769477339921, 33673.7970916983, 45457.94969295856, 35320.07012606503, 43886.018560650184, 25228.48102193845, 24295.362746162744, -1950.9273112925664, 25.905671823700885, -0.0935, 0.9944999999999999, 0.23, 192.0, 0.0, 0.0, 0.0, 0.0, 0.0, 0.0, 0.0, 0.0, 0.0, 1.7068825020859663E9, 0.0, 2024-02-02 15:01:42.085
104.0, 60092.4861541374, 63369.98949885244, -30985.19515814724, -2417.3635145859143, 17759.80207440878, 9428.77047404891, 28890.18850209576, 4142.091171990773, 33699.613356544185, 45423.99739313095, 35298.567747899026, 43889.930115929856, 25238.69576915452, 24193.30468097981, -1978.1740877835857, 13.634564117737309, -0.0935, 0.9944999999999999, 0.23, 192.0, 0.0, 0.0, 0.0, 0.0, 0.0, 0.0, 0.0, 0.0, 0.0, 1.7068825020939188E9, 0.0, 2024-02-02 15:01:42.093
106.0, 60124.31503824175, 63388.38498453915, -30908.416915943257, -2420.626869276389, 17796.77185973786, 9447.188311480084, 28915.08834541897, 4162.319500722826, 33751.64821763614, 45410.541642968856, 35289.470587905715, 43877.569601246076, 25229.33038822775, 24237.851707679238, -1968.4287272010718, 23.06700027787689, -0.0935, 0.9944999999999999, 0.23, 192.0, 0.0, 0.0, 0.0, 0.0, 0.0, 0.0, 0.0, 0.0, 0.0, 1.7068825021029348E9, 0.0, 2024-02-02 15:01:42.102
108.0, 60106.791270588794, 63375.756248921905, -30959.870631679372, -2460.569436618023, 17773.794266437802, 9421.39439837866, 28901.453781301236, 4152.417677929125, 33783.45474999604, 45463.98466396149, 35315.57742542952, 43883.51516527119, 25234.918324341575, 24269.36766736122, -1966.1712010110857, 16.406180430195384, -0.09775, 0.99525, 0.232, 192.0, 126.0, 104.0, 15.5, 16.0, 3.5, 40.0, 0.0, 0.0, 0.0, 1.7068825021092167E9, 0.0, 2024-02-02 15:01:42.109
110.0, 60105.27135196583, 63375.35391752171, -30929.6510731758, -2428.3158693690148, 17786.46770554396, 9441.958003277541, 28915.53538030808, 4164.577026912812, 33831.01926219693, 45453.43464057859, 35317.454971963765, 43864.53853422863, 25240.103929055207, 24229.55921048632, -1957.1857997400523, 25.12336076776514, -0.09775, 0.99525, 0.232, 192.0, 0.0, 0.0, 0.0, 0.0, 0.0, 0.0, 0.0, 0.0, 0.0, 1.7068825021179812E9, 0.0, 2024-02-02 15:01:42.117
112.0, 60104.824317076724, 63377.075001844765, -30969.303067839515, -2442.5092270981345, 17759.13152207512, 9430.96094500553, 28900.6714702453, 4151.054221517351, 33820.268073113926, 45418.767084928404, 35294.90206180836, 43881.34704605902, 25222.84838233571, 24232.55434424333, -1971.5356196803596, 18.730761853547317, -0.09775, 0.99525, 0.232, 192.0, 0.0, 0.0, 0.0, 0.0, 0.0, 0.0, 0.0, 0.0, 0.0, 1.7068825021261482E9, 0.0, 2024-02-02 15:01:42.126
114.0, 60103.48321240941, 63373.54342622083, -30940.759890170088, -2435.043744450062, 17782.51144677537, 9444.215529467527, 28911.57912153949, 4158.832628587798, 33833.209733153555, 45435.95557641454, 35302.45695143425, 43881.458804781294, 25229.173926016563, 24206.782782886363, -1974.061366803809, 15.132130996242882, -0.09775, 0.99525, 0.232, 192.0, 0.0, 0.0, 0.0, 0.0, 0.0, 0.0, 0.0, 0.0, 0.0, 1.706882502134012E9, 0.0, 2024-02-02 15:01:42.134
116.0, 60100.59983737467, 63380.33835653524, -30959.155375856804, -2439.0894101964727, 17776.163551350066, 9444.796674823365, 28908.58398778248, 4150.763648839432, 33810.16508462013, 45375.292941962834, 35307.441390447784, 43864.04679585061, 25197.45680063448, 24217.533971969366, -1956.2246747284742, 26.375058457262334, -0.09775, 0.99525, 0.232, 192.0, 0.0, 0.0, 0.0, 0.0, 0.0, 0.0, 0.0, 0.0, 0.0, 1.706882502142213E9, 0.0, 2024-02-02 15:01:42.142
118.0, 60098.00703501786, 63375.040993099334, -30971.85116670742, -2445.7055265552435, 17780.343327563205, 9439.454607898548, 28911.892045961864, 4156.105715764251, 33859.27186718844, 45446.86322770873, 35308.89425383738, 43896.568584033084, 25230.805603361798, 24219.23270454797, -1953.1177822491863, 33.035878304943836, -0.096875, 0.997625, 0.231, 192.0, 126.5, 0.0, 15.5, 32.0, 3.5, 24.0, 0.0, 0.0, 0.0, 1.7068825021500473E9, 0.0, 2024-02-02 15:01:42.150
120.0, 60102.455032164464, 63376.091525088734, -30951.824003675465, -2464.4139366643353, 17784.99249040991, 9439.096979987262, 28915.133048907883, 4167.527457180912, 33814.14369513318, 45398.53875619635, 35302.12167526742, 43866.12550808496, 25216.053452021297, 24225.893524395648, -1958.4598491740048, 20.362439198784735, -0.096875, 0.997625, 0.231, 192.0, 0.0, 0.0, 0.0, 0.0, 0.0, 0.0, 0.0, 0.0, 0.0, 1.70688250215857E9, 0.0, 2024-02-02 15:01:42.158
122.0, 60091.837953548194, 63372.1576180646, -30964.050407892515, -2427.7794275020874, 17772.967251892955, 9416.968752976509, 28903.130162135385, 4167.773326369921, 33757.07969153878, 45423.63976521966, 35287.12365473791, 43863.39859526141, 25210.107887996186, 24247.954696173038, -1973.100241792231, 3.241002946019524, -0.096875, 0.997625, 0.231, 192.0, 0.0, 0.0, 0.0, 0.0, 0.0, 0.0, 0.0, 0.0, 0.0, 1.706882502165074E9, 0.0, 2024-02-02 15:01:42.165
124.0, 60098.31995944023, 63371.77763840886, -30968.408998061303, -2458.7589453171427, 17766.70876344547, 9442.181520722095, 28896.715211476712, 4163.325329223315, 33718.34411839773, 45406.09364582225, 35280.328724423496, 43854.569656201566, 25202.12831522564, 24196.36686997019, -1985.5054599649263, 10.214747216075327, -0.096875, 0.997625, 0.231, 192.0, 0.0, 0.0, 0.0, 0.0, 0.0, 0.0, 0.0, 0.0, 0.0, 1.706882502174301E9, 0.0, 2024-02-02 15:01:42.174
126.0, 60091.435622148, 63371.88939713113, -30972.722884741175, -2444.3420701434698, 17769.390972780107, 9433.732561317987, 28896.58110100998, 4161.067803033328, 33666.130443350135, 45394.806014872316, 35292.95746004074, 43845.15957178588, 25187.711440051968, 24237.51643151241, -1980.7668901404013, 1.3858081562290379, -0.096875, 0.997625, 0.231, 192.0, 0.0, 0.0, 0.0, 0.0, 0.0, 0.0, 0.0, 0.0, 0.0, 1.706882502182428E9, 0.0, 2024-02-02 15:01:42.182
128.0, 60105.807793832755, 63379.06430710129, -30972.432312063258, -2422.392657088358, 17772.386106537117, 9435.699514830056, 28901.29731909005, 4161.53718966689, 33615.0343555253, 45403.32202950979, 35297.67367812082, 43879.17892684686, 25214.354719442694, 24215.902294624128, -1976.4977069494375, 16.517939152471918, -0.0924375, 0.9968125, 0.2305, 192.0, 126.5, 32.0, 15.5, 16.0, 3.5, 24.0, 0.0, 0.0, 0.0, 1.706882502190078E9, 0.0, 2024-02-02 15:01:42.190
130.0, 60098.02938676231, 63374.88453088815, -30948.918276896275, -2436.8765874953974, 17781.215045596964, 9437.711171831033, 28913.613130284924, 4170.008500815452, 33529.42717426147, 45402.27149752039, 35300.31118396654, 43873.38982503293, 25220.166173001075, 24212.59423644474, -1965.5006486774266, 20.116570009776357, -0.0924375, 0.9968125, 0.2305, 192.0, 0.0, 0.0, 0.0, 0.0, 0.0, 0.0, 0.0, 0.0, 0.0, 1.7068825021981318E9, 0.0, 2024-02-02 15:01:42.198
132.0, 60110.769881101834, 63385.50160950442, -30953.4556810207, -2453.327471414503, 17776.18590309452, 9437.688820086578, 28909.612168027423, 4174.456497962057, 33380.36339048903, 45398.73992189645, 35308.424867203816, 43878.463671024285, 25198.64144309061, 24241.02565539189, -1960.1138782636976, 26.46446543508356, -0.0924375, 0.9968125, 0.2305, 192.0, 0.0, 0.0, 0.0, 0.0, 0.0, 0.0, 0.0, 0.0, 0.0, 1.7068825022061188E9, 0.0, 2024-02-02 15:01:42.206
134.0, 60103.170287987035, 63382.55117923632, -30966.5090997826, -2452.34399465847, 17785.260711343373, 9433.86667178472, 28914.44014482977, 4173.49537295048, 33255.66300817287, 45408.4182272456, 35302.72517236772, 43881.77172920367, 25189.767800541857, 24231.12383259819, -1960.9185410640887, 16.339125196829464, -0.0924375, 0.9968125, 0.2305, 192.0, 0.0, 0.0, 0.0, 0.0, 0.0, 0.0, 0.0, 0.0, 0.0, 1.7068825022144892E9, 0.0, 2024-02-02 15:01:42.214
136.0, 60133.68041916853, 63400.23140910047, -30935.730747667643, -2416.983534930174, 17795.654272515094, 9465.740259377988, 28933.237961916682, 4188.44868999108, 33217.799153065585, 45411.927451125084, 35309.1848265153, 43853.92145561236, 25216.835763077233, 24247.641771750663, -1955.5541223948148, 22.821131088868512, -0.0924375, 0.9968125, 0.2305, 192.0, 0.0, 0.0, 0.0, 0.0, 0.0, 0.0, 0.0, 0.0, 0.0, 1.706882502221138E9, 0.0, 2024-02-02 15:01:42.221
138.0, 60115.08376778171, 63388.74261245044, -30963.961000914696, -2428.3829246023806, 17779.561016507272, 9449.356430692247, 28915.15540065234, 4173.517724694935, 33140.75268992814, 45392.32497123778, 35331.022480848136, 43918.115665688, 25212.812449075278, 24219.07624233678, -1945.38407866765, 46.11164881129847, -0.09321875, 0.9964062499999999, 0.22925, 192.0, 126.5, 8.0, 15.5, 16.0, 3.5, 16.0, 0.0, 0.0, 0.0, 1.706882502230183E9, 0.0, 2024-02-02 15:01:42.230
140.0, 60114.65908463706, 63390.284882817854, -30944.962018127684, -2432.0039072041404, 17784.41134505407, 9442.002706766452, 28916.09417391946, 4175.954064840564, 33045.02016842606, 45382.02081704388, 35310.30241373806, 43887.65023799542, 25197.322690167748, 24198.93732058255, -1955.3082532058065, 22.239985733030526, -0.09321875, 0.9964062499999999, 0.22925, 192.0, 0.0, 0.0, 0.0, 0.0, 0.0, 0.0, 0.0, 0.0, 0.0, 1.7068825022381823E9, 0.0, 2024-02-02 15:01:42.238
142.0, 60110.61341889065, 63388.38498453915, -30957.009608389093, -2435.423724105802, 17775.627109483135, 9436.370067163714, 28912.42848782879, 4174.25533226196, 32971.30411521246, 45395.18599452806, 35311.97879457221, 43886.53265077265, 25191.779457542834, 24239.55044025784, -1956.0905642617422, 26.419761946172947, -0.09321875, 0.9964062499999999, 0.22925, 192.0, 0.0, 0.0, 0.0, 0.0, 0.0, 0.0, 0.0, 0.0, 0.0, 1.7068825022463267E9, 0.0, 2024-02-02 15:01:42.246
144.0, 60109.00409328987, 63388.474391516975, -30954.93089615475, -2435.6472415503554, 17777.9963943954, 9442.58385212229, 28910.282720361083, 4174.657663662156, 32923.76195475602, 45405.13252081067, 35311.10707653846, 43888.52195602917, 25188.829027274733, 24230.94501864255, -1955.0176805278875, 26.218596246075183, -0.09321875, 0.9964062499999999, 0.22925, 192.0, 0.0, 0.0, 0.0, 0.0, 0.0, 0.0, 0.0, 0.0, 0.0, 1.7068825022531748E9, 0.0, 2024-02-02 15:01:42.253
146.0, 60113.630904392114, 63391.067193873794, -30949.767643185576, -2435.6472415503554, 17778.175208351044, 9439.499311387457, 28903.286624346572, 4174.165925284138, 32886.70276244912, 45399.58928818575, 35311.19648351628, 43888.56665951809, 25201.52481812535, 24232.2190680765, -1954.8835700611558, 21.837654332835, -0.09321875, 0.9964062499999999, 0.22925, 192.0, 0.0, 0.0, 0.0, 0.0, 0.0, 0.0, 0.0, 0.0, 0.0, 1.706882502262212E9, 0.0, 2024-02-02 15:01:42.262
148.0, 60108.60176188967, 63385.99334788244, -30952.22633507566, -2433.724991527199, 17777.57171125075, 9447.434180669092, 28904.538322036067, 4173.316558994837, 32850.22471549806, 45403.679657421075, 35310.77180037163, 43891.83001420856, 25191.198312186996, 24225.915876140105, -1958.0575177738092, 20.47419792106127, -0.09160937499999999, 0.996203125, 0.22962500000000002, 192.0, 126.5, 24.0, 15.5, 16.0, 3.5, 24.0, 0.0, 0.0, 0.0, 1.7068825022702267E9, 0.0, 2024-02-02 15:01:42.270
150.0, 60108.065320022746, 63387.78148743886, -30949.879401907852, -2433.1214944269054, 17783.494923531405, 9437.666468342122, 28913.702537262743, 4175.596436929278, 32835.71843334656, 45391.94499158204, 35314.54924518457, 43895.09336889903, 25203.067088492764, 24216.37168125769, -1951.843732815234, 20.809474087890877, -0.09160937499999999, 0.996203125, 0.22962500000000002, 192.0, 0.0, 0.0, 0.0, 0.0, 0.0, 0.0, 0.0, 0.0, 0.0, 1.7068825022775052E9, 0.0, 2024-02-02 15:01:42.277
152.0, 60101.337444941695, 63384.71929844849, -30952.583962986944, -2431.1545409148384, 17782.019708397354, 9438.560538120335, 28911.109734905927, 4172.511896194446, 32819.28990117191, 45388.70398863602, 35308.76014337065, 43892.92524968687, 25196.65213783409, 24221.736099926962, -1954.972977038977, 22.59761364431544, -0.09160937499999999, 0.996203125, 0.22962500000000002, 192.0, 0.0, 0.0, 0.0, 0.0, 0.0, 0.0, 0.0, 0.0, 0.0, 1.7068825022862313E9, 0.0, 2024-02-02 15:01:42.286
154.0, 60098.74464258488, 63381.63475771365, -30957.23312583365, -2438.821189263009, 17773.1460658486, 9430.379799649692, 28900.313842334017, 4165.8734280912195, 32810.080982456326, 45380.210325743, 35305.65325089136, 43892.6123252645, 25189.946614497498, 24228.911009897114, -1963.131363765164, 16.920270552667446, -0.09160937499999999, 0.996203125, 0.22962500000000002, 192.0, 0.0, 0.0, 0.0, 0.0, 0.0, 0.0, 0.0, 0.0, 0.0, 1.7068825022942283E9, 0.0, 2024-02-02 15:01:42.294
156.0, 60108.959389800955, 63390.24017932895, -30944.64909370531, -2425.141921656361, 17787.47353404445, 9435.945384019064, 28912.00380468414, 4173.8530008617645, 32818.64170058271, 45377.70693036401, 35314.34807948447, 43897.32854334456, 25208.453858906494, 24217.98100685847, -1952.1343054931529, 22.53055841094952, -0.09160937499999999, 0.996203125, 0.22962500000000002, 192.0, 0.0, 0.0, 0.0, 0.0, 0.0, 0.0, 0.0, 0.0, 0.0, 1.7068825023015575E9, 0.0, 2024-02-02 15:01:42.301
158.0, 60096.55417162826, 63377.566740222785, -30955.042654877027, -2433.0320874490844, 17780.76801070786, 9429.731599060487, 28903.778362724588, 4163.057108289851, 32824.900189030195, 45392.4143782156, 35310.32476548252, 43897.283839855656, 25200.183713458027, 24255.353123587745, -1955.8893985616446, 19.602479887304295, -0.0898046875, 0.9981015625, 0.23081250000000003, 192.0, 126.5, 32.0, 15.5, 32.0, 3.5, 32.0, 0.0, 0.0, 0.0, 1.70688250230943E9, 0.0, 2024-02-02 15:01:42.309
160.0, 60104.46668916544, 63384.853408915216, -30945.386701272335, -2413.1390348838613, 17788.121734633653, 9453.312689460838, 28907.53345579308, 4174.25533226196, 32824.766078563465, 45382.26668623289, 35307.55314917006, 43891.40533106391, 25191.868864520653, 24219.500925481432, -1957.4987241624267, 17.94845079761157, -0.0898046875, 0.9981015625, 0.23081250000000003, 192.0, 0.0, 0.0, 0.0, 0.0, 0.0, 0.0, 0.0, 0.0, 0.0, 1.7068825023182793E9, 0.0, 2024-02-02 15:01:42.318
162.0, 60100.443375163486, 63382.10414434721, -30950.393492030325, -2418.4811018086793, 17786.71357473297, 9445.333116690292, 28918.3740518539, 4170.947274082574, 32830.64458735521, 45401.69035216455, 35315.46566670724, 43903.83290098106, 25202.731812325936, 24228.486326752463, -1943.6853460890468, 34.220520761075115, -0.0898046875, 0.9981015625, 0.23081250000000003, 192.0, 0.0, 0.0, 0.0, 0.0, 0.0, 0.0, 0.0, 0.0, 0.0, 1.7068825023263278E9, 0.0, 2024-02-02 15:01:42.326
164.0, 60104.824317076724, 63387.82619092777, -30946.772509428563, -2419.0175436756067, 17790.62513001265, 9445.10959924574, 28911.713232006223, 4165.448744946569, 32821.07804072834, 45408.46293073451, 35312.71640213924, 43897.2614881112, 25205.79400131631, 24243.439643793066, -1950.6590903591027, 23.96107005608917, -0.0898046875, 0.9981015625, 0.23081250000000003, 192.0, 0.0, 0.0, 0.0, 0.0, 0.0, 0.0, 0.0, 0.0, 0.0, 1.7068825023335743E9, 0.0, 2024-02-02 15:01:42.333
166.0, 60101.44920366397, 63386.82036242728, -30955.824965932963, -2429.969898458707, 17784.746621220904, 9434.24665144046, 28907.131124392883, 4155.435163430591, 32840.59111363782, 45412.59800345874, 35319.24311152018, 43894.04283690963, 25217.19339098852, 24259.42114107861, -1948.4686194024825, 25.928023568156192, -0.0898046875, 0.9981015625, 0.23081250000000003, 192.0, 0.0, 0.0, 0.0, 0.0, 0.0, 0.0, 0.0, 0.0, 0.0, 1.7068825023413088E9, 0.0, 2024-02-02 15:01:42.341
168.0, 60092.530857626305, 63377.92436813407, -30955.467338021677, -2417.631735519378, 17784.14312412061, 9446.763628335433, 28911.534418050578, 4163.8170676013315, 32853.86804984427, 45435.68735548107, 35309.56480617104, 43895.11572064349, 25216.344024699214, 24268.920632472116, -1953.229540971463, 24.81043634539084, -0.08690234375, 1.00105078125, 0.22840625000000003, 192.0, 126.5, 48.0, 15.5, 48.0, 3.5, 8.0, 0.0, 0.0, 0.0, 1.70688250235033E9, 0.0, 2024-02-02 15:01:42.350
170.0, 60092.62026460413, 63381.59005422474, -30956.808442689, -2438.8435410074644, 17782.019708397354, 9433.017305495418, 28910.52858955009, 4166.119297280228, 32884.534643236955, 45455.24513187947, 35313.92339633982, 43890.69007524134, 25209.79496357381, 24229.31334129731, -1953.4977619049266, 22.37409619976237, -0.08690234375, 1.00105078125, 0.22840625000000003, 192.0, 0.0, 0.0, 0.0, 0.0, 0.0, 0.0, 0.0, 0.0, 0.0, 1.7068825023573027E9, 0.0, 2024-02-02 15:01:42.357
172.0, 60097.492944895384, 63382.797048425324, -30944.716148938674, -2436.2954421395593, 17781.170342108053, 9439.387552665181, 28908.941615693762, 4172.154268283161, 32902.66190799021, 45469.70671054205, 35300.869977577924, 43880.34121755853, 25200.630748347136, 24275.067362197326, -1970.5968464132366, 6.23613670303067, -0.08690234375, 1.00105078125, 0.22840625000000003, 192.0, 0.0, 0.0, 0.0, 0.0, 0.0, 0.0, 0.0, 0.0, 0.0, 1.7068825023655052E9, 0.0, 2024-02-02 15:01:42.365
174.0, 60093.60374136016, 63379.57839722376, -30975.673315009277, -2447.0019277336514, 17774.241301326907, 9432.68202932859, 28899.352717322436, 4163.750012367966, 32944.41496663272, 45469.66200705314, 35310.05654454906, 43867.89129589692, 25245.602458191213, 24252.71561774202, -1956.6940613620357, 18.283726964441176, -0.08690234375, 1.00105078125, 0.22840625000000003, 192.0, 0.0, 0.0, 0.0, 0.0, 0.0, 0.0, 0.0, 0.0, 0.0, 1.7068825023743649E9, 0.0, 2024-02-02 15:01:42.374
176.0, 60110.792232846296, 63386.68625196055, -30919.995119571107, -2377.175078055272, 17797.531819049338, 9451.904529560154, 28915.468325074715, 4177.3175212523365, 33020.366194291855, 45472.18775417659, 35298.79126534358, 43902.111816658, 25250.05045533782, 24259.018809678415, -1972.9884830699543, 11.86877630576805, -0.08690234375, 1.00105078125, 0.22840625000000003, 192.0, 0.0, 0.0, 0.0, 0.0, 0.0, 0.0, 0.0, 0.0, 0.0, 1.7068825023814147E9, 0.0, 2024-02-02 15:01:42.381
178.0, 60106.74656709988, 63383.40054552562, -30932.199172043704, -2415.016581418107, 17792.27915910234, 9440.706305588044, 28911.847342472953, 4170.030852559907, 33086.996744513126, 45484.57062060483, 35338.51031524066, 43896.367418332986, 25242.741434900934, 24243.640809493165, -1940.4443431430273, 37.3497649848181, -0.08445117187500001, 1.001525390625, 0.229203125, 192.0, 126.5, 56.0, 15.5, 40.0, 3.5, 24.0, 0.0, 0.0, 0.0, 1.70688250238948E9, 0.0, 2024-02-02 15:01:42.389
180.0, 60085.534761611794, 63368.02254534037, -30983.205852890715, -2441.7045642977437, 17773.66015597107, 9426.803520536843, 28895.86584518741, 4150.003689527952, 33071.39522688332, 45485.21882119404, 35310.41417246034, 43893.95342993181, 25239.254562765906, 24232.733158198975, -1964.2489509879294, 17.970802542066878, -0.08445117187500001, 1.001525390625, 0.229203125, 192.0, 0.0, 0.0, 0.0, 0.0, 0.0, 0.0, 0.0, 0.0, 0.0, 1.7068825023975015E9, 0.0, 2024-02-02 15:01:42.397
182.0, 60093.35787217115, 63368.93896686304, -30966.17382361577, -2425.5666048010116, 17774.80009493829, 9430.446854883057, 28899.799752211544, 4149.91428255013, 33127.36399499941, 45492.10315848627, 35299.618279888426, 43879.514203013685, 25230.067995794776, 24251.46392005252, -1969.9933493129433, 9.58889837132673, -0.08445117187500001, 1.001525390625, 0.229203125, 192.0, 0.0, 0.0, 0.0, 0.0, 0.0, 0.0, 0.0, 0.0, 0.0, 1.7068825024063928E9, 0.0, 2024-02-02 15:01:42.406
184.0, 60092.32969192621, 63368.98367035195, -30958.529527012055, -2456.680233082799, 17777.102324617186, 9413.10190118574, 28906.169999381305, 4153.267044218426, 33187.579594562005, 45449.72425099901, 35297.04782927607, 43872.76397618818, 25226.715234126477, 24196.143352525636, -1977.8164598723008, 9.52184313796081, -0.08445117187500001, 1.001525390625, 0.229203125, 192.0, 0.0, 0.0, 0.0, 0.0, 0.0, 0.0, 0.0, 0.0, 0.0, 1.706882502413392E9, 0.0, 2024-02-02 15:01:42.413
186.0, 60095.07895649421, 63373.6104814542, -30961.256439835604, -2420.3810000873805, 17782.33263281973, 9440.348677676759, 28912.272025617604, 4166.566332169335, 33161.31629482702, 45504.977763292525, 35317.20910277475, 43885.392711805434, 25225.41883294807, 24267.46776908252, -1954.7941630833345, 14.752151340502662, -0.08445117187500001, 1.001525390625, 0.229203125, 192.0, 0.0, 0.0, 0.0, 0.0, 0.0, 0.0, 0.0, 0.0, 0.0, 1.706882502421517E9, 0.0, 2024-02-02 15:01:42.421
188.0, 60078.80688653075, 63358.29953650231, -30982.311783112502, -2455.205017948749, 17765.479417500428, 9433.86667178472, 28898.10101963294, 4158.430297187602, 33154.94604765726, 45470.869001253726, 35284.575555870004, 43865.99139761822, 25214.28766420933, 24227.346387785245, -1973.9719598259878, 15.489758907527795, -0.08445117187500001, 1.001525390625, 0.229203125, 192.0, 0.0, 0.0, 0.0, 0.0, 0.0, 0.0, 0.0, 0.0, 0.0, 1.7068825024294724E9, 0.0, 2024-02-02 15:01:42.429
190.0, 60096.15184022806, 63371.79999015332, -30965.79384396003, -2472.326454201514, 17776.85645542818, 9441.779189321898, 28905.208874369728, 4164.82289610182, 33182.2822311261, 45494.96418177655, 35294.38797168589, 43856.82718239155, 25241.690902911534, 24240.064530380314, -1967.6687678895914, 9.298325693407739, -0.088, 1.0, 0.23600000000000002, 192.0, 126.5, 32.0, 15.5, 32.0, 3.5, 48.0, 0.0, 0.0, 0.0, 1.70688250243747E9, 0.0, 2024-02-02 15:01:42.437
192.0, 60104.17611648752, 63380.092487346235, -30956.763739200087, -2403.7289504681767, 17786.624167755148, 9445.981317279497, 28915.71419426372, 4174.367090984237, 33217.2403594542, 45491.03027475241, 35321.45593422126, 43884.81156644959, 25231.364396973182, 24225.580599973277, -1958.3257387072729, 26.844445090823783, -0.088, 1.0, 0.23600000000000002, 192.0, 0.0, 0.0, 0.0, 0.0, 0.0, 0.0, 0.0, 0.0, 0.0, 1.706882502445464E9, 0.0, 2024-02-02 15:01:42.445
194.0, 60104.10906125415, 63385.322795548775, -30956.56257349999, -2411.373247071892, 17787.004147410888, 9447.38947718018, 28917.792906498067, 4175.507029951457, 33200.00716447916, 45474.065300710834, 35315.68918415179, 43901.68713351335, 25226.17879225955, 24223.79246041685, -1952.7601543379014, 32.00769805999971, -0.088, 1.0, 0.23600000000000002, 192.0, 0.0, 0.0, 0.0, 0.0, 0.0, 0.0, 0.0, 0.0, 0.0, 1.7068825024537451E9, 0.0, 2024-02-02 15:01:42.453
196.0, 60088.954578513454, 63365.85442612821, -30964.676256737264, -2435.490779339168, 17782.287929330818, 9438.694648587067, 28917.01059544213, 4172.44484096108, 33166.99363791867, 45468.969102975025, 35305.31797472453, 43888.23138335125, 25201.7483355699, 24225.021806361892, -1953.4307066715608, 29.280785236452253, -0.088, 1.0, 0.23600000000000002, 192.0, 0.0, 0.0, 0.0, 0.0, 0.0, 0.0, 0.0, 0.0, 0.0, 1.7068825024624624E9, 0.0, 2024-02-02 15:01:42.462
198.0, 60082.27140692132, 63370.68240293055, -30971.739407985144, -2455.3838319043916, 17776.409420539072, 9420.67914255609, 28907.66756625981, 4168.667396148133, 33171.329876343, 45451.26652136642, 35278.54058486707, 43858.458859736784, 25213.862981064678, 24227.63696046316, -1968.7416516234462, 7.443130903617252, -0.088, 1.0, 0.23600000000000002, 192.0, 0.0, 0.0, 0.0, 0.0, 0.0, 0.0, 0.0, 0.0, 0.0, 1.7068825024694636E9, 0.0, 2024-02-02 15:01:42.469
200.0, 60103.505564153864, 63383.28878680334, -30955.37793104386, -2409.8309767044757, 17785.350118321196, 9446.16013123514, 28919.648101287858, 4186.481736479012, 33159.70696922624, 45490.96321951905, 35310.727096882714, 43884.99038040524, 25221.7531468574, 24241.115062369714, -1963.3101777208065, 9.611250115782036, -0.088, 1.01, 0.234, 192.0, 126.5, 32.0, 15.5, 72.0, 3.5, 40.0, 0.0, 0.0, 0.0, 1.7068825024778116E9, 0.0, 2024-02-02 15:01:42.477
202.0, 60099.303436196264, 63380.60657746871, -30947.5548204845, -2422.0350291770733, 17788.7475834784, 9445.288413201382, 28915.848304730454, 4180.7820416429095, 33172.31335309903, 45494.91947828764, 35306.0332305471, 43888.052569395615, 25219.42856543405, 24227.167573829603, -1956.582302639759, 24.94454681212268, -0.088, 1.01, 0.234, 192.0, 0.0, 0.0, 0.0, 0.0, 0.0, 0.0, 0.0, 0.0, 0.0, 1.7068825024854853E9, 0.0, 2024-02-02 15:01:42.485
204.0, 60093.55903787125, 63373.43166749855, -30975.13687314235, -2427.690020524266, 17778.264615328862, 9433.129064217695, 28906.773496481597, 4169.360300226248, 33150.7215679552, 45471.628960565205, 35306.681431136305, 43885.54917401662, 25250.89982162712, 24221.669044693597, -1961.1420585086416, 14.99802052951104, -0.088, 1.01, 0.234, 192.0, 0.0, 0.0, 0.0, 0.0, 0.0, 0.0, 0.0, 0.0, 0.0, 1.7068825024934945E9, 0.0, 2024-02-02 15:01:42.493
206.0, 60108.60176188967, 63387.06623161629, -30930.008701087085, -2410.2780115935816, 17796.99537718241, 9462.879236087709, 28932.030967716095, 4190.9967888589845, 33139.38923351637, 45466.309245384844, 35323.55699820006, 43887.94081067334, 25208.833838562234, 24232.621399476695, -1949.228578713963, 21.122398510265175, -0.088, 1.01, 0.234, 192.0, 0.0, 0.0, 0.0, 0.0, 0.0, 0.0, 0.0, 0.0, 0.0, 1.706882502501696E9, 0.0, 2024-02-02 15:01:42.501
208.0, 60097.76116582885, 63378.01377511189, -30952.762776942585, -2416.8717762078973, 17783.22670259794, 9442.069761999817, 28921.659758288835, 4182.1902015435935, 33138.11518408241, 45485.66585608314, 35319.31016675355, 43904.324639359074, 25221.41787069057, 24248.267620595412, -1940.5561018653038, 34.57814867236002, -0.088, 1.01, 0.234, 192.0, 0.0, 0.0, 0.0, 0.0, 0.0, 0.0, 0.0, 0.0, 0.0, 1.7068825025095186E9, 0.0, 2024-02-02 15:01:42.509
210.0, 60103.95259904297, 63383.221731569975, -30950.929933897252, -2419.6880960092662, 17784.925435176545, 9452.284509215893, 28919.37988035439, 4185.632370189711, 33085.70034333472, 45461.68243428259, 35314.32572774002, 43889.103101385015, 25216.031100276843, 24231.772033187393, -1955.487067161449, 23.223462489064037, -0.094, 1.004, 0.23, 192.0, 126.5, 8.0, 15.5, 48.0, 3.5, 24.0, 0.0, 0.0, 0.0, 1.7068825025185554E9, 0.0, 2024-02-02 15:01:42.518
212.0, 60101.89623855308, 63382.99821412542, -30951.868707164373, -2424.381962344881, 17786.75827822188, 9441.466264899524, 28923.649063545356, 4184.1795068001165, 33110.2649104911, 45473.12652744371, 35323.42288773333, 43891.338275830545, 25231.543210928823, 24230.98972213146, -1947.9321775355552, 23.223462489064037, -0.094, 1.004, 0.23, 192.0, 0.0, 0.0, 0.0, 0.0, 0.0, 0.0, 0.0, 0.0, 0.0, 1.706882502525584E9, 0.0, 2024-02-02 15:01:42.525
214.0, 60096.15184022806, 63381.29948154682, -30960.429425290757, -2419.2187093757047, 17781.12563861914, 9441.019230010419, 28920.028080943597, 4185.565314956345, 33073.87627051786, 45477.52982110141, 35312.9846230727, 43885.99620890572, 25216.589893888224, 24258.504719555942, -1953.9000933051223, 13.902785051200993, -0.094, 1.004, 0.23, 192.0, 0.0, 0.0, 0.0, 0.0, 0.0, 0.0, 0.0, 0.0, 0.0, 1.7068825025337713E9, 0.0, 2024-02-02 15:01:42.533
216.0, 60089.535723869296, 63374.92923437706, -30974.64513476433, -2439.044706707562, 17773.70485945998, 9431.519738616913, 28909.76863023861, 4175.462326462546, 33053.49147957462, 45448.13727714268, 35304.75918111315, 43877.23432507925, 25215.71817585447, 24216.528143468877, -1957.6998898625243, 11.26527920547476, -0.094, 1.004, 0.23, 192.0, 0.0, 0.0, 0.0, 0.0, 0.0, 0.0, 0.0, 0.0, 0.0, 1.7068825025416148E9, 0.0, 2024-02-02 15:01:42.541
218.0, 60096.33065418371, 63383.26643505889, -30954.37210254337, -2414.614250017911, 17781.729135719437, 9460.331137219804, 28913.568426796013, 4182.324312010326, 33044.57313353696, 45473.730024544006, 35302.8816345789, 43877.99428439073, 25212.723042097456, 24229.93919014206, -1959.5774363967703, 18.10491300879872, -0.094, 1.004, 0.23, 192.0, 0.0, 0.0, 0.0, 0.0, 0.0, 0.0, 0.0, 0.0, 0.0, 1.7068825025495884E9, 0.0, 2024-02-02 15:01:42.549
220.0, 60103.304398453765, 63386.59684498273, -30952.65101822031, -2413.720180239699, 17786.825333455246, 9452.485674915992, 28923.53730482308, 4186.995826601485, 33044.30491260349, 45475.62992282271, 35317.61143417495, 43894.44516830983, 25233.711330140988, 24221.02084410439, -1952.7601543379014, 17.25554671949705, -0.088, 1.006, 0.228, 192.0, 126.5, 32.0, 15.5, 56.0, 3.5, 16.0, 0.0, 0.0, 0.0, 1.7068825025576153E9, 0.0, 2024-02-02 15:01:42.557
222.0, 60092.821430304226, 63376.20328381101, -30965.950306171217, -2423.6667065223105, 17771.916719903555, 9434.380761907192, 28904.225397613693, 4168.287416492393, 33037.219409611156, 45478.5356496019, 35315.488018451695, 43890.7571304747, 25223.809507347287, 24249.675780496094, -1953.3189479492842, 20.049514776410437, -0.088, 1.006, 0.228, 192.0, 0.0, 0.0, 0.0, 0.0, 0.0, 0.0, 0.0, 0.0, 0.0, 1.7068825025656116E9, 0.0, 2024-02-02 15:01:42.565
224.0, 60089.93805526949, 63371.46471398648, -30971.40413181831, -2433.43441884928, 17767.692240201504, 9429.396322893659, 28897.922205677296, 4165.068765290829, 33021.46142977016, 45476.41223387864, 35305.72030612473, 43880.18475534734, 25204.877579793643, 24230.453280264534, -1967.489953933949, 3.3527616682960595, -0.088, 1.006, 0.228, 192.0, 0.0, 0.0, 0.0, 0.0, 0.0, 0.0, 0.0, 0.0, 0.0, 1.7068825025736837E9, 0.0, 2024-02-02 15:01:42.573
226.0, 60099.90693329656, 63379.89132164614, -30952.785128687043, -2426.952412957241, 17787.160609622075, 9439.074628242806, 28914.23897912967, 4173.182448528105, 33022.40020303729, 45473.52885884391, 35313.16343702834, 43882.59874374852, 25214.08649850923, 24225.13356508417, -1959.868009074689, 5.945564025111679, -0.088, 1.006, 0.228, 192.0, 0.0, 0.0, 0.0, 0.0, 0.0, 0.0, 0.0, 0.0, 0.0, 1.7068825025806556E9, 0.0, 2024-02-02 15:01:42.580
228.0, 60094.497811138375, 63374.68336518805, -30954.30504731, -2427.108875168428, 17783.60668225368, 9437.44295089757, 28910.729755250188, 4166.320462980326, 33025.79766819449, 45485.0847107273, 35321.72415515473, 43888.34314207353, 25245.021312835375, 24226.877001151683, -1948.647433358125, 17.166139741675824, -0.088, 1.006, 0.228, 192.0, 0.0, 0.0, 0.0, 0.0, 0.0, 0.0, 0.0, 0.0, 0.0, 1.7068825025896673E9, 0.0, 2024-02-02 15:01:42.589
230.0, 60085.691223822985, 63365.58620519474, -30966.978486416163, -2439.5364450855786, 17775.51535076086, 9434.403113651648, 28897.072839387994, 4160.263140232938, 33017.706336701674, 45472.053643709856, 35312.00114631667, 43878.68718846884, 25220.121469512163, 24227.324036040787, -1957.968110795988, 6.258488447485978, -0.092, 1.0, 0.226, 192.0, 126.5, 16.0, 15.5, 32.0, 3.5, 8.0, 0.0, 0.0, 0.0, 1.7068825025978627E9, 0.0, 2024-02-02 15:01:42.597
232.0, 60093.715500082435, 63375.465676243984, -30958.7083409677, -2430.573395559001, 17783.539627020316, 9444.908433545641, 28913.76959249611, 4168.488582192491, 33033.30785433148, 45481.083748469806, 35310.61533816044, 43880.76590070318, 25214.354719442694, 24236.46589952301, -1956.29172996184, 10.102988493798792, -0.092, 1.0, 0.226, 192.0, 0.0, 0.0, 0.0, 0.0, 0.0, 0.0, 0.0, 0.0, 0.0, 1.7068825026046784E9, 0.0, 2024-02-02 15:01:42.604
234.0, 60091.52502912582, 63370.101257574715, -30957.568402000477, -2428.919366469308, 17783.584330509228, 9432.436160139581, 28917.882313475886, 4163.593550156778, 33060.17465116676, 45488.124547973224, 35316.42679171882, 43887.11379612849, 25232.37022547367, 24236.93528615657, -1950.4802764034603, 16.60734613029315, -0.092, 1.0, 0.226, 192.0, 0.0, 0.0, 0.0, 0.0, 0.0, 0.0, 0.0, 0.0, 0.0, 1.7068825026137035E9, 0.0, 2024-02-02 15:01:42.613
236.0, 60101.538610641794, 63377.432629756055, -30949.03003561855, -2423.8902239668637, 17787.33942357772, 9436.705343330545, 28920.43041234379, 4171.3272537383145, 33092.294107949034, 45485.822318294326, 35320.00307083167, 43886.577354261564, 25236.95233308701, 24227.167573829603, -1948.490971146938, 13.746322840013844, -0.092, 1.0, 0.226, 192.0, 0.0, 0.0, 0.0, 0.0, 0.0, 0.0, 0.0, 0.0, 0.0, 1.7068825026216955E9, 0.0, 2024-02-02 15:01:42.621
238.0, 60097.783517573305, 63374.72806867696, -30955.73555895514, -2437.9271194847965, 17781.259749085875, 9419.29333439986, 28910.61799652791, 4164.800544357365, 33135.63414044787, 45514.47725468603, 35327.80382964657, 43896.92621194437, 25236.013559819887, 24253.475577053498, -1942.8359797997452, 20.45184617660596, -0.092, 1.0, 0.226, 192.0, 0.0, 0.0, 0.0, 0.0, 0.0, 0.0, 0.0, 0.0, 0.0, 1.7068825026297877E9, 0.0, 2024-02-02 15:01:42.629
240.0, 60109.49583166788, 63382.57353098077, -30944.626741960856, -2405.3606278134143, 17789.172266623053, 9461.828704098309, 28922.35266236695, 4181.050262576373, 33182.46104508174, 45518.43351345462, 35322.90879761086, 43895.58510727705, 25239.27691451036, 24271.781655762396, -1954.5035904054155, 9.879471049245721, -0.094, 1.002, 0.232, 192.0, 126.5, 8.0, 15.5, 40.0, 3.5, 32.0, 0.0, 0.0, 0.0, 1.706882502636714E9, 0.0, 2024-02-02 15:01:42.636
242.0, 60097.24707570638, 63375.06334484379, -30956.584925244442, -2422.437360577269, 17785.84185669921, 9439.409904409637, 28918.351700109448, 4176.557561940856, 33238.00513005318, 45534.30325201789, 35319.55603594256, 43897.2614881112, 25258.253545552918, 24251.84389970826, -1947.8204188132786, 27.671459635670143, -0.094, 1.002, 0.232, 192.0, 0.0, 0.0, 0.0, 0.0, 0.0, 0.0, 0.0, 0.0, 0.0, 1.7068825026457372E9, 0.0, 2024-02-02 15:01:42.645
244.0, 60093.715500082435, 63368.335469762744, -30966.822024204976, -2431.534520570579, 17778.71165021797, 9431.698552572556, 28915.624787285902, 4170.29907349337, 33280.4063892849, 45542.26047304398, 35302.345192711975, 43880.698845469815, 25253.04558909483, 24262.058646924335, -1963.8019160988233, 7.443130903617252, -0.094, 1.002, 0.232, 192.0, 0.0, 0.0, 0.0, 0.0, 0.0, 0.0, 0.0, 0.0, 0.0, 1.7068825026537948E9, 0.0, 2024-02-02 15:01:42.653
246.0, 60094.54251462728, 63368.58133895175, -30955.847317677417, -2432.585052559978, 17787.205313110986, 9431.944421761564, 28915.222455885705, 4173.87535260622, 33368.24874499426, 45538.170103808654, 35311.97879457221, 43882.21876409278, 25241.713254655988, 24238.432853035076, -1961.2091137420075, 12.09229375032112, -0.094, 1.002, 0.232, 192.0, 0.0, 0.0, 0.0, 0.0, 0.0, 0.0, 0.0, 0.0, 0.0, 1.7068825026610968E9, 0.0, 2024-02-02 15:01:42.661
248.0, 60093.51433438234, 63367.284937773344, -30960.49648052412, -2441.9057299978413, 17779.85158918519, 9428.05521822634, 28909.76863023861, 4166.834553102798, 33440.91426621846, 45567.56264776739, 35314.996280073676, 43884.43158679386, 25261.9639351325, 24249.720483985006, -1953.4083549271054, 12.718142595069718, -0.094, 1.002, 0.232, 192.0, 0.0, 0.0, 0.0, 0.0, 0.0, 0.0, 0.0, 0.0, 0.0, 1.7068825026687548E9, 0.0, 2024-02-02 15:01:42.668
250.0, 60099.92928504101, 63377.61144371169, -30958.306009567503, -2423.5996512889446, 17783.42786829804, 9435.855977041243, 28910.573293039, 4167.661567647644, 33499.878168091556, 45561.63943548673, 35310.592986415984, 43879.73772045824, 25259.795815920334, 24277.481350598497, -1958.6386631296473, 2.6151541012709263, -0.088, 0.996, 0.226, 192.0, 126.5, 32.0, 15.5, 16.0, 3.5, 8.0, 0.0, 0.0, 0.0, 1.7068825026779644E9, 0.0, 2024-02-02 15:01:42.677
252.0, 60092.888485537595, 63373.096391331725, -30963.37985555886, -2424.33725885597, 17778.488132773415, 9435.386590407681, 28906.371165081404, 4168.086250792295, 33605.60191936516, 45572.48003154755, 35323.37818424442, 43895.85332821051, 25269.42941778057, 24267.71363827153, -1952.0448985153316, 27.8502735913126, -0.088, 0.996, 0.226, 192.0, 0.0, 0.0, 0.0, 0.0, 0.0, 0.0, 0.0, 0.0, 0.0, 1.7068825026848075E9, 0.0, 2024-02-02 15:01:42.684
254.0, 60091.837953548194, 63375.040993099334, -30973.259326608102, -2440.7657910306207, 17770.195635580498, 9430.759779305432, 28902.459609801725, 4158.072669276317, 33648.71843441945, 45565.01454889948, 35309.92243408232, 43882.86696468198, 25282.90751968712, 24252.246231108456, -1964.6289306436695, 7.018447758966418, -0.088, 0.996, 0.226, 192.0, 0.0, 0.0, 0.0, 0.0, 0.0, 0.0, 0.0, 0.0, 0.0, 1.706882502692916E9, 0.0, 2024-02-02 15:01:42.692
0.0, 60094.52016288283, 63380.561873979794, -30953.098053109417, -2418.458750064224, 17784.81367645427, 9444.39434342317, 28907.891083704366, 4168.421526959125, 33722.590949844234, 45597.08930219285, 35310.14595152688, 43894.3110578431, 25268.557699746812, 24278.487179098986, -1964.7853928548568, 8.471311148561377, -0.088, 0.996, 0.226, 192.0, 0.0, 0.0, 0.0, 0.0, 0.0, 0.0, 0.0, 0.0, 0.0, 1.706882502701848E9, 0.0, 2024-02-02 15:01:42.701
2.0, 60073.733040539395, 63369.4083534966, -30979.85309122242, -2472.0358815235954, 17771.022650125346, 9420.790901278366, 28909.835685471975, 4160.464305933036, 33745.47913616647, 45581.28661886294, 35306.56967241403, 43873.14395584392, 25244.32840875726, 24243.41729204861, -1958.10222126272, 12.673439106159105, -0.088, 0.996, 0.226, 192.0, 0.0, 0.0, 0.0, 0.0, 0.0, 0.0, 0.0, 0.0, 0.0, 1.7068825027098465E9, 0.0, 2024-02-02 15:01:42.709
4.0, 60090.31803492523, 63377.90201638961, -30949.4547187632, -2390.6755317062775, 17785.84185669921, 9433.397285151159, 28918.284644876083, 4171.774288627421, 33812.53436953239, 45606.141758697246, 35293.69506760777, 43881.458804781294, 25249.80458614881, 24264.785559747885, -1966.7299946224684, 11.33233443884068, -0.09, 1.008, 0.228, 192.0, 126.5, 24.0, 15.5, 64.0, 3.5, 16.0, 0.0, 0.0, 0.0, 1.7068825027168584E9, 0.0, 2024-02-02 15:01:42.716
6.0, 60082.20435168796, 63371.68823143104, -30984.256384880115, -2421.2303663766825, 17765.054734355777, 9420.746197789455, 28895.463513787214, 4161.581893155801, 33891.52543443745, 45579.274961861964, 35323.91462611135, 43895.54040378814, 25300.319528617805, 24248.200565362047, -1959.3092154633066, 22.7764275999579, -0.09, 1.008, 0.228, 192.0, 0.0, 0.0, 0.0, 0.0, 0.0, 0.0, 0.0, 0.0, 0.0, 1.7068825027251475E9, 0.0, 2024-02-02 15:01:42.725
8.0, 60086.27236917882, 63369.54246396333, -30979.5625185445, -2462.514038385634, 17763.735981432914, 9414.957095975531, 28909.76863023861, 4165.269930990927, 33871.38651268322, 45580.549011295916, 35279.009971500636, 43861.342234771524, 25259.818167664787, 24278.37542037671, -1993.417977502105, -16.1379594967317, -0.09, 1.008, 0.228, 192.0, 0.0, 0.0, 0.0, 0.0, 0.0, 0.0, 0.0, 0.0, 0.0, 1.7068825027339132E9, 0.0, 2024-02-02 15:01:42.733
10.0, 60093.17905821551, 63373.45401924301, -30954.640323476833, -2439.022354963107, 17785.774801465846, 9450.474017915014, 28915.848304730454, 4186.548791712379, 33970.76236853151, 45572.234162358545, 35310.83885560499, 43847.081821809035, 25263.282688055362, 24263.1762341471, -1965.1430207661417, 11.242927461019452, -0.09, 1.008, 0.228, 192.0, 0.0, 0.0, 0.0, 0.0, 0.0, 0.0, 0.0, 0.0, 0.0, 1.7068825027412088E9, 0.0, 2024-02-02 15:01:42.741
12.0, 60087.45701163495, 63366.61438543969, -30979.42840807777, -2425.7677705011097, 17768.161626835066, 9436.347715419259, 28907.555807537534, 4177.853963119264, 33990.58836586337, 45587.07572067687, 35299.59592814397, 43891.8076624641, 25247.457652981004, 24225.111213339715, -1967.5346574228595, 24.341049711829392, -0.09, 1.008, 0.228, 192.0, 0.0, 0.0, 0.0, 0.0, 0.0, 0.0, 0.0, 0.0, 0.0, 1.7068825027491753E9, 0.0, 2024-02-02 15:01:42.749
14.0, 60086.04885173427, 63370.704754675004, -30991.565405317, -2476.39447169238, 17774.95655714948, 9423.450758868546, 28919.223418143207, 4182.279608521415, 34000.31137470143, 45539.3994497537, 35296.17611124231, 43848.73585089873, 25270.6140602367, 24256.068379410313, -1974.039015059354, 0.9834767560335107, -0.09, 1.006, 0.226, 192.0, 126.5, 24.0, 15.5, 56.0, 3.5, 8.0, 0.0, 0.0, 0.0, 1.706882502757925E9, 0.0, 2024-02-02 15:01:42.757
16.0, 60079.72330805341, 63373.76694366538, -30998.248576909136, -2440.1175904414167, 17758.93035637502, 9416.946401232053, 28906.52762729259, 4171.193143271583, 33956.90428696922, 45523.932042590626, 35252.9701892102, 43854.703766668295, 25249.17873730406, 24228.46397500801, -1990.4675472340045, -7.30902043688541, -0.09, 1.006, 0.226, 192.0, 0.0, 0.0, 0.0, 0.0, 0.0, 0.0, 0.0, 0.0, 0.0, 1.7068825027660089E9, 0.0, 2024-02-02 15:01:42.766
18.0, 60102.63384612011, 63388.09441186123, -30954.5062130101, -2422.9961541886514, 17781.95265316399, 9453.692669116577, 28923.626711800902, 4191.399120259181, 34091.864119990365, 45504.59778363679, 35317.454971963765, 43878.038987879634, 25246.585934947245, 24239.595143746752, -1964.9195033215885, 13.634564117737309, -0.09, 1.006, 0.226, 192.0, 0.0, 0.0, 0.0, 0.0, 0.0, 0.0, 0.0, 0.0, 0.0, 1.706882502772934E9, 0.0, 2024-02-02 15:01:42.772
20.0, 60092.463802392944, 63381.99238562494, -30995.83458850796, -2462.178762218805, 17762.774856421336, 9436.079494485795, 28906.415868570315, 4173.137745039195, 34041.12566007682, 45516.48891168701, 35305.27327123562, 43863.577409217054, 25229.263332994382, 24253.18500437558, -1962.3490527092283, 27.09031427983216, -0.09, 1.006, 0.226, 192.0, 0.0, 0.0, 0.0, 0.0, 0.0, 0.0, 0.0, 0.0, 0.0, 1.7068825027811916E9, 0.0, 2024-02-02 15:01:42.781
22.0, 60103.39380543159, 63391.268359573885, -30982.46824532369, -2430.4392850922686, 17775.872978672145, 9442.561500377835, 28913.121391906905, 4179.038605575395, 34028.45222097066, 45456.541533057876, 35291.929279795804, 43878.79894719111, 25240.14863254412, 24229.64861746414, -1979.358730239717, 11.958183283589278, -0.09, 1.006, 0.226, 192.0, 0.0, 0.0, 0.0, 0.0, 0.0, 0.0, 0.0, 0.0, 0.0, 1.7068825027899563E9, 0.0, 2024-02-02 15:01:42.789
24.0, 60097.76116582885, 63383.91463564809, -30995.074629196482, -2451.338166157981, 17757.365734263152, 9431.855014783743, 28899.28566208907, 4156.865675075731, 34003.03828752498, 45458.88846622568, 35305.40738170235, 43882.06230188159, 25237.37701623166, 24206.73807939745, -1960.8291340862675, 22.552910155404827, -0.08600000000000001, 0.976, 0.234, 192.0, 126.5, 40.0, 15.0, 64.0, 3.5, 40.0, 0.0, 0.0, 0.0, 1.706882502796974E9, 0.0, 2024-02-02 15:01:42.796
26.0, 60116.00018930438, 63395.44813578703, -30967.626687005366, -2426.103046667939, 17767.915757646057, 9441.510968388435, 28913.411964584826, 4169.9190938376305, 33970.04711270894, 45460.587198804285, 35301.004088044654, 43891.58414501955, 25226.46936493747, 24225.513544739908, -1965.6571108886137, 17.12143625276521, -0.08600000000000001, 0.976, 0.234, 192.0, 0.0, 0.0, 0.0, 0.0, 0.0, 0.0, 0.0, 0.0, 0.0, 1.7068825028051715E9, 0.0, 2024-02-02 15:01:42.805
28.0, 60108.60176188967, 63389.368461295184, -30978.60139353292, -2444.8114567770313, 17773.10136235969, 9441.19804396606, 28917.323519864505, 4183.576009699823, 33924.18133308665, 45440.09064913877, 35323.71346041125, 43884.58804900504, 25228.816298105277, 24205.866361363693, -1954.7941630833345, 21.32356421036294, -0.08600000000000001, 0.976, 0.234, 192.0, 0.0, 0.0, 0.0, 0.0, 0.0, 0.0, 0.0, 0.0, 0.0, 1.7068825028129792E9, 0.0, 2024-02-02 15:01:42.812
30.0, 60110.61341889065, 63382.953510636515, -30978.064951665994, -2460.3906226623803, 17771.357926292174, 9421.81908152331, 28915.825952985997, 4186.101756823273, 33860.90354453368, 45419.50469249543, 35280.5745936125, 43858.414156247876, 25217.238094477427, 24259.667010267618, -1975.514230193404, -0.20116570009776358, -0.08600000000000001, 0.976, 0.234, 192.0, 0.0, 0.0, 0.0, 0.0, 0.0, 0.0, 0.0, 0.0, 0.0, 1.7068825028209927E9, 0.0, 2024-02-02 15:01:42.820
32.0, 60115.17317475953, 63389.659033973105, -30982.55765230151, -2438.664727051822, 17755.8905191291, 9440.706305588044, 28896.134066120874, 4178.815088130843, 33811.97557592101, 45449.90306495465, 35316.31503299654, 43867.10898484099, 25219.36151020068, 24241.942076914558, -1983.0244163303873, -2.793968056913383, -0.08600000000000001, 0.976, 0.234, 192.0, 0.0, 0.0, 0.0, 0.0, 0.0, 0.0, 0.0, 0.0, 0.0, 1.706882502828992E9, 0.0, 2024-02-02 15:01:42.828
34.0, 60105.71838685494, 63378.52786523436, -31000.75197228813, -2445.549064344056, 17752.671867927536, 9427.362314148226, 28893.96594690871, 4168.175657770116, 33689.71153375048, 45410.742808668954, 35294.67854436381, 43872.808679677095, 25196.85330353419, 24200.25607350541, -1997.3742362706944, -3.2857064349301384, -0.082, 0.981, 0.23500000000000001, 192.0, 126.5, 72.0, 15.0, 104.0, 3.5, 48.0, 0.0, 0.0, 0.0, 1.7068825028372574E9, 0.0, 2024-02-02 15:01:42.837
36.0, 60110.367549701645, 63386.41803102709, -30966.41969280478, -2437.524788084601, 17774.174246093542, 9428.949288004553, 28918.418755342813, 4177.652797419167, 33604.819608309226, 45421.98573612997, 35317.1867510303, 43875.5579442451, 25195.60160584469, 24220.618512704197, -1967.7581748674127, 3.308058179385445, -0.082, 0.981, 0.23500000000000001, 192.0, 0.0, 0.0, 0.0, 0.0, 0.0, 0.0, 0.0, 0.0, 0.0, 1.7068825028460453E9, 0.0, 2024-02-02 15:01:42.846
38.0, 60106.70186361097, 63386.9097694051, -30982.84822497943, -2453.461581881235, 17778.398725795596, 9435.632459596689, 28919.335176865483, 4183.173678299628, 33482.24264171632, 45406.29481152235, 35297.114884509436, 43873.30041805511, 25210.890199052123, 24223.658349950118, -1967.4005469561278, 0.6929040781145189, -0.082, 0.981, 0.23500000000000001, 192.0, 0.0, 0.0, 0.0, 0.0, 0.0, 0.0, 0.0, 0.0, 0.0, 1.706882502853054E9, 0.0, 2024-02-02 15:01:42.853
40.0, 60108.02061653383, 63383.75817343691, -30981.84239647894, -2440.6093288194334, 17773.034307126323, 9431.787959550376, 28908.874560460397, 4180.290303264893, 33419.30012933018, 45398.04701781834, 35318.2372830197, 43872.27223781017, 25222.84838233571, 24196.322166481277, -1964.003081798921, 3.0174855014664534, -0.082, 0.981, 0.23500000000000001, 192.0, 0.0, 0.0, 0.0, 0.0, 0.0, 0.0, 0.0, 0.0, 0.0, 1.7068825028611805E9, 0.0, 2024-02-02 15:01:42.861
42.0, 60105.874849066124, 63383.646414714625, -30978.869614466385, -2450.3546894019473, 17770.977946636434, 9418.756892532932, 28908.807505227032, 4180.424413731625, 33304.903901207916, 45395.34245673924, 35304.3344979685, 43867.95835113029, 25203.916454782066, 24258.772940489405, -1970.0380528018538, -0.1788139556424565, -0.082, 0.981, 0.23500000000000001, 192.0, 0.0, 0.0, 0.0, 0.0, 0.0, 0.0, 0.0, 0.0, 0.0, 1.7068825028690586E9, 0.0, 2024-02-02 15:01:42.869
44.0, 60106.05366302177, 63386.12745834917, -30980.27777436707, -2453.975672003707, 17769.815655924758, 9430.603317094245, 28912.607301784436, 4176.378747985214, 33194.53098708761, 45398.851680618725, 35310.525931182616, 43871.98166513225, 25189.723097052945, 24232.93432389907, -1971.423860958083, -7.487834392527866, -0.083, 0.9835, 0.23650000000000002, 192.0, 126.5, 48.0, 15.0, 104.0, 3.5, 56.0, 0.0, 0.0, 0.0, 1.706882502877108E9, 0.0, 2024-02-02 15:01:42.877
46.0, 60101.24803796387, 63378.907844890105, -30978.713152255197, -2439.022354963107, 17767.736943690416, 9441.041581754873, 28906.214702870217, 4171.528419438412, 33131.722585168194, 45390.91681133709, 35316.672660907825, 43874.909743655895, 25206.88923679462, 24225.31237903981, -1966.9535120670216, 4.738569824525097, -0.083, 0.9835, 0.23650000000000002, 192.0, 0.0, 0.0, 0.0, 0.0, 0.0, 0.0, 0.0, 0.0, 0.0, 1.7068825028851228E9, 0.0, 2024-02-02 15:01:42.885
48.0, 60097.71646233994, 63373.27520528737, -30984.166977902292, -2445.146732943861, 17767.647536712593, 9428.122273459707, 28911.512066306124, 4169.762631626443, 33054.54201156402, 45391.98969507095, 35304.20038750176, 43869.72413894226, 25193.99228024391, 24205.396974730134, -1973.6590354036136, -5.09619773581001, -0.083, 0.9835, 0.23650000000000002, 192.0, 0.0, 0.0, 0.0, 0.0, 0.0, 0.0, 0.0, 0.0, 0.0, 1.7068825028934145E9, 0.0, 2024-02-02 15:01:42.893
50.0, 60098.74464258488, 63373.31990877628, -30982.177672645772, -2449.527674857101, 17765.255900055876, 9430.53626186088, 28907.53345579308, 4172.467192705535, 33007.44688599669, 45383.38427345565, 35309.29658523758, 43871.04289186512, 25213.41594617557, 24230.453280264534, -1969.836887101756, -4.045665746410578, -0.083, 0.9835, 0.23650000000000002, 192.0, 0.0, 0.0, 0.0, 0.0, 0.0, 0.0, 0.0, 0.0, 0.0, 1.706882502902118E9, 0.0, 2024-02-02 15:01:42.902
52.0, 60095.28012219431, 63369.877740130156, -30985.910413969807, -2463.855143052953, 17765.613527967158, 9424.255421668939, 28903.6219005134, 4168.510933936946, 32974.433359436196, 45387.7652153689, 35301.69699212277, 43861.2528277937, 25204.005861759888, 24225.55824822882, -1978.710529650513, -12.226404217052963, -0.083, 0.9835, 0.23650000000000002, 192.0, 0.0, 0.0, 0.0, 0.0, 0.0, 0.0, 0.0, 0.0, 0.0, 1.7068825029082963E9, 0.0, 2024-02-02 15:01:42.908
54.0, 60096.375357672616, 63372.58230120925, -30981.64123077884, -2466.2467797096706, 17769.480379757926, 9423.271944912905, 28900.179731867283, 4172.020157816429, 32944.10204221035, 45372.11899425018, 35298.8806723214, 43848.15470554289, 25186.347983640193, 24206.89454160864, -1975.804802871323, -15.199186229608802, -0.08549999999999999, 0.98875, 0.23825000000000002, 192.0, 126.5, 32.0, 15.5, 8.0, 3.5, 64.0, 0.0, 0.0, 0.0, 1.7068825029173305E9, 0.0, 2024-02-02 15:01:42.917
56.0, 60099.99634027438, 63372.962280864995, -30975.27098360908, -2438.5082648406346, 17777.012917639368, 9434.716038074022, 28923.58200831199, 4182.056091076862, 32953.243905692565, 45361.524267378365, 35308.26840499263, 43870.55115348711, 25192.718230809955, 24246.434777550076, -1965.970035310988, 2.3022296788966274, -0.08549999999999999, 0.98875, 0.23825000000000002, 192.0, 0.0, 0.0, 0.0, 0.0, 0.0, 0.0, 0.0, 0.0, 0.0, 1.706882502925343E9, 0.0, 2024-02-02 15:01:42.925
58.0, 60095.50363963886, 63371.77763840886, -30977.193233632235, -2442.3527648869476, 17774.71068796047, 9419.159223933128, 28915.803601241543, 4174.25533226196, 32946.4266236337, 45365.9052092916, 35303.46277993474, 43864.33736852853, 25198.149704712596, 24212.79540214484, -1964.7183376214907, 7.197261714608874, -0.08549999999999999, 0.98875, 0.23825000000000002, 192.0, 0.0, 0.0, 0.0, 0.0, 0.0, 0.0, 0.0, 0.0, 0.0, 1.706882502933206E9, 0.0, 2024-02-02 15:01:42.933
60.0, 60098.677587351514, 63369.16248430759, -30975.94153594274, -2449.371212645914, 17772.967251892955, 9435.274831685405, 28914.998938441153, 4174.6353119177, 32952.9309812702, 45361.14428772262, 35307.597852658975, 43870.104118598, 25196.249806433894, 24236.957637901025, -1957.8116485848009, 10.080636749343485, -0.08549999999999999, 0.98875, 0.23825000000000002, 192.0, 0.0, 0.0, 0.0, 0.0, 0.0, 0.0, 0.0, 0.0, 0.0, 1.7068825029411652E9, 0.0, 2024-02-02 15:01:42.941
62.0, 60095.72715708341, 63367.53080696235, -30981.32830635647, -2462.6928523412766, 17763.71362968846, 9422.713151301521, 28901.5208365346, 4161.9395210670855, 32958.89889703976, 45356.4057178981, 35300.89232932238, 43863.06331909458, 25203.648233848602, 24238.92459141309, -1965.8582765887115, -0.7823110559357472, -0.08549999999999999, 0.98875, 0.23825000000000002, 192.0, 0.0, 0.0, 0.0, 0.0, 0.0, 0.0, 0.0, 0.0, 0.0, 1.7068825029494755E9, 0.0, 2024-02-02 15:01:42.949
64.0, 60100.37631993012, 63371.35295526421, -30979.249594122124, -2462.6034453634556, 17765.971155878444, 9434.91720377412, 28904.963005180718, 4162.498314678468, 32977.13792051529, 45374.60003788472, 35305.69795438027, 43865.119679584466, 25183.241091160908, 24210.046137576835, -1966.0817940332645, 3.0398372459217606, -0.08574999999999999, 0.988375, 0.23412500000000003, 192.0, 126.5, 40.0, 15.0, 112.0, 3.5, 24.0, 0.0, 0.0, 0.0, 1.7068825029572136E9, 0.0, 2024-02-02 15:01:42.957
66.0, 60112.20039274698, 63381.210074569, -30966.330285826956, -2411.1497296273387, 17773.07901061523, 9432.369104906214, 28909.120429649407, 4168.421526959125, 33004.5411592175, 45384.18893625605, 35311.95644282776, 43888.745473473726, 25196.56273085627, 24238.1199286127, -1964.003081798921, 14.930965296145118, -0.08574999999999999, 0.988375, 0.23412500000000003, 192.0, 0.0, 0.0, 0.0, 0.0, 0.0, 0.0, 0.0, 0.0, 0.0, 1.7068825029642763E9, 0.0, 2024-02-02 15:01:42.964
68.0, 60113.94382881449, 63383.46760075899, -30963.17868985876, -2428.4052763468358, 17779.248092084898, 9430.357447905237, 28915.20010414125, 4170.902570593664, 33037.50998228908, 45396.57180268429, 35322.99820458868, 43894.48987179874, 25206.576312372246, 24244.71369322702, -1956.1799712395634, 14.08159900684345, -0.08574999999999999, 0.988375, 0.23412500000000003, 192.0, 0.0, 0.0, 0.0, 0.0, 0.0, 0.0, 0.0, 0.0, 0.0, 1.7068825029732504E9, 0.0, 2024-02-02 15:01:42.973
70.0, 60117.11777652714, 63389.8601996732, -30961.07762587996, -2435.200206661249, 17772.877844915136, 9439.923994532108, 28909.500409305147, 4169.606169415256, 33060.554630822495, 45398.62816317417, 35324.89810286738, 43893.573450276075, 25191.868864520653, 24235.124794855692, -1957.7222416069797, 9.767712326969187, -0.08574999999999999, 0.988375, 0.23412500000000003, 192.0, 0.0, 0.0, 0.0, 0.0, 0.0, 0.0, 0.0, 0.0, 0.0, 1.706882502981289E9, 0.0, 2024-02-02 15:01:42.981
72.0, 60118.95061957248, 63391.424821785076, -30965.056236393004, -2441.8386747644754, 17764.85356865568, 9425.48476761398, 28894.368278308903, 4160.084326277295, 33096.02684927307, 45405.55720395532, 35320.27129176513, 43891.13711013045, 25208.722079839958, 24244.378417060187, -1965.6571108886137, 1.072883733854739, -0.08574999999999999, 0.988375, 0.23412500000000003, 192.0, 0.0, 0.0, 0.0, 0.0, 0.0, 0.0, 0.0, 0.0, 0.0, 1.7068825029892857E9, 0.0, 2024-02-02 15:01:42.989
74.0, 60115.01671254834, 63388.31792930579, -30980.948326700727, -2442.0845439534837, 17759.17622556403, 9437.286488686383, 28892.08840037446, 4161.894817578175, 33125.82172463199, 45406.60773594472, 35314.63865216239, 43887.33731357304, 25184.135160939117, 24249.2734490959, -1975.6259889156806, 1.452863389594959, -0.088875, 0.9871875, 0.2310625, 192.0, 126.5, 16.0, 15.0, 104.0, 3.5, 16.0, 0.0, 0.0, 0.0, 1.7068825029972668E9, 0.0, 2024-02-02 15:01:42.997
76.0, 60126.48315745392, 63398.93500792206, -30952.87453566486, -2434.7308200276875, 17779.47160952945, 9450.87634931521, 28917.457630331235, 4176.1999340295715, 33209.90898727286, 45403.79141614335, 35314.504541695664, 43882.08465362604, 25211.203123474494, 24273.0780569408, -1968.29461673434, 9.141863482220588, -0.088875, 0.9871875, 0.2310625, 192.0, 0.0, 0.0, 0.0, 0.0, 0.0, 0.0, 0.0, 0.0, 0.0, 1.7068825030054967E9, 0.0, 2024-02-02 15:01:43.005
78.0, 60113.630904392114, 63385.70277520452, -30957.23312583365, -2413.6084215174224, 17776.699993216993, 9439.991049765475, 28918.731679765187, 4170.142611282184, 33258.83695588553, 45416.59896571624, 35322.10413481046, 43895.74156948824, 25217.57337064426, 24233.135489599168, -1961.2314654864629, 11.242927461019452, -0.088875, 0.9871875, 0.2310625, 192.0, 0.0, 0.0, 0.0, 0.0, 0.0, 0.0, 0.0, 0.0, 0.0, 1.7068825030123708E9, 0.0, 2024-02-02 15:01:43.012
80.0, 60117.140128271596, 63391.693042718536, -30961.837585191442, -2422.884395466375, 17781.08093513023, 9432.458511884035, 28918.910493720832, 4173.808297372853, 33377.323553243106, 45410.22871854648, 35328.764954658145, 43897.84263346704, 25231.923190584566, 24231.257943064924, -1956.872875317678, 18.976631042555695, -0.088875, 0.9871875, 0.2310625, 192.0, 0.0, 0.0, 0.0, 0.0, 0.0, 0.0, 0.0, 0.0, 0.0, 1.7068825030203006E9, 0.0, 2024-02-02 15:01:43.020
82.0, 60087.434659890496, 63367.26258602889, -31000.975489732682, -2529.0775333735387, 17754.281193528317, 9418.242802410461, 28896.44699054325, 4155.546922152867, 33411.454667026366, 45422.41041927462, 35289.64940186136, 43859.01765334817, 25193.634652332625, 24260.76224574593, -1985.7066256650241, -3.4868721350279017, -0.088875, 0.9871875, 0.2310625, 192.0, 0.0, 0.0, 0.0, 0.0, 0.0, 0.0, 0.0, 0.0, 0.0, 1.706882503029312E9, 0.0, 2024-02-02 15:01:43.029
84.0, 60111.84276483569, 63383.91463564809, -30961.837585191442, -2393.8047759300207, 17776.722344961447, 9451.815122582331, 28919.4245838433, 4176.982245085507, 33535.68566270896, 45394.56014568331, 35300.17707349981, 43856.11192656898, 25190.572463342247, 24251.776844474894, -1983.2032302860298, -4.671514591159176, -0.0914375, 0.9905937499999999, 0.23153125000000002, 192.0, 126.5, 8.0, 15.5, 8.0, 3.5, 32.0, 0.0, 0.0, 0.0, 1.7068825030376856E9, 0.0, 2024-02-02 15:01:43.037
86.0, 60102.76795658684, 63379.667804201585, -30974.354562086413, -2420.626869276389, 17768.876882657634, 9437.621764853211, 28917.614092542422, 4176.602265429767, 33569.727369514396, 45413.17914881458, 35305.765009613635, 43894.199299120824, 25249.089330326242, 24229.0674721083, -1967.9816923119656, 17.65787811969258, -0.0914375, 0.9905937499999999, 0.23153125000000002, 192.0, 0.0, 0.0, 0.0, 0.0, 0.0, 0.0, 0.0, 0.0, 0.0, 1.706882503044371E9, 0.0, 2024-02-02 15:01:43.044
88.0, 60108.2888374673, 63385.6580717156, -30955.668503721776, -2456.5461226160674, 17776.23060658343, 9442.472093400012, 28911.176790139296, 4174.367090984237, 33632.44636445599, 45399.633991674666, 35311.79998061657, 43878.21780183528, 25173.048695689286, 24221.08789933776, -1965.6571108886137, 6.4373024031284345, -0.0914375, 0.9905937499999999, 0.23153125000000002, 192.0, 0.0, 0.0, 0.0, 0.0, 0.0, 0.0, 0.0, 0.0, 0.0, 1.7068825030523508E9, 0.0, 2024-02-02 15:01:43.052
90.0, 60108.84763107868, 63379.82426641277, -30972.83464346345, -2453.752154559154, 17772.453161770485, 9422.377875134693, 28915.513028563622, 4176.535210196401, 33723.61913008918, 45418.364753528214, 35292.10809375144, 43865.96904587377, 25199.781382057834, 24265.210242892535, -1972.0497098028316, -9.90182279370103, -0.0914375, 0.9905937499999999, 0.23153125000000002, 192.0, 0.0, 0.0, 0.0, 0.0, 0.0, 0.0, 0.0, 0.0, 0.0, 1.7068825030614717E9, 0.0, 2024-02-02 15:01:43.061
92.0, 60104.64550312108, 63381.16537108009, -30965.27975383756, -2411.105026138428, 17772.0955338592, 9447.121256246717, 28919.603397798946, 4183.978341100018, 33710.72217353847, 45394.00135207193, 35313.29754749507, 43890.913592685894, 25225.70940562599, 24220.752623170927, -1958.415145685094, 24.29634622291878, -0.0914375, 0.9905937499999999, 0.23153125000000002, 192.0, 0.0, 0.0, 0.0, 0.0, 0.0, 0.0, 0.0, 0.0, 0.0, 1.7068825030683641E9, 0.0, 2024-02-02 15:01:43.068
94.0, 60114.904953826066, 63389.12259210618, -30941.58690471493, -2421.6774012657884, 17790.42396431255, 9452.195102238073, 28933.081499705495, 4193.857812149264, 33702.45202809, 45422.075143107795, 35327.17798080182, 43885.50447052771, 25197.948539012497, 24224.99945461744, -1952.4472299155273, 23.089352022332196, -0.08971875, 0.981296875, 0.22476562500000002, 192.0, 126.5, 32.0, 15.0, 48.0, 3.0, 104.0, 0.0, 0.0, 0.0, 1.7068825030767097E9, 0.0, 2024-02-02 15:01:43.076
96.0, 60104.623151376625, 63383.46760075899, -30991.006611705616, -2441.8386747644754, 17771.737905947914, 9435.453645641046, 28912.92022620681, 4167.795678114376, 33681.57549876875, 45392.906116593615, 35324.87575112293, 43894.3110578431, 25198.41792564606, 24231.32499829829, -1946.4569624015048, 25.05630553439922, -0.08971875, 0.981296875, 0.22476562500000002, 192.0, 0.0, 0.0, 0.0, 0.0, 0.0, 0.0, 0.0, 0.0, 0.0, 1.7068825030854158E9, 0.0, 2024-02-02 15:01:43.085
98.0, 60096.75533732836, 63375.040993099334, -30978.5119865551, -2454.1321342148944, 17766.597004723193, 9442.852073055754, 28909.7239267497, 4166.946311825074, 33612.84388456868, 45400.192785286046, 35300.668811877826, 43880.81060419209, 25209.50439089589, 24235.50477451143, -1959.3092154633066, 9.834767560335107, -0.08971875, 0.981296875, 0.22476562500000002, 192.0, 0.0, 0.0, 0.0, 0.0, 0.0, 0.0, 0.0, 0.0, 0.0, 1.7068825030937483E9, 0.0, 2024-02-02 15:01:43.093
100.0, 60085.043023233775, 63366.70379241751, -30987.877367481873, -2439.782314274587, 17765.255900055876, 9436.861805541732, 28912.026156428597, 4179.060957319851, 33569.54855555875, 45378.13161350866, 35305.67560263581, 43881.458804781294, 25200.764858813865, 24210.716689910496, -1961.030299786365, 6.638468103226198, -0.08971875, 0.981296875, 0.22476562500000002, 192.0, 0.0, 0.0, 0.0, 0.0, 0.0, 0.0, 0.0, 0.0, 0.0, 1.7068825031004758E9, 0.0, 2024-02-02 15:01:43.100
102.0, 60077.19756092996, 63355.416161467576, -31008.17275144729, -2501.294315015592, 17750.593155693194, 9418.399264621648, 28902.95134817974, 4175.439974718091, 33447.1951064104, 45349.9013602616, 35251.83025024298, 43835.95065307029, 25203.871751293154, 24200.45723920551, -1993.2168118020072, -21.927061310656228, -0.08971875, 0.981296875, 0.22476562500000002, 192.0, 0.0, 0.0, 0.0, 0.0, 0.0, 0.0, 0.0, 0.0, 0.0, 1.7068825031087408E9, 0.0, 2024-02-02 15:01:43.108
104.0, 60104.84666882118, 63374.415144254584, -30986.13393141436, -2447.851294022953, 17770.08387685822, 9445.020192267919, 28913.993109940664, 4194.863640649753, 33424.75395497727, 45390.64859040363, 35296.08670426449, 43851.46276372227, 25164.152701396073, 24254.347295087256, -1986.1089570652196, -27.939680569133827, -0.08885937499999999, 0.9816484375, 0.22438281250000003, 192.0, 126.5, 32.0, 15.0, 88.0, 3.5, 0.0, 0.0, 0.0, 0.0, 1.7068825031175585E9, 0.0, 2024-02-02 15:01:43.117
106.0, 60104.779613587816, 63389.189647339546, -30975.539204542543, -2430.305174625537, 17788.814638711767, 9445.19900622356, 28928.700557792254, 4196.6294284617225, 33340.80080280314, 45375.73997685194, 35308.022535803626, 43873.702749455304, 25174.41215210106, 24228.173402330092, -1968.7192998789908, 9.320677437863045, -0.08885937499999999, 0.9816484375, 0.22438281250000003, 192.0, 0.0, 0.0, 0.0, 0.0, 0.0, 0.0, 0.0, 0.0, 0.0, 1.7068825031244888E9, 0.0, 2024-02-02 15:01:43.124
108.0, 60102.07505250872, 63379.01960361238, -30972.052332407515, -2421.2303663766825, 17774.37541179364, 9433.53139561789, 28916.407098341835, 4185.989998100996, 33208.567882605545, 45392.772006126885, 35303.529835168105, 43886.9573339173, 25183.41990511655, 24228.28516105237, -1962.460811431505, 11.220575716564145, -0.08885937499999999, 0.9816484375, 0.22438281250000003, 192.0, 0.0, 0.0, 0.0, 0.0, 0.0, 0.0, 0.0, 0.0, 0.0, 1.7068825031326356E9, 0.0, 2024-02-02 15:01:43.132
110.0, 60117.65421839407, 63394.66582473109, -30956.897849666817, -2418.86108146442, 17781.170342108053, 9433.82196829581, 28922.933807722788, 4190.214477803049, 33185.769103261126, 45379.31625596479, 35328.27321628013, 43892.388807819945, 25225.955274814998, 24237.22585883449, -1957.4316689290606, 9.231270460041817, -0.08885937499999999, 0.9816484375, 0.22438281250000003, 192.0, 0.0, 0.0, 0.0, 0.0, 0.0, 0.0, 0.0, 0.0, 0.0, 1.7068825031405113E9, 0.0, 2024-02-02 15:01:43.140
112.0, 60105.47251766593, 63387.222693827476, -30970.308896340004, -2431.0204304481067, 17774.464818771463, 9450.652831870655, 28915.624787285902, 4184.961817856052, 33068.89183150433, 45395.47656720598, 35304.446256690775, 43885.59387750553, 25189.36546914166, 24226.83229766277, -1964.1371922656529, 6.973744270055803, -0.08885937499999999, 0.9816484375, 0.22438281250000003, 192.0, 0.0, 0.0, 0.0, 0.0, 0.0, 0.0, 0.0, 0.0, 0.0, 1.7068825031494992E9, 0.0, 2024-02-02 15:01:43.149
114.0, 60121.38695971811, 63403.07008064629, -30950.974637386164, -2418.4811018086793, 17794.491981803418, 9459.548826163867, 28940.524630609114, 4206.732416955521, 33016.49934250109, 45386.960552568504, 35341.706614697774, 43893.93107818736, 25195.623957589145, 24229.715672697508, -1954.7941630833345, 12.762846083980333, -0.08642968749999999, 0.9838242187499999, 0.22519140625, 192.0, 126.5, 48.0, 15.0, 104.0, 3.5, 8.0, 0.0, 0.0, 0.0, 1.7068825031566443E9, 0.0, 2024-02-02 15:01:43.156
116.0, 60113.09446252519, 63396.990406154444, -30954.37210254337, -2429.2546426361373, 17788.926397434047, 9450.764590592933, 28935.29432240657, 4195.534192983412, 32954.38384465979, 45396.32593349528, 35341.81837342005, 43904.27993587017, 25190.84068427571, 24244.110196126723, -1936.264566929885, 22.575261899860134, -0.08642968749999999, 0.9838242187499999, 0.22519140625, 192.0, 0.0, 0.0, 0.0, 0.0, 0.0, 0.0, 0.0, 0.0, 0.0, 1.706882503164551E9, 0.0, 2024-02-02 15:01:43.164
118.0, 60111.6415991356, 63391.29071131835, -30956.27200082207, -2423.5996512889446, 17789.731060234437, 9448.417657425125, 28944.391482399882, 4200.049245363384, 32912.25080636154, 45383.85366008922, 35323.89227436689, 43891.87471769747, 25203.13414372613, 24250.502795040942, -1944.0206222558766, 16.227366474552927, -0.08642968749999999, 0.9838242187499999, 0.22519140625, 192.0, 0.0, 0.0, 0.0, 0.0, 0.0, 0.0, 0.0, 0.0, 0.0, 1.7068825031735578E9, 0.0, 2024-02-02 15:01:43.173
120.0, 60107.41711943354, 63384.898112404124, -30968.230184105658, -2436.049572950551, 17781.90794967508, 9433.173767706605, 28931.047490960063, 4190.370940014236, 32863.88163136025, 45371.1578692386, 35331.648329692885, 43886.46559553929, 25196.383916900628, 24245.227783349488, -1945.4734856454713, 12.360514683784805, -0.08642968749999999, 0.9838242187499999, 0.22519140625, 192.0, 0.0, 0.0, 0.0, 0.0, 0.0, 0.0, 0.0, 0.0, 0.0, 1.7068825031805575E9, 0.0, 2024-02-02 15:01:43.180
122.0, 60102.70090135347, 63383.82522867027, -30969.07955039496, -2437.725953784699, 17773.36958329315, 9435.855977041243, 28919.782211754587, 4183.2407335329935, 32842.245142727515, 45367.78275582585, 35322.484114466206, 43884.99038040524, 25200.45193439149, 24225.35708252872, -1958.5269044073707, 4.760921568980405, -0.08642968749999999, 0.9838242187499999, 0.22519140625, 192.0, 0.0, 0.0, 0.0, 0.0, 0.0, 0.0, 0.0, 0.0, 0.0, 1.7068825031888998E9, 0.0, 2024-02-02 15:01:43.188
124.0, 60104.46668916544, 63387.93794965005, -30963.871593936874, -2432.9873839601737, 17775.00126063839, 9434.090189229273, 28910.886217461375, 4181.519649209935, 32822.68736632912, 45352.76238355188, 35324.361661000454, 43884.16336586039, 25194.729887810932, 24223.45718425002, -1959.5774363967703, 2.861023290279304, -0.08821484375, 0.986912109375, 0.225595703125, 192.0, 126.5, 24.0, 15.0, 120.0, 3.5, 8.0, 0.0, 0.0, 0.0, 1.7068825031965852E9, 0.0, 2024-02-02 15:01:43.196
126.0, 60100.018692018835, 63385.054574615315, -30965.21269860419, -2439.1564654298386, 17779.203388595986, 9444.72961959, 28920.028080943597, 4187.487564979501, 32811.80206677938, 45353.99172949693, 35321.09830630998, 43886.42089205037, 25190.907739509075, 24223.524239483388, -1958.1245730071753, 8.44895940410607, -0.08821484375, 0.986912109375, 0.225595703125, 192.0, 0.0, 0.0, 0.0, 0.0, 0.0, 0.0, 0.0, 0.0, 0.0, 1.7068825032056012E9, 0.0, 2024-02-02 15:01:43.205
128.0, 60096.71063383945, 63380.427763513064, -30970.778282973562, -2439.8270177634977, 17782.824371197745, 9442.203872466549, 28920.519819321613, 4187.375806257225, 32808.35989813327, 45349.007290483394, 35315.778591129616, 43883.850441438015, 25185.968003984453, 24222.27254179389, -1952.201360726519, 11.42174141666191, -0.08821484375, 0.986912109375, 0.225595703125, 192.0, 0.0, 0.0, 0.0, 0.0, 0.0, 0.0, 0.0, 0.0, 0.0, 1.7068825032125878E9, 0.0, 2024-02-02 15:01:43.212
130.0, 60094.29664543828, 63377.4102780116, -30970.93474518475, -2440.2293491636933, 17777.37054555065, 9433.844320040265, 28918.664624531822, 4181.296131765382, 32810.03627896742, 45337.67495604455, 35312.42582946132, 43880.430624536355, 25190.773629042345, 24236.75647220093, -1954.3471281942284, 8.471311148561377, -0.08821484375, 0.986912109375, 0.225595703125, 192.0, 0.0, 0.0, 0.0, 0.0, 0.0, 0.0, 0.0, 0.0, 0.0, 1.7068825032206786E9, 0.0, 2024-02-02 15:01:43.220
132.0, 60092.530857626305, 63374.59395821023, -30971.85116670742, -2448.2759771676037, 17773.414286782063, 9431.586793850278, 28910.61799652791, 4172.802468872365, 32814.21605518056, 45345.453363115, 35309.09541953748, 43879.91653441388, 25203.089440237218, 24208.54857069833, -1958.839828829745, 1.8998982787011003, -0.08821484375, 0.986912109375, 0.225595703125, 192.0, 0.0, 0.0, 0.0, 0.0, 0.0, 0.0, 0.0, 0.0, 0.0, 1.7068825032286472E9, 0.0, 2024-02-02 15:01:43.228
134.0, 60098.118793740134, 63378.63962395664, -30965.905602682305, -2434.239081649671, 17778.04109788431, 9432.413808395126, 28911.6238250284, 4174.568256684334, 32824.52020937445, 45351.73420330694, 35318.81842837553, 43885.526822272164, 25194.439315133015, 24229.536858741863, -1957.8116485848009, -0.6258488447485977, -0.08821484375, 0.986912109375, 0.225595703125, 192.0, 0.0, 0.0, 0.0, 0.0, 0.0, 0.0, 0.0, 0.0, 0.0, 1.706882503236653E9, 0.0, 2024-02-02 15:01:43.236
136.0, 60096.0847849947, 63379.39958326812, -30968.431349805756, -2431.7356862706765, 17776.744696705904, 9435.29718342986, 28907.511104048623, 4169.270893248427, 32839.294712459414, 45372.70013960602, 35319.958367342755, 43889.796005463126, 25191.01949823135, 24242.36676005921, -1961.38792769765, 8.314848937374228, -0.09, 0.988, 0.23, 192.0, 126.5, 24.0, 15.0, 112.0, 3.5, 24.0, 0.0, 0.0, 0.0, 1.7068825032447536E9, 0.0, 2024-02-02 15:01:43.244
138.0, 60083.858380777645, 63366.323812761766, -30977.349695843423, -2449.6394335793775, 17766.597004723193, 9429.955116505042, 28895.463513787214, 4154.183465741095, 32853.37631146626, 45381.529078665866, 35309.11777128193, 43881.749377459215, 25171.93110846652, 24233.001379132438, -1967.646416145136, 2.7716163124580757, -0.09, 0.988, 0.23, 192.0, 0.0, 0.0, 0.0, 0.0, 0.0, 0.0, 0.0, 0.0, 0.0, 1.7068825032526665E9, 0.0, 2024-02-02 15:01:43.252
140.0, 60089.06633723573, 63368.82720814076, -30975.27098360908, -2446.621948077911, 17770.910891403066, 9427.831700781788, 28891.842531185455, 4149.176674983105, 32903.15364636823, 45390.380369470164, 35310.32476548252, 43879.022464635666, 25202.642405348113, 24225.401786017632, -1968.2499132454293, -5.587936113826766, -0.09, 0.988, 0.23, 192.0, 0.0, 0.0, 0.0, 0.0, 0.0, 0.0, 0.0, 0.0, 0.0, 1.7068825032606711E9, 0.0, 2024-02-02 15:01:43.260
142.0, 60087.05468023475, 63367.866083129185, -30976.477977809667, -2439.5364450855786, 17766.75346693438, 9428.792825793365, 28899.442124300258, 4150.7860005838875, 32970.36534194533, 45425.71847745401, 35313.69987889527, 43883.51516527119, 25207.55978912828, 24239.885716424673, -1964.4724684324824, 3.509223879483209, -0.09, 0.988, 0.23, 192.0, 0.0, 0.0, 0.0, 0.0, 0.0, 0.0, 0.0, 0.0, 0.0, 1.7068825032687E9, 0.0, 2024-02-02 15:01:43.268
144.0, 60099.61636061864, 63382.12649609167, -30962.955172414207, -2433.143846171361, 17788.546417778303, 9438.448779398059, 28922.687938533778, 4174.948236340075, 33032.77141246455, 45440.940015428074, 35317.25380626367, 43877.88252566845, 25209.41498391807, 24270.485254583986, -1958.7951253408344, 3.7103895795809723, -0.09, 0.988, 0.23, 192.0, 0.0, 0.0, 0.0, 0.0, 0.0, 0.0, 0.0, 0.0, 0.0, 1.7068825032773046E9, 0.0, 2024-02-02 15:01:43.277
146.0, 60077.5328370968, 63360.71352490348, -30984.412847091302, -2446.979575989196, 17757.07516158523, 9421.5732123343, 28899.844455700455, 4159.592587899278, 33105.63809938885, 45463.13529767219, 35312.068201550035, 43878.53072625765, 25201.390707658615, 24261.432798079586, -1968.0263958008763, -1.6763808341480297, -0.092, 0.994, 0.224, 192.0, 126.5, 16.0, 15.5, 8.0, 3.5, 0.0, 0.0, 0.0, 0.0, 1.7068825032846894E9, 0.0, 2024-02-02 15:01:43.284
148.0, 60086.22766568991, 63366.07794357276, -30971.85116670742, -2434.596709560956, 17765.74763843389, 9423.383703635182, 28895.01647889811, 4155.390459941681, 33179.51061481364, 45461.23539939349, 35299.484169421696, 43869.54532498662, 25219.272103222862, 24280.4317808666, -1985.617218687203, -17.747285097513807, -0.092, 0.994, 0.224, 192.0, 0.0, 0.0, 0.0, 0.0, 0.0, 0.0, 0.0, 0.0, 0.0, 1.7068825032918477E9, 0.0, 2024-02-02 15:01:43.291
150.0, 60092.0838227372, 63367.97784185146, -30968.766625972585, -2434.6861165387772, 17765.501769244882, 9412.654866296634, 28895.709382976223, 4156.2398262309825, 33303.696907007325, 45477.39571063468, 35321.54534119908, 43883.850441438015, 25239.94746684402, 24254.459053809533, -1974.0166633148986, -3.3974651572066734, -0.092, 0.994, 0.224, 192.0, 0.0, 0.0, 0.0, 0.0, 0.0, 0.0, 0.0, 0.0, 0.0, 1.7068825033008559E9, 0.0, 2024-02-02 15:01:43.300
152.0, 60083.21018018844, 63360.579414436754, -30978.333172599458, -2455.137962715383, 17757.768065663346, 9413.973619219496, 28883.974717137186, 4144.706326092044, 33386.1301405585, 45483.721254315526, 35314.83981786249, 43872.47340351027, 25224.7035771255, 24273.636850552186, -1980.4092622291164, -14.282764706941213, -0.092, 0.994, 0.224, 192.0, 0.0, 0.0, 0.0, 0.0, 0.0, 0.0, 0.0, 0.0, 0.0, 1.706882503308921E9, 0.0, 2024-02-02 15:01:43.308
154.0, 60079.63390107559, 63353.449207955506, -30990.5148733276, -2464.4809918977016, 17747.441559724994, 9418.086340199274, 28881.113693846906, 4140.705363834544, 33470.12799622154, 45487.29753342838, 35301.09349502248, 43859.97877835975, 25218.690957867024, 24264.65144928115, -1987.8300413882782, -20.5636048988825, -0.092, 0.994, 0.224, 192.0, 0.0, 0.0, 0.0, 0.0, 0.0, 0.0, 0.0, 0.0, 0.0, 1.7068825033167534E9, 0.0, 2024-02-02 15:01:43.316
156.0, 60089.31220642474, 63369.0060220964, -30971.292373096036, -2446.465485866724, 17759.489149986406, 9427.63053508169, 28893.67537423079, 4152.618843629222, 33569.280334625284, 45517.38298146522, 35312.24701550567, 43861.6551591939, 25255.794853662832, 24272.787484262884, -1982.9573610970215, -14.595689129315511, -0.088, 0.994, 0.228, 192.0, 126.5, 32.0, 15.5, 8.0, 3.5, 16.0, 0.0, 0.0, 0.0, 1.70688250332501E9, 0.0, 2024-02-02 15:01:43.325
158.0, 60083.97013949992, 63364.40156273861, -30980.23307087816, -2413.6084215174224, 17758.550376719282, 9421.372046634204, 28894.658850986823, 4155.144590752672, 33634.81564936825, 45539.55591196488, 35318.52785569762, 43906.69392427134, 25204.117620482164, 24281.45996111154, -1964.8524480882227, 5.967915769566986, -0.088, 0.994, 0.228, 192.0, 0.0, 0.0, 0.0, 0.0, 0.0, 0.0, 0.0, 0.0, 0.0, 1.7068825033331332E9, 0.0, 2024-02-02 15:01:43.333
160.0, 60091.25680819235, 63367.41904824007, -30983.250556379626, -2448.432439378791, 17772.788437937314, 9433.464340384524, 28902.52666503509, 4162.654776889655, 33738.23717096295, 45512.26443198496, 35305.3850299579, 43874.619170977974, 25237.66758890958, 24276.050838953357, -1973.614331914703, -4.269183190963649, -0.088, 0.994, 0.228, 192.0, 0.0, 0.0, 0.0, 0.0, 0.0, 0.0, 0.0, 0.0, 0.0, 1.7068825033408136E9, 0.0, 2024-02-02 15:01:43.340
162.0, 60082.964310999436, 63358.72421964696, -30970.532413784556, -2428.204110646738, 17765.9935076229, 9440.192215465571, 28892.781304452576, 4160.3525472107585, 33785.64522095266, 45575.69868274912, 35340.790193175104, 43890.08657814105, 25270.323487558784, 24278.75540003245, -1953.676575860569, 21.278860721452325, -0.088, 0.994, 0.228, 192.0, 0.0, 0.0, 0.0, 0.0, 0.0, 0.0, 0.0, 0.0, 0.0, 1.7068825033478465E9, 0.0, 2024-02-02 15:01:43.347
164.0, 60084.39482264457, 63359.48417895844, -30965.056236393004, -2426.974764701696, 17762.774856421336, 9429.172805449105, 28893.496560275147, 4161.716003622532, 33771.02718007889, 45530.01171708247, 35296.466683920225, 43871.601685476504, 25239.031045321353, 24239.148108857647, -1987.4053582436275, 1.9446017676117144, -0.088, 0.994, 0.228, 192.0, 0.0, 0.0, 0.0, 0.0, 0.0, 0.0, 0.0, 0.0, 0.0, 1.7068825033570354E9, 0.0, 2024-02-02 15:01:43.357
166.0, 60092.7320233264, 63364.66978367207, -30991.118370427892, -2449.9970614906624, 17764.071257599742, 9412.543107574356, 28896.82697019899, 4163.884122834697, 33866.64794285869, 45527.7988943814, 35305.22856774671, 43878.39661579092, 25258.030028108362, 24294.982766507004, -1965.746517866435, 6.906689036689882, -0.088, 1.0, 0.23, 192.0, 126.5, 32.0, 15.5, 32.0, 3.5, 24.0, 0.0, 0.0, 0.0, 1.7068825033651595E9, 0.0, 2024-02-02 15:01:43.365
168.0, 60099.05756700726, 63371.755286664404, -30947.778337929052, -2407.0370086475623, 17787.697051489, 9454.16205575014, 28928.409985114336, 4191.376768514725, 33869.956001038074, 45540.33822302082, 35329.43550699181, 43880.52003151418, 25254.207879806505, 24267.668934782618, -1959.5774363967703, 7.934869281634008, -0.088, 1.0, 0.23, 192.0, 0.0, 0.0, 0.0, 0.0, 0.0, 0.0, 0.0, 0.0, 0.0, 1.706882503372857E9, 0.0, 2024-02-02 15:01:43.372
170.0, 60105.7854420883, 63382.0594408583, -30941.31868378147, -2415.5083197961235, 17783.919606676056, 9449.82581732581, 28927.761784525133, 4193.835460404809, 33876.7956348414, 45539.86883638726, 35344.008844376665, 43902.648258524925, 25239.634542421645, 24246.94886767255, -1943.4394769000385, 33.28174749395222, -0.088, 1.0, 0.23, 192.0, 0.0, 0.0, 0.0, 0.0, 0.0, 0.0, 0.0, 0.0, 0.0, 1.706882503379881E9, 0.0, 2024-02-02 15:01:43.379
172.0, 60081.82437203221, 63351.571661421265, -30991.61010880591, -2445.9290439997967, 17755.398780751086, 9414.398302364149, 28899.218606855706, 4161.336023966793, 33779.9231743721, 45533.40918223967, 35322.32765225502, 43883.850441438015, 25247.681170425556, 24261.70101901305, -1961.1420585086416, 15.422703674161873, -0.088, 1.0, 0.23, 192.0, 0.0, 0.0, 0.0, 0.0, 0.0, 0.0, 0.0, 0.0, 0.0, 1.7068825033891375E9, 0.0, 2024-02-02 15:01:43.389
174.0, 60083.433697632994, 63370.458885486, -31009.6703183258, -2449.81824753502, 17753.36477200565, 9432.033828739384, 28892.602490496934, 4152.507084906946, 33742.0146157759, 45461.79419300487, 35282.8768232914, 43858.14593531441, 25258.119435086184, 24240.332751313777, -1983.6279134306806, 2.0340087454329425, -0.088, 1.0, 0.23, 192.0, 0.0, 0.0, 0.0, 0.0, 0.0, 0.0, 0.0, 0.0, 0.0, 1.7068825033968563E9, 0.0, 2024-02-02 15:01:43.396
176.0, 60112.870945080635, 63394.844638686736, -30944.246762305112, -2393.3577410409143, 17782.779667708834, 9454.944366806074, 28915.691842519267, 4176.356396240759, 33699.50159782191, 45531.10695256078, 35338.73383268521, 43919.47912209977, 25237.26525750938, 24251.195699119056, -1948.6697851025804, 25.302174723407596, -0.084, 0.982, 0.224, 192.0, 126.5, 48.0, 15.0, 88.0, 3.5, 0.0, 0.0, 0.0, 0.0, 1.7068825034039168E9, 0.0, 2024-02-02 15:01:43.403
178.0, 60099.05756700726, 63381.567702480286, -30959.535355512544, -2427.690020524266, 17778.488132773415, 9443.522625389412, 28918.23994138717, 4186.97347485703, 33552.40476756153, 45499.1886614786, 35353.240114836706, 43910.627831295475, 25236.86292610919, 24247.59706826175, -1933.3141366617845, 40.09902955282087, -0.084, 0.982, 0.224, 192.0, 0.0, 0.0, 0.0, 0.0, 0.0, 0.0, 0.0, 0.0, 0.0, 1.7068825034132156E9, 0.0, 2024-02-02 15:01:43.413
180.0, 60087.434659890496, 63370.97297560847, -30985.41867559179, -2455.2273696932043, 17770.70972570297, 9441.645078855167, 28912.45083957325, 4193.902515638175, 33372.51792818522, 45466.175134918114, 35309.72126838223, 43868.53949648613, 25223.787155602833, 24231.973198887492, -1960.4715061749826, 14.416875173673056, -0.084, 0.982, 0.224, 192.0, 0.0, 0.0, 0.0, 0.0, 0.0, 0.0, 0.0, 0.0, 0.0, 1.7068825034209447E9, 0.0, 2024-02-02 15:01:43.420
182.0, 60105.7854420883, 63381.52299899137, -30960.228259590658, -2435.6695932948105, 17785.350118321196, 9441.265099199427, 28912.227322128692, 4197.0988150952835, 33273.432645014844, 45451.95942544454, 35313.36460272844, 43867.26544705218, 25251.503318727413, 24255.80015847685, -1959.2645119743959, 5.1632529691759315, -0.084, 0.982, 0.224, 192.0, 0.0, 0.0, 0.0, 0.0, 0.0, 0.0, 0.0, 0.0, 0.0, 1.706882503428956E9, 0.0, 2024-02-02 15:01:43.428
184.0, 60093.20140995996, 63371.576472708766, -30967.13494862735, -2422.4150088328133, 17775.694164716504, 9435.453645641046, 28911.86969421741, 4186.347626012281, 33180.807015992046, 45446.729117241994, 35322.01472783265, 43887.98551416225, 25214.75705084289, 24231.32499829829, -1957.4987241624267, 15.288593207430031, -0.084, 0.982, 0.224, 192.0, 0.0, 0.0, 0.0, 0.0, 0.0, 0.0, 0.0, 0.0, 0.0, 1.7068825034360125E9, 0.0, 2024-02-02 15:01:43.436
186.0, 60095.36952917213, 63373.05168784281, -30970.018323662083, -2458.4236691503133, 17778.46578102896, 9424.098959457751, 28912.6743570178, 4180.960855598552, 33065.69553204722, 45428.57950074429, 35310.861207349444, 43875.334426800546, 25237.42171972057, 24259.398789334155, -1961.0973550197311, 14.506282151494284, -0.08600000000000001, 0.986, 0.226, 192.0, 126.5, 40.0, 15.0, 104.0, 3.5, 8.0, 0.0, 0.0, 0.0, 1.7068825034451857E9, 0.0, 2024-02-02 15:01:43.445
188.0, 60076.527008596306, 63356.042010312325, -30986.84918723693, -2462.3575761744473, 17758.237452296908, 9431.6762008281, 28898.570406266503, 4171.3272537383145, 33017.3934122793, 45441.96819567301, 35336.49865823968, 43875.08855761153, 25239.031045321353, 24267.266603382424, -1955.7105846060022, 11.153520483198225, -0.08600000000000001, 0.986, 0.226, 192.0, 0.0, 0.0, 0.0, 0.0, 0.0, 0.0, 0.0, 0.0, 0.0, 1.7068825034529667E9, 0.0, 2024-02-02 15:01:43.452
190.0, 60088.0828604797, 63367.7543244069, -30972.83464346345, -2427.8464827354533, 17772.028478625834, 9437.331192175292, 28906.035888914575, 4185.654721934166, 32898.862111432805, 45450.595969032765, 35300.735867111194, 43852.82622013405, 25204.251730948894, 24245.56305951632, -1974.9107330931108, -9.119511737765281, -0.08600000000000001, 0.986, 0.226, 192.0, 0.0, 0.0, 0.0, 0.0, 0.0, 0.0, 0.0, 0.0, 0.0, 1.706882503459983E9, 0.0, 2024-02-02 15:01:43.459
192.0, 60080.12563945361, 63354.9020713451, -30982.22237613468, -2444.789105032576, 17767.535777990317, 9435.811273552332, 28905.342984836458, 4184.224210289027, 32924.521914067496, 45414.36379127071, 35323.42288773333, 43885.12449087197, 25216.32167295476, 24207.49803870893, -1957.3422619512394, 16.96497404157806, -0.08600000000000001, 0.986, 0.226, 192.0, 0.0, 0.0, 0.0, 0.0, 0.0, 0.0, 0.0, 0.0, 0.0, 1.706882503469019E9, 0.0, 2024-02-02 15:01:43.469
194.0, 60085.60181684516, 63362.456960970994, -30986.245690136635, -2447.828942278498, 17771.067353614253, 9439.521663131913, 28919.737508265676, 4191.577934214823, 32843.51919216147, 45411.34630576924, 35291.79516932907, 43849.89814161041, 25204.587007115726, 24262.684495769085, -1970.6862533910578, -9.410084415684274, -0.08600000000000001, 0.986, 0.226, 192.0, 0.0, 0.0, 0.0, 0.0, 0.0, 0.0, 0.0, 0.0, 0.0, 1.706882503477162E9, 0.0, 2024-02-02 15:01:43.477
196.0, 60086.02649998981, 63362.680478415554, -30972.342905085436, -2430.4392850922686, 17765.390010522606, 9436.280660185894, 28908.427525571293, 4193.097852837784, 32818.5969970938, 45438.637785749175, 35331.67068143734, 43899.94369744584, 25214.310015953783, 24228.978065130483, -1951.3519944372172, 26.196244501619876, -0.08600000000000001, 0.994, 0.23, 192.0, 126.5, 40.0, 15.5, 8.0, 3.5, 24.0, 0.0, 0.0, 0.0, 1.7068825034840217E9, 0.0, 2024-02-02 15:01:43.484
198.0, 60082.07024122122, 63361.80876038179, -30982.64705927933, -2459.228331950704, 17764.60769946667, 9413.124252930194, 28914.641310529867, 4190.125070825228, 32780.800197219876, 45401.62329693119, 35304.714477624235, 43860.425813248854, 25204.072916993253, 24206.671024164087, -1971.2673987468959, -5.6102878582820725, -0.08600000000000001, 0.994, 0.23, 192.0, 0.0, 0.0, 0.0, 0.0, 0.0, 0.0, 0.0, 0.0, 0.0, 1.7068825034922223E9, 0.0, 2024-02-02 15:01:43.492
200.0, 60097.69411059548, 63379.64545245713, -30965.59267825993, -2409.138072626361, 17783.897254931602, 9463.281567487904, 28930.622807815413, 4209.101701867784, 32781.984839676006, 45452.205294633546, 35323.02055633313, 43901.10598815751, 25223.116603269173, 24287.80785653685, -1951.709622348502, 19.55777639839368, -0.08600000000000001, 0.994, 0.23, 192.0, 0.0, 0.0, 0.0, 0.0, 0.0, 0.0, 0.0, 0.0, 0.0, 1.706882503501403E9, 0.0, 2024-02-02 15:01:43.501
202.0, 60088.328729668705, 63370.68240293055, -30975.807425476007, -2434.90963398333, 17769.480379757926, 9439.722828832011, 28916.63061578639, 4196.674131950633, 32778.475615796524, 45436.0226316479, 35321.72415515473, 43893.48404329825, 25217.103984010697, 24238.052873379336, -1954.391831683139, 20.85417757680149, -0.08600000000000001, 0.994, 0.23, 192.0, 0.0, 0.0, 0.0, 0.0, 0.0, 0.0, 0.0, 0.0, 0.0, 1.70688250350832E9, 0.0, 2024-02-02 15:01:43.508
204.0, 60098.342311184686, 63377.03029835586, -30970.957096929207, -2433.3450118714586, 17774.241301326907, 9443.790846322876, 28921.25742688864, 4202.373826786737, 32772.57475526032, 45430.21117808952, 35321.590044688, 43886.82322345057, 25210.197294974005, 24244.736044971472, -1957.1410962511418, 12.09229375032112, -0.08600000000000001, 0.994, 0.23, 192.0, 0.0, 0.0, 0.0, 0.0, 0.0, 0.0, 0.0, 0.0, 0.0, 1.7068825035160468E9, 0.0, 2024-02-02 15:01:43.516
206.0, 60092.62026460413, 63373.208150054, -30977.953192943718, -2436.206035161738, 17768.698068701993, 9433.374933406703, 28917.032947186584, 4196.741187183999, 32774.407598305654, 45418.25299480594, 35316.91853009684, 43885.325656572066, 25214.28766420933, 24246.054797894336, -1965.746517866435, 7.8007588149021645, -0.09, 1.0, 0.232, 192.0, 126.5, 24.0, 15.5, 32.0, 3.5, 32.0, 0.0, 0.0, 0.0, 1.7068825035242078E9, 0.0, 2024-02-02 15:01:43.524
208.0, 60092.77672681531, 63374.079868087756, -30987.810312248508, -2479.2778467271146, 17761.880786643123, 9432.39145665067, 28910.595644783458, 4188.471041735535, 32780.19670011958, 45429.51827401141, 35315.15274228487, 43884.85626993851, 25211.78426883033, 24275.223824408513, -1964.1818957545634, 0.9834767560335107, -0.09, 1.0, 0.232, 192.0, 0.0, 0.0, 0.0, 0.0, 0.0, 0.0, 0.0, 0.0, 0.0, 1.7068825035330892E9, 0.0, 2024-02-02 15:01:43.533
210.0, 60102.097404253174, 63379.958376879506, -30961.591716002433, -2403.170156856794, 17778.398725795596, 9437.174729964105, 28921.90562747784, 4196.674131950633, 32805.25300565398, 45429.56297750032, 35326.86505637944, 43886.376188561466, 25217.774536344354, 24245.875983938695, -1955.7999915838234, 7.554889625893787, -0.09, 1.0, 0.232, 192.0, 0.0, 0.0, 0.0, 0.0, 0.0, 0.0, 0.0, 0.0, 0.0, 1.7068825035401504E9, 0.0, 2024-02-02 15:01:43.540
212.0, 60086.04885173427, 63365.340336005735, -30986.491559325645, -2446.465485866724, 17761.143179076098, 9421.550860589847, 28899.91151093382, 4174.9705880845295, 32798.189854406104, 45424.89146290916, 35321.21006503225, 43885.817394950085, 25220.143821256617, 24206.961596842004, -1965.1877242550522, 11.86877630576805, -0.09, 1.0, 0.232, 192.0, 0.0, 0.0, 0.0, 0.0, 0.0, 0.0, 0.0, 0.0, 0.0, 1.706882503548114E9, 0.0, 2024-02-02 15:01:43.548
214.0, 60090.98858725889, 63369.63187094115, -30983.563480802, -2440.922253241808, 17774.107190860177, 9434.291354929372, 28911.087383161474, 4183.106623066262, 32817.568816848856, 45412.46389299201, 35317.05264056357, 43877.72606345726, 25206.442201905516, 24227.189925574057, -1967.7358231229573, 1.2516976894971954, -0.09, 1.0, 0.232, 192.0, 0.0, 0.0, 0.0, 0.0, 0.0, 0.0, 0.0, 0.0, 0.0, 1.7068825035571668E9, 0.0, 2024-02-02 15:01:43.557
216.0, 60078.24809291936, 63357.651335913106, -30988.570271559987, -2449.2818056680926, 17761.478455242926, 9419.941534989064, 28897.519874277103, 4171.059032804851, 32839.54058164842, 45416.93424188307, 35313.00697481716, 43875.602647734006, 25202.038908247818, 24248.826414206793, -1967.0429190448428, -1.3411046673184237, -0.088, 0.996, 0.23600000000000002, 192.0, 126.5, 32.0, 15.5, 16.0, 3.5, 48.0, 0.0, 0.0, 0.0, 1.7068825035643868E9, 0.0, 2024-02-02 15:01:43.564
218.0, 60083.098421466166, 63362.54636794882, -30982.84822497943, -2443.202131176249, 17767.37931577913, 9417.460491354524, 28904.985356925175, 4172.131916538706, 32869.98365759655, 45417.02364886089, 35314.66100390685, 43874.77563318916, 25229.397443461115, 24241.316228069812, -1968.4063754566164, -4.380941913240184, -0.088, 0.996, 0.23600000000000002, 192.0, 0.0, 0.0, 0.0, 0.0, 0.0, 0.0, 0.0, 0.0, 0.0, 1.7068825035721292E9, 0.0, 2024-02-02 15:01:43.572
220.0, 60082.78549704379, 63361.4064289816, -30984.904585469318, -2449.840599279475, 17765.479417500428, 9421.014418722918, 28901.230263856683, 4169.874390348719, 32920.63271053228, 45411.167491813605, 35316.71736439674, 43878.53072625765, 25217.19339098852, 24229.112175597213, -1965.5006486774266, -7.085502992332339, -0.088, 0.996, 0.23600000000000002, 192.0, 0.0, 0.0, 0.0, 0.0, 0.0, 0.0, 0.0, 0.0, 0.0, 1.7068825035801575E9, 0.0, 2024-02-02 15:01:43.580
222.0, 60080.37150864262, 63359.55123419181, -30985.888062225353, -2449.147695201361, 17764.13831283311, 9416.164090176117, 28899.777400467086, 4165.001710057462, 32970.164176245235, 45412.30743078082, 35309.76597187114, 43871.71344419878, 25205.771649571856, 24228.598085474743, -1973.39081447015, -12.986363528533403, -0.088, 0.996, 0.23600000000000002, 192.0, 0.0, 0.0, 0.0, 0.0, 0.0, 0.0, 0.0, 0.0, 0.0, 1.7068825035892797E9, 0.0, 2024-02-02 15:01:43.589
224.0, 60097.09061349519, 63373.521074476375, -30970.37595157337, -2430.8416164924643, 17775.269481571853, 9428.658715326634, 28918.038775687073, 4178.412756730647, 33028.479877529135, 45426.88076816568, 35326.0380418346, 43886.91263042839, 25217.685129366535, 24244.89250718266, -1959.040994529843, 3.3974651572066734, -0.088, 0.996, 0.23600000000000002, 192.0, 0.0, 0.0, 0.0, 0.0, 0.0, 0.0, 0.0, 0.0, 0.0, 1.7068825035961647E9, 0.0, 2024-02-02 15:01:43.596
226.0, 60090.98858725889, 63369.22953954095, -30971.60529751841, -2432.920328726808, 17767.245205312396, 9426.937631003575, 28899.777400467086, 4169.986149070996, 33068.24363091512, 45431.932262412585, 35329.79313490309, 43892.4111595644, 25236.751167386912, 24244.065492637816, -1957.1857997400523, 8.717180337569754, -0.094, 0.994, 0.23600000000000002, 192.0, 126.5, 8.0, 15.5, 8.0, 3.5, 48.0, 0.0, 0.0, 0.0, 1.70688250360417E9, 0.0, 2024-02-02 15:01:43.604
228.0, 60090.787421558794, 63365.92148136157, -30974.153396386315, -2440.788142775076, 17768.698068701993, 9421.752026289943, 28908.561636038023, 4170.477887449013, 33127.16282929931, 45428.423038533096, 35322.84174237749, 43881.14588035893, 25229.643312650125, 24246.010094405425, -1967.065270789298, -4.7832733134357115, -0.094, 0.994, 0.23600000000000002, 192.0, 0.0, 0.0, 0.0, 0.0, 0.0, 0.0, 0.0, 0.0, 0.0, 1.7068825036122582E9, 0.0, 2024-02-02 15:01:43.612
230.0, 60092.77672681531, 63368.31311801829, -30977.483806310156, -2438.53061658509, 17768.675716957536, 9430.20098569405, 28908.896912204855, 4174.232980517505, 33192.698144042275, 45448.80782947634, 35323.44523947778, 43885.459767038796, 25228.83864984973, 24256.582469532786, -1965.0312620438651, -3.263354690474831, -0.094, 0.994, 0.23600000000000002, 192.0, 0.0, 0.0, 0.0, 0.0, 0.0, 0.0, 0.0, 0.0, 0.0, 1.706882503620612E9, 0.0, 2024-02-02 15:01:43.620
232.0, 60089.31220642474, 63366.63673718414, -30972.99110567464, -2417.564680286012, 17761.769027920847, 9427.608183337234, 28903.53249353558, 4170.0979077932725, 33248.756319136184, 45469.527896586405, 35313.72223063972, 43886.867926939485, 25248.7093506705, 24288.65722282615, -1973.1896487700521, -1.1399389672206601, -0.094, 0.994, 0.23600000000000002, 192.0, 0.0, 0.0, 0.0, 0.0, 0.0, 0.0, 0.0, 0.0, 0.0, 1.706882503628204E9, 0.0, 2024-02-02 15:01:43.628
234.0, 60100.73394784141, 63377.075001844765, -30964.69860848172, -2401.940810911752, 17775.068315871755, 9433.509043873435, 28909.992147683162, 4179.798564886876, 33344.466488893806, 45471.76307103194, 35332.00595760417, 43904.79402599264, 25248.731702414956, 24236.778823945384, -1968.0934510342422, 15.802683329902093, -0.094, 0.994, 0.23600000000000002, 192.0, 0.0, 0.0, 0.0, 0.0, 0.0, 0.0, 0.0, 0.0, 0.0, 1.7068825036362162E9, 0.0, 2024-02-02 15:01:43.636
236.0, 60080.97500574291, 63359.26066151389, -30983.13879765735, -2436.8989392398526, 17759.55620521977, 9418.868651255209, 28899.06214464452, 4163.437087945591, 33392.56744296163, 45481.19550719208, 35329.27904478062, 43894.24400260973, 25245.84832738022, 24263.22093763601, -1964.3607097102058, 9.857119304790414, -0.094, 0.995, 0.234, 192.0, 126.5, 8.0, 15.5, 16.0, 3.5, 32.0, 0.0, 0.0, 0.0, 1.7068825036453712E9, 0.0, 2024-02-02 15:01:43.645
238.0, 60090.69801458097, 63367.77667615136, -30965.905602682305, -2443.1797794317936, 17769.770952435847, 9424.34482864676, 28908.986319182673, 4169.248541503971, 33407.81133268015, 45481.553135103364, 35308.87190209293, 43869.27710405315, 25248.508184970404, 24263.22093763601, -1975.5812854267701, -9.074808248854668, -0.094, 0.995, 0.234, 192.0, 0.0, 0.0, 0.0, 0.0, 0.0, 0.0, 0.0, 0.0, 0.0, 1.7068825036522677E9, 0.0, 2024-02-02 15:01:43.652
240.0, 60095.749508827874, 63366.14499880612, -30954.774433943563, -2396.107005608917, 17771.67085071455, 9442.069761999817, 28905.410040069826, 4173.517724694935, 33559.35616008713, 45505.22363248153, 35348.278027567634, 43903.922307958885, 25236.572353431267, 24271.46873134002, -1954.9059218056111, 19.848349076312672, -0.094, 0.995, 0.234, 192.0, 0.0, 0.0, 0.0, 0.0, 0.0, 0.0, 0.0, 0.0, 0.0, 1.7068825036603608E9, 0.0, 2024-02-02 15:01:43.660
242.0, 60089.69218608048, 63361.272318514864, -30960.429425290757, -2407.8640231924087, 17762.774856421336, 9425.328305402792, 28899.24095860016, 4166.365166469236, 33560.0714159097, 45481.44137638109, 35341.86307690896, 43895.13807238795, 25267.641278224146, 24264.115007414224, -1961.2538172309182, 14.886261807234504, -0.094, 0.995, 0.234, 192.0, 0.0, 0.0, 0.0, 0.0, 0.0, 0.0, 0.0, 0.0, 0.0, 1.7068825036682649E9, 0.0, 2024-02-02 15:01:43.668
244.0, 60079.388031886585, 63352.01869631037, -30975.69566675373, -2468.616064621933, 17762.528987232326, 9419.24863091095, 28898.05631614403, 4163.772364112421, 33590.55919534674, 45498.51810914494, 35333.727041927224, 43891.83001420856, 25259.6617054536, 24253.69909449805, -1966.0817940332645, 10.371209427262476, -0.094, 0.995, 0.234, 192.0, 0.0, 0.0, 0.0, 0.0, 0.0, 0.0, 0.0, 0.0, 0.0, 1.7068825036765497E9, 0.0, 2024-02-02 15:01:43.676
246.0, 60072.16841842752, 63344.1508822621, -31007.70336481373, -2471.1865152342934, 17741.585402677705, 9384.558723516313, 28880.33138279097, 4148.9084540496415, 33594.76132330434, 45491.25379219697, 35300.75821885565, 43830.27330997864, 25269.787045691854, 24303.588188122296, -1989.6405326891581, -30.152503270209227, -0.095, 0.9984999999999999, 0.231, 192.0, 126.5, 0.0, 15.5, 40.0, 3.5, 16.0, 0.0, 0.0, 0.0, 1.7068825036842868E9, 0.0, 2024-02-02 15:01:43.684
248.0, 60078.181037686, 63354.499739944906, -30966.21852710468, -2413.563718028512, 17770.329746047228, 9436.682991586089, 28907.28758660407, 4175.216457273538, 33643.890457617104, 45484.90589677166, 35305.206216002254, 43866.95252262981, 25225.463536436982, 24238.008169890425, -1987.1594890546191, -0.6705523336592119, -0.095, 0.9984999999999999, 0.231, 192.0, 0.0, 0.0, 0.0, 0.0, 0.0, 0.0, 0.0, 0.0, 0.0, 1.7068825036923237E9, 0.0, 2024-02-02 15:01:43.692
250.0, 60097.89527629558, 63368.02254534037, -30951.533430997544, -2383.8358979029535, 17775.537702505317, 9444.930785290097, 28908.807505227032, 4187.465213235047, 33735.15263022812, 45467.98562621899, 35340.56667573055, 43910.001982450725, 25241.310923255794, 24242.009132147927, -1960.0915265192423, 36.0757155508656, -0.095, 0.9984999999999999, 0.231, 192.0, 0.0, 0.0, 0.0, 0.0, 0.0, 0.0, 0.0, 0.0, 0.0, 1.7068825037015212E9, 0.0, 2024-02-02 15:01:43.701
252.0, 60086.94292151248, 63355.43851321203, -30982.55765230151, -2448.477142867702, 17757.924527874533, 9422.355523390237, 28904.895949947353, 4178.837439875298, 33735.21968546149, 45469.86317275324, 35329.122582569435, 43877.79311869063, 25262.545080488337, 24244.289010082368, -1971.647378402636, 19.289555464929997, -0.095, 0.9984999999999999, 0.231, 192.0, 0.0, 0.0, 0.0, 0.0, 0.0, 0.0, 0.0, 0.0, 0.0, 1.7068825037073357E9, 0.0, 2024-02-02 15:01:43.707
254.0, 60083.098421466166, 63353.024524810855, -30979.763684244597, -2454.757983059643, 17764.27242329984, 9410.933781973576, 28908.62869127139, 4172.981282828007, 33765.193374776056, 45417.18011107208, 35310.034192804604, 43861.52104872716, 25244.261353523896, 24249.452263051542, -1979.3363784952617, -0.8940697782122825, -0.095, 0.9984999999999999, 0.231, 192.0, 0.0, 0.0, 0.0, 0.0, 0.0, 0.0, 0.0, 0.0, 0.0, 1.7068825037163436E9, 0.0, 2024-02-02 15:01:43.716
0.0, 60094.05077624926, 63359.97591733646, -30995.812236763508, -2429.1205321694056, 17749.632030681616, 9412.610162807723, 28887.036906127563, 4163.615901901234, 33757.414967705605, 45461.43656509359, 35295.214986230734, 43859.84466789301, 25241.66855116708, 24254.928440443095, -1989.2158495445074, -7.465482648072559, -0.0965, 1.00125, 0.2315, 192.0, 126.0, 120.0, 15.5, 48.0, 3.5, 32.0, 0.0, 0.0, 0.0, 1.7068825037245603E9, 0.0, 2024-02-02 15:01:43.724
2.0, 60093.00024425987, 63360.937042348036, -30990.626632049876, -2467.5655326325336, 17757.678658685527, 9407.357502860727, 28897.095191132452, 4163.280625734404, 33851.113480462256, 45386.87114559068, 35331.82714364852, 43884.476290282764, 25253.112644328197, 24219.59033245925, -1980.7221866514906, 9.655953604692652, -0.0965, 1.00125, 0.2315, 192.0, 0.0, 0.0, 0.0, 0.0, 0.0, 0.0, 0.0, 0.0, 0.0, 1.7068825037323573E9, 0.0, 2024-02-02 15:01:43.732
4.0, 60091.39091865908, 63366.21205403949, -30999.880254254374, -2437.2789188955926, 17748.02270508083, 9431.005648494442, 28899.173903366795, 4166.991015313985, 33819.19518938007, 45372.47662216146, 35311.21883526073, 43861.38693826043, 25206.330443183237, 24247.19473686156, -1980.0069308289208, -0.7599593114804402, -0.0965, 1.00125, 0.2315, 192.0, 0.0, 0.0, 0.0, 0.0, 0.0, 0.0, 0.0, 0.0, 0.0, 1.7068825037403872E9, 0.0, 2024-02-02 15:01:43.740
