%OpenBCI Raw EXG Data
%Number of channels = 16
%Sample Rate = 125 Hz
%Board = OpenBCI_GUI$BoardCytonSerialDaisy
Sample Index, EXG Channel 0, EXG Channel 1, EXG Channel 2, EXG Channel 3, EXG Channel 4, EXG Channel 5, EXG Channel 6, EXG Channel 7, EXG Channel 8, EXG Channel 9, EXG Channel 10, EXG Channel 11, EXG Channel 12, EXG Channel 13, EXG Channel 14, EXG Channel 15, Accel Channel 0, Accel Channel 1, Accel Channel 2, Other, Other, Other, Other, Other, Other, Other, Analog Channel 0, Analog Channel 1, Analog Channel 2, Timestamp, Other, Timestamp (Formatted)
0.0, 62002.55447656566, 65946.85506187142, -31909.797419285467, -2674.2744653552136, 16887.525247040423, 7025.555613703205, 26689.05576337049, 4743.308394349622, 0.0, 0.0, 0.0, 0.0, 0.0, 0.0, 0.0, 0.0, 0.0, 0.0, 0.0, 192.0, 0.0, 0.0, 0.0, 0.0, 0.0, 0.0, 0.0, 0.0, 0.0, 1.7068830496951492E9, 0.0, 2024-02-02 15:10:49.695
152.0, 62001.66040678745, 65947.21268978271, -31915.675928077213, -2679.2812561132023, 16883.27841559391, 7024.147453802521, 26680.38328652183, 4738.435714058365, 38564.6046477085, 47324.990907310355, 37247.70691963517, 46842.86377940939, 23436.787538145487, 26399.108934296244, -7022.828700879658, -677.1908017624381, 0.0, 0.0, 0.0, 192.0, 0.0, 0.0, 0.0, 0.0, 0.0, 0.0, 0.0, 0.0, 0.0, 1.7068830496951795E9, 0.0, 2024-02-02 15:10:49.695
0.0, 31124.804154015084, 32442.819469311176, -13271.86236046104, 272.91479979929926, 8310.959733839003, 3387.228058246143, 12936.072103508963, 3017.7984258888278, 19276.52439791255, 23650.134938971394, 18620.59010512711, 23416.58156115789, 11714.906896937717, 13193.65360661192, -3514.677705130304, -344.0380506560863, -0.11, 0.976, 0.28200000000000003, 192.0, 126.0, 72.0, 15.0, 64.0, 4.0, 104.0, 0.0, 0.0, 0.0, 1.7068830498042243E9, 0.0, 2024-02-02 15:10:49.804
2.0, 62261.61119480267, 64909.55530518953, -26549.379712269274, 542.3874309524812, 16622.47826128939, 6770.611616445973, 25878.805026865608, 6035.775665733298, 40408.802379226974, 47217.903699624985, 37255.73119589462, 47399.0869401797, 23440.54263121398, 26500.228226212053, -7703.864002688409, -488.2738576261828, -0.11, 0.976, 0.28200000000000003, 192.0, 0.0, 0.0, 0.0, 0.0, 0.0, 0.0, 0.0, 0.0, 0.0, 1.7068830498098667E9, 0.0, 2024-02-02 15:10:49.809
4.0, 62275.80455253179, 64940.82539568251, -26556.10758735032, 544.1755705089057, 16624.556973523733, 6768.1529245558895, 25880.727276888763, 6036.222700622404, 40564.19170668026, 47222.016420604756, 37263.53195470953, 47404.965448971445, 23441.749625414566, 26502.39634542422, -7704.132223621872, -489.43614833785875, -0.11, 0.976, 0.28200000000000003, 192.0, 0.0, 0.0, 0.0, 0.0, 0.0, 0.0, 0.0, 0.0, 0.0, 1.706883049817885E9, 0.0, 2024-02-02 15:10:49.817
6.0, 62285.21463694747, 64962.50658780416, -26565.54002351046, 540.8898640739756, 16623.685255489978, 6765.805991388082, 25877.240404753735, 6033.182863376483, 40681.80658600409, 47227.98433637433, 37267.59997220039, 47404.272544893334, 23440.564982958436, 26496.786057565936, -7707.19441261225, -490.73254951626654, -0.11, 0.976, 0.28200000000000003, 192.0, 0.0, 0.0, 0.0, 0.0, 0.0, 0.0, 0.0, 0.0, 0.0, 1.7068830498259053E9, 0.0, 2024-02-02 15:10:49.825
8.0, 62291.22725620595, 64981.86319850245, -26576.246509104552, 539.9063873179421, 16619.103147876638, 6762.900264608892, 25877.79919836512, 6033.696953498955, 40778.70139821785, 47228.99016487481, 37272.29383853601, 47406.10538793867, 23441.727273670112, 26500.250577956507, -7706.300342834037, -490.2631628827051, -0.108, 0.974, 0.278, 192.0, 126.0, 80.0, 15.0, 56.0, 4.0, 88.0, 0.0, 0.0, 0.0, 1.7068830498339007E9, 0.0, 2024-02-02 15:10:49.833
10.0, 62300.61498887718, 65001.91271327886, -26588.137637154778, 530.2504337132494, 16613.917543163006, 6753.847808104492, 25875.586375664043, 6027.796092962753, 40838.76053556926, 47229.638365464016, 37259.91097210777, 47392.9849139434, 23426.036349062488, 26492.15924646369, -7720.784273241076, -504.0541892116296, -0.108, 0.974, 0.278, 192.0, 0.0, 0.0, 0.0, 0.0, 0.0, 0.0, 0.0, 0.0, 0.0, 1.7068830498421366E9, 0.0, 2024-02-02 15:10:49.842
12.0, 62318.83166060826, 65020.799937343596, -26583.77904698599, 534.0278785261963, 16627.060368902727, 6763.548465198096, 25894.808875895607, 6040.827159980197, 40902.977097389354, 47233.81814167716, 37272.539707725016, 47394.415425588544, 23433.613590432837, 26499.11063898929, -7704.6910172332555, -492.4759855837805, -0.108, 0.974, 0.278, 192.0, 0.0, 0.0, 0.0, 0.0, 0.0, 0.0, 0.0, 0.0, 0.0, 1.7068830498499465E9, 0.0, 2024-02-02 15:10:49.849
14.0, 62337.875346884175, 65045.34215275552, -26576.112398637822, 541.6051198965455, 16634.10116840615, 6771.1480583129005, 25903.190780066347, 6047.711497272432, 40950.67572005698, 47240.52366501375, 37277.03240836053, 47392.42612033202, 23440.520279469525, 26502.955139035603, -7703.372264310392, -488.07269192608504, -0.108, 0.974, 0.278, 192.0, 0.0, 0.0, 0.0, 0.0, 0.0, 0.0, 0.0, 0.0, 0.0, 1.7068830498591354E9, 0.0, 2024-02-02 15:10:49.859
16.0, 62354.52739650338, 65067.11275185499, -26579.26399460602, 543.2144454973276, 16632.737711994378, 6772.757383913682, 25902.40846901041, 6046.929186216496, 41005.25868001684, 47258.516819300276, 37289.303516066495, 47404.11608268214, 23446.443491750182, 26513.86279032979, -7697.04672062954, -476.5615435316019, -0.108, 0.974, 0.278, 192.0, 0.0, 0.0, 0.0, 0.0, 0.0, 0.0, 0.0, 0.0, 0.0, 1.70688304986595E9, 0.0, 2024-02-02 15:10:49.865
18.0, 62364.54097801936, 65083.47422879627, -26581.36505858482, 540.0404977846739, 16627.596810769657, 6767.996462344702, 25893.80304739512, 6040.558939046734, 41038.29455832178, 47254.0017669203, 37293.349181812904, 47408.83230076222, 23446.711712683646, 26512.029947284456, -7700.444185786747, -476.00274992021923, -0.114, 0.984, 0.274, 192.0, 126.0, 56.0, 15.0, 96.0, 4.0, 72.0, 0.0, 0.0, 0.0, 1.7068830498741088E9, 0.0, 2024-02-02 15:10:49.874
20.0, 62354.54974824784, 65079.62972874996, -26586.952994698644, 533.4690849148137, 16622.120633378105, 6761.067421563557, 25885.287032757646, 6034.09928489915, 41047.279959592815, 47260.14849664551, 37284.36378054188, 47402.99849545938, 23441.25788703655, 26505.592644881326, -7710.994209169652, -482.55181104562416, -0.114, 0.984, 0.274, 192.0, 0.0, 0.0, 0.0, 0.0, 0.0, 0.0, 0.0, 0.0, 0.0, 1.7068830498820276E9, 0.0, 2024-02-02 15:10:49.882
22.0, 62355.712038959515, 65084.0106706632, -26588.584672043882, 529.4681226573138, 16628.58028752569, 6765.470715221252, 25906.61059696801, 6042.5258925588005, 41046.14002062559, 47254.180580875945, 37281.79332992951, 47397.09763492318, 23443.761282415544, 26505.994976281523, -7706.613267256412, -480.47309881128064, -0.114, 0.984, 0.274, 192.0, 0.0, 0.0, 0.0, 0.0, 0.0, 0.0, 0.0, 0.0, 0.0, 1.7068830498891985E9, 0.0, 2024-02-02 15:10:49.889
24.0, 62356.762570948915, 65093.6666242679, -26594.88786398028, 522.0026400092412, 16622.701778733943, 6762.073250064046, 25893.80304739512, 6036.647383767055, 41054.29840735178, 47245.865731938575, 37274.61841995936, 47390.28035286431, 23436.139337556284, 26503.938615791634, -7714.190508626761, -491.62661929447887, -0.114, 0.984, 0.274, 192.0, 0.0, 0.0, 0.0, 0.0, 0.0, 0.0, 0.0, 0.0, 0.0, 1.7068830498979747E9, 0.0, 2024-02-02 15:10:49.897
26.0, 62344.29029754285, 65085.30707184161, -26598.441791348672, 514.3806951499814, 16618.164374609518, 6755.1218575384455, 25887.522207203176, 6031.551186031245, 41066.45775633547, 47252.370089575066, 37273.858460647876, 47388.42515807452, 23437.838070134887, 26495.82493255436, -7719.152595895839, -495.7616920187107, -0.114, 0.984, 0.274, 192.0, 0.0, 0.0, 0.0, 0.0, 0.0, 0.0, 0.0, 0.0, 0.0, 1.7068830499060254E9, 0.0, 2024-02-02 15:10:49.906
28.0, 62318.47403269697, 65073.55005425812, -26596.92187272571, 514.6042125945345, 16616.756214708832, 6753.490180193207, 25884.705887401808, 6028.064313896217, 41053.292578851295, 47231.11358059807, 37265.253039032585, 47378.121003880624, 23430.35023574236, 26489.454685384597, -7727.333334366481, -505.19412817885024, -0.114, 0.986, 0.272, 192.0, 126.0, 56.0, 15.0, 104.0, 4.0, 64.0, 0.0, 0.0, 0.0, 1.7068830499140437E9, 0.0, 2024-02-02 15:10:49.914
30.0, 62323.36906473268, 65068.52091175567, -26591.02101218951, 523.6343173544785, 16620.645418244054, 6758.4075639733755, 25881.26371875569, 6029.6065842636335, 41042.22846534592, 47246.82685695015, 37270.68451293522, 47390.8838499646, 23435.982875345097, 26501.658737857193, -7719.286706362571, -496.61105830801233, -0.114, 0.986, 0.272, 192.0, 0.0, 0.0, 0.0, 0.0, 0.0, 0.0, 0.0, 0.0, 0.0, 1.7068830499212883E9, 0.0, 2024-02-02 15:10:49.921
32.0, 62273.010584474876, 65024.085643778526, -26586.573015042904, 532.5079599032355, 16630.30137184875, 6771.349224012998, 25894.540654962144, 6039.262537868326, 41025.531712237804, 47238.44495277941, 37274.216088559166, 47389.81096623075, 23438.30745676845, 26505.123258247764, -7710.189546369261, -489.03381693766323, -0.114, 0.986, 0.272, 192.0, 0.0, 0.0, 0.0, 0.0, 0.0, 0.0, 0.0, 0.0, 0.0, 1.7068830499300795E9, 0.0, 2024-02-02 15:10:49.930
34.0, 62247.46254056246, 64993.21788468574, -26592.585634301384, 528.4399424123695, 16627.39564506956, 6769.538732712118, 25892.59605319453, 6036.6250320226, 40980.33648494917, 47226.5985282181, 37263.88958262081, 47380.356178326154, 23439.805023646953, 26511.940540306634, -7701.785290454065, -476.4721365537807, -0.114, 0.986, 0.272, 192.0, 0.0, 0.0, 0.0, 0.0, 0.0, 0.0, 0.0, 0.0, 0.0, 1.706883049938065E9, 0.0, 2024-02-02 15:10:49.938
36.0, 62226.34014205219, 64963.02067792662, -26598.7770675155, 516.7276283177887, 16622.5229647783, 6760.039241318613, 25876.92748033136, 6020.464720781412, 40934.53776056025, 47223.80456016118, 37259.262771518566, 47369.82850668771, 23431.624285176313, 26503.91626404718, -7705.942714922752, -478.66260751040073, -0.114, 0.986, 0.272, 192.0, 0.0, 0.0, 0.0, 0.0, 0.0, 0.0, 0.0, 0.0, 0.0, 1.706883049945083E9, 0.0, 2024-02-02 15:10:49.945
38.0, 62212.63852270109, 64941.96533464973, -26595.826637247403, 519.4321893968809, 16626.903906691543, 6762.2297122752325, 25886.449323469322, 6023.102226627139, 40857.670111378444, 47201.676333150426, 37254.74771913859, 47355.52339023631, 23430.909029353745, 26499.736487834038, -7697.851383429931, -475.1757353753728, -0.106, 0.988, 0.274, 192.0, 126.0, 88.0, 15.0, 112.0, 4.0, 72.0, 0.0, 0.0, 0.0, 1.7068830499540787E9, 0.0, 2024-02-02 15:10:49.954
40.0, 62192.90193234706, 64920.84293613946, -26607.74011704208, 504.7023898008335, 16614.319874563203, 6748.796313857593, 25875.54167217513, 6003.231525806371, 40796.851014715554, 47200.75991162776, 37247.66221614626, 47348.30377677725, 23428.986779330586, 26494.99791800951, -7695.705615962222, -472.6946917408338, -0.106, 0.988, 0.274, 192.0, 0.0, 0.0, 0.0, 0.0, 0.0, 0.0, 0.0, 0.0, 0.0, 1.7068830499621005E9, 0.0, 2024-02-02 15:10:49.962
42.0, 62187.06812704422, 64909.24238076716, -26598.9782332156, 517.1299597179842, 16630.5248892933, 6763.235540775721, 25898.429858497366, 6016.396703290547, 40765.44681375585, 47185.739539353795, 37243.236570744106, 47342.469971474406, 23430.484346209094, 26496.80840931039, -7689.245961814638, -467.08440388255167, -0.106, 0.988, 0.274, 192.0, 0.0, 0.0, 0.0, 0.0, 0.0, 0.0, 0.0, 0.0, 0.0, 1.706883049969123E9, 0.0, 2024-02-02 15:10:49.969
44.0, 62182.08368803069, 64899.362909717915, -26611.428154877205, 505.1270729454843, 16616.689159475467, 6751.85850284797, 25877.5086256872, 6000.459909493913, 40762.13875557647, 47182.83381257461, 37244.287102733506, 47344.03459358628, 23432.652465421255, 26488.135932461733, -7683.993301867641, -457.0484706221188, -0.106, 0.988, 0.274, 192.0, 0.0, 0.0, 0.0, 0.0, 0.0, 0.0, 0.0, 0.0, 0.0, 1.706883049977252E9, 0.0, 2024-02-02 15:10:49.977
46.0, 62189.526818934304, 64908.28125575558, -26614.624454334316, 498.64506705344525, 16616.778566453286, 6745.823531845037, 25878.715619887786, 5997.151851314527, 40755.85791538452, 47183.370254441536, 37233.446506672684, 47336.323241749196, 23422.415366460726, 26478.81525502387, -7703.640485243855, -478.9531801883197, -0.106, 0.988, 0.274, 192.0, 0.0, 0.0, 0.0, 0.0, 0.0, 0.0, 0.0, 0.0, 0.0, 1.7068830499861226E9, 0.0, 2024-02-02 15:10:49.986
48.0, 62198.02048182732, 64918.20543029373, -26611.78578278849, 497.32631413058215, 16619.81840369921, 6744.772999855638, 25883.968279834782, 6001.71160718341, 40758.271903785695, 47183.90669630846, 37242.36485271035, 47340.03363132878, 23426.483383951592, 26479.32934514634, -7697.493755518646, -481.590686034046, -0.10200000000000001, 0.992, 0.268, 192.0, 126.0, 104.0, 15.5, 0.0, 4.0, 48.0, 0.0, 0.0, 0.0, 1.7068830499941373E9, 0.0, 2024-02-02 15:10:49.994
50.0, 62192.90193234706, 64916.976084348695, -26613.931550256202, 495.3593606185151, 16610.989464639362, 6739.900319564381, 25875.608727408497, 5997.174203058983, 40751.36521474901, 47192.46741443485, 37239.72734686462, 47343.94518660846, 23424.225857761605, 26478.99406897951, -7704.6686654888, -488.2515058817275, -0.10200000000000001, 0.992, 0.268, 192.0, 0.0, 0.0, 0.0, 0.0, 0.0, 0.0, 0.0, 0.0, 0.0, 1.7068830500011673E9, 0.0, 2024-02-02 15:10:50.001
52.0, 62200.34506325067, 64926.900258886846, -26614.46799212313, 494.3758838624816, 16607.726109948886, 6742.202549243278, 25863.78465459164, 5992.23446753436, 40741.79866812214, 47180.486879406795, 37234.11705900634, 47336.05502081574, 23415.9780640576, 26472.914394487667, -7712.8494039594425, -496.67811354137825, -0.10200000000000001, 0.992, 0.268, 192.0, 0.0, 0.0, 0.0, 0.0, 0.0, 0.0, 0.0, 0.0, 0.0, 1.7068830500094059E9, 0.0, 2024-02-02 15:10:50.009
54.0, 62216.95240938097, 64950.01196265364, -26615.8314485349, 491.1572326609174, 16606.876743659584, 6738.559214897063, 25870.423122694865, 5991.206287289416, 40750.225275781784, 47182.163260240945, 37237.447468930186, 47339.51954120631, 23416.58156115789, 26477.8988335012, -7712.111796392417, -494.331180373571, -0.10200000000000001, 0.992, 0.268, 192.0, 0.0, 0.0, 0.0, 0.0, 0.0, 0.0, 0.0, 0.0, 0.0, 1.7068830500181775E9, 0.0, 2024-02-02 15:10:50.018
56.0, 62233.26918283334, 64971.67080303083, -26609.662367065237, 496.32048563009334, 16616.823269942197, 6748.908072579869, 25879.855558855004, 6002.292752539248, 40764.66450269992, 47194.72494062483, 37240.35319570937, 47345.062773831225, 23423.868229850323, 26479.754028290994, -7707.842613201454, -491.2242878942833, -0.10200000000000001, 0.992, 0.268, 192.0, 0.0, 0.0, 0.0, 0.0, 0.0, 0.0, 0.0, 0.0, 0.0, 1.70688305002519E9, 0.0, 2024-02-02 15:10:50.025
58.0, 62252.20111038699, 64994.648396330886, -26599.335861126885, 505.104721201029, 16622.25474384484, 6756.015927316657, 25883.78946587914, 6009.199441575938, 40774.87924991599, 47191.17101325643, 37248.91391383576, 47351.343614023164, 23427.288046751983, 26483.218548681565, -7705.719197478199, -491.5819158055682, -0.11, 0.986, 0.268, 192.0, 126.0, 72.0, 15.0, 104.0, 4.0, 48.0, 0.0, 0.0, 0.0, 1.7068830500333579E9, 0.0, 2024-02-02 15:10:50.033
60.0, 62273.12234319715, 65020.62112338795, -26588.53996855497, 514.9394887613641, 16625.495746790857, 6767.52707571114, 25887.812779881097, 6020.107092870127, 40793.69941874736, 47221.323516526645, 37264.2472105321, 47372.71188172244, 23441.615514947836, 26504.63151986975, -7694.588028739457, -469.6772062393673, -0.11, 0.986, 0.268, 192.0, 0.0, 0.0, 0.0, 0.0, 0.0, 0.0, 0.0, 0.0, 0.0, 1.7068830500422635E9, 0.0, 2024-02-02 15:10:50.042
62.0, 62293.26126495138, 65043.33049575454, -26586.237738876076, 518.6498783409451, 16631.06133116023, 6771.975072857746, 25893.80304739512, 6025.113883628116, 40800.40494208395, 47223.31282178317, 37264.26956227655, 47377.025768402316, 23434.507660211046, 26503.223359969066, -7699.885392175364, -472.60528476301255, -0.11, 0.986, 0.268, 192.0, 0.0, 0.0, 0.0, 0.0, 0.0, 0.0, 0.0, 0.0, 0.0, 1.7068830500502443E9, 0.0, 2024-02-02 15:10:50.050
64.0, 62301.84433482222, 65055.57925171605, -26593.45735233514, 509.91034625892, 16623.66290374552, 6761.313290752565, 25878.98384082125, 6012.462796266413, 40829.14928545347, 47232.76760968776, 37270.70686467968, 47387.46403306294, 23440.699093425166, 26514.175714752164, -7695.057415373018, -473.074671396574, -0.11, 0.986, 0.268, 192.0, 0.0, 0.0, 0.0, 0.0, 0.0, 0.0, 0.0, 0.0, 0.0, 1.7068830500572393E9, 0.0, 2024-02-02 15:10:50.057
66.0, 62319.74808213092, 65076.90281592641, -26592.987965701577, 513.8219015385988, 16628.04384565876, 6765.649529176895, 25887.87983511446, 6020.911755670519, 40847.634178118016, 47241.73065921434, 37268.78461465652, 47390.54857379777, 23440.117948069328, 26500.2058744676, -7703.327560821482, -483.46823256829174, -0.11, 0.986, 0.268, 192.0, 0.0, 0.0, 0.0, 0.0, 0.0, 0.0, 0.0, 0.0, 0.0, 1.7068830500654697E9, 0.0, 2024-02-02 15:10:50.065
68.0, 62326.58771593425, 65087.3634323315, -26597.21244540363, 507.8763375134871, 16629.42965381499, 6761.648566919394, 25893.22190203928, 6022.744598715854, 40858.22890498983, 47235.49452251131, 37271.37741701334, 47391.01796043134, 23438.665084679735, 26498.507141888997, -7706.970895167697, -488.45267158182526, -0.108, 0.986, 0.268, 192.0, 126.0, 80.0, 15.0, 104.0, 4.0, 48.0, 0.0, 0.0, 0.0, 1.7068830500744655E9, 0.0, 2024-02-02 15:10:50.074
70.0, 62336.86951838369, 65100.95329296032, -26595.290195380476, 508.99392473625244, 16631.173089882504, 6760.24040701871, 25891.70198341632, 6025.225642350393, 40877.831384877136, 47249.151438373505, 37276.0489316045, 47395.57771630022, 23442.286067281493, 26502.731621591047, -7709.474290546691, -492.54304081714645, -0.108, 0.986, 0.268, 192.0, 0.0, 0.0, 0.0, 0.0, 0.0, 0.0, 0.0, 0.0, 0.0, 1.706883050081264E9, 0.0, 2024-02-02 15:10:50.081
72.0, 62354.8179691813, 65119.19231643586, -26583.60023303035, 518.6051748520345, 16641.43254058749, 6767.504723966686, 25903.436649255356, 6036.423866322501, 40897.5009199978, 47259.79086873423, 37291.91867016777, 47411.33569614121, 23451.629096463814, 26507.358432693298, -7697.42670028528, -486.66453202540066, -0.108, 0.986, 0.268, 192.0, 0.0, 0.0, 0.0, 0.0, 0.0, 0.0, 0.0, 0.0, 0.0, 1.706883050089592E9, 0.0, 2024-02-02 15:10:50.089
74.0, 62341.7645504194, 65113.69378729985, -26598.195922159663, 504.8365002675653, 16622.768833967308, 6752.327889481532, 25881.5095879447, 6020.196499847949, 40902.53006250025, 47256.01342392128, 37288.85648117739, 47408.80994901776, 23451.584392974903, 26504.8550373143, -7700.2877235755595, -488.5420785596465, -0.108, 0.986, 0.268, 192.0, 0.0, 0.0, 0.0, 0.0, 0.0, 0.0, 0.0, 0.0, 0.0, 1.7068830500976372E9, 0.0, 2024-02-02 15:10:50.097
76.0, 62339.88700388515, 65114.83372626707, -26606.153143185755, 496.36518911900396, 16621.00304615534, 6749.131590024423, 25881.353125733513, 6016.150834101539, 40897.0538851087, 47248.167961617466, 37273.99257111461, 47398.192870401486, 23438.083939323897, 26496.964871521577, -7714.2575638601265, -499.0921019425514, -0.108, 0.986, 0.268, 192.0, 0.0, 0.0, 0.0, 0.0, 0.0, 0.0, 0.0, 0.0, 0.0, 1.706883050105336E9, 0.0, 2024-02-02 15:10:50.105
78.0, 62351.97929763547, 65128.624752596, -26600.63226230529, 501.5284420881799, 16630.591944526666, 6758.720488395749, 25894.495951473233, 6028.801921463242, 40903.37942878955, 47236.79092368972, 37272.02561760254, 47390.2356493754, 23439.514450969036, 26492.15924646369, -7714.279915604582, -503.2942299001491, -0.11, 0.986, 0.264, 192.0, 126.0, 72.0, 15.0, 104.0, 4.0, 32.0, 0.0, 0.0, 0.0, 1.7068830501133423E9, 0.0, 2024-02-02 15:10:50.113
80.0, 62359.24361458345, 65138.61598236752, -26598.374736115307, 506.22230842379435, 16632.53654629428, 6761.313290752565, 25894.160675306404, 6031.52883428679, 40922.557225532204, 47264.77530774776, 37283.67087646376, 47408.251155406375, 23454.132491842807, 26509.168923994177, -7700.71240672021, -490.911363471909, -0.11, 0.986, 0.264, 192.0, 0.0, 0.0, 0.0, 0.0, 0.0, 0.0, 0.0, 0.0, 0.0, 1.7068830501216977E9, 0.0, 2024-02-02 15:10:50.121
82.0, 62372.60995776772, 65152.74228486327, -26591.065715678422, 520.4827213862802, 16638.5268138083, 6772.57856995804, 25902.184951565858, 6042.436485580979, 40925.86528371159, 47272.3078456292, 37288.878832921844, 47417.080094466226, 23455.853576165864, 26513.0581275294, -7698.432528785769, -486.97745644777495, -0.11, 0.986, 0.264, 192.0, 0.0, 0.0, 0.0, 0.0, 0.0, 0.0, 0.0, 0.0, 0.0, 1.7068830501304016E9, 0.0, 2024-02-02 15:10:50.130
84.0, 62368.787809465866, 65151.35647670704, -26602.68862279518, 508.97157299179713, 16627.797976469752, 6763.660223920372, 25890.427933982366, 6034.881595955086, 40925.23943486684, 47266.74226125983, 37289.661143977784, 47416.32013515475, 23452.858442408855, 26513.035775784945, -7704.9815899111745, -488.6314855374677, -0.11, 0.986, 0.264, 192.0, 0.0, 0.0, 0.0, 0.0, 0.0, 0.0, 0.0, 0.0, 0.0, 1.7068830501373923E9, 0.0, 2024-02-02 15:10:50.137
86.0, 62373.99576592395, 65157.9278895769, -26606.84604726387, 502.37780837748153, 16627.976790425397, 6762.810857631071, 25887.07517231407, 6033.182863376483, 40927.54166454574, 47270.92203747297, 37288.34239105492, 47412.90031825308, 23451.673799952725, 26513.572217651872, -7711.485947547669, -492.6995030283336, -0.11, 0.986, 0.264, 192.0, 0.0, 0.0, 0.0, 0.0, 0.0, 0.0, 0.0, 0.0, 0.0, 1.7068830501453743E9, 0.0, 2024-02-02 15:10:50.145
88.0, 62382.46707707251, 65171.33893625009, -26599.380564615796, 506.0211427236966, 16635.889307962574, 6768.1529245558895, 25895.03239334016, 6039.888386713074, 40926.53583604525, 47254.71702274287, 37287.44832127671, 47409.033466462315, 23447.985762117598, 26508.610130382793, -7713.229383615182, -496.9016309859313, -0.10700000000000001, 0.983, 0.262, 192.0, 126.0, 96.0, 15.0, 80.0, 4.0, 16.0, 0.0, 0.0, 0.0, 1.7068830501534188E9, 0.0, 2024-02-02 15:10:50.153
90.0, 62383.36114685073, 65176.90452061946, -26607.8295240199, 494.331180373571, 16628.401473570048, 6758.1169912954565, 25895.27826252917, 6034.76983723281, 40932.548455303724, 47268.46334558289, 37287.224803832156, 47414.80021653178, 23450.533860985503, 26510.68884261714, -7709.787214969065, -493.459462339814, -0.10700000000000001, 0.983, 0.262, 192.0, 0.0, 0.0, 0.0, 0.0, 0.0, 0.0, 0.0, 0.0, 0.0, 1.7068830501614163E9, 0.0, 2024-02-02 15:10:50.161
92.0, 62405.39996688366, 65199.3903755415, -26601.83925650588, 499.1144536870067, 16634.682313761987, 6766.856523377482, 25893.914806117395, 6041.922395458508, 40937.82346699518, 47275.079461941656, 37291.896318423314, 47421.30457416828, 23452.232593564106, 26513.080479273856, -7710.189546369261, -495.8063955076213, -0.10700000000000001, 0.983, 0.262, 192.0, 0.0, 0.0, 0.0, 0.0, 0.0, 0.0, 0.0, 0.0, 0.0, 1.7068830501694188E9, 0.0, 2024-02-02 15:10:50.169
94.0, 62411.770214053424, 65207.48170703432, -26608.03068972, 492.3418751170487, 16630.05550265974, 6760.307462252076, 25898.854541642017, 6038.569633790212, 40944.68545254296, 47278.8122032657, 37296.500777781104, 47424.81379804776, 23454.110140098353, 26513.169886251675, -7711.530651036579, -493.92884897337547, -0.10700000000000001, 0.983, 0.262, 192.0, 0.0, 0.0, 0.0, 0.0, 0.0, 0.0, 0.0, 0.0, 0.0, 1.7068830501776147E9, 0.0, 2024-02-02 15:10:50.177
96.0, 62412.261952431436, 65209.895695435494, -26608.209503675644, 492.6324477949677, 16632.11186314963, 6761.246235519199, 25896.4629049853, 6038.212005878926, 40943.34434787564, 47284.28838065724, 37293.86327193538, 47422.600975346686, 23453.283125553506, 26512.96872055158, -7712.894107448353, -494.1300146734732, -0.10700000000000001, 0.983, 0.262, 192.0, 0.0, 0.0, 0.0, 0.0, 0.0, 0.0, 0.0, 0.0, 0.0, 1.706883050185466E9, 0.0, 2024-02-02 15:10:50.185
98.0, 62426.321199693826, 65223.97729444234, -26595.021974447012, 503.89772700044244, 16641.81252024323, 6771.7962589021045, 25902.631986454962, 6046.683317027488, 40944.0149002093, 47274.0065782078, 37301.50756853909, 47427.45130389349, 23457.30643955546, 26518.891932832234, -7708.021427157096, -495.5828780630682, -0.11050000000000001, 0.9844999999999999, 0.261, 192.0, 126.0, 56.0, 15.0, 104.0, 4.0, 16.0, 0.0, 0.0, 0.0, 1.706883050193472E9, 0.0, 2024-02-02 15:10:50.193
100.0, 62435.26189747595, 65233.85676549158, -26594.820808746914, 502.10958744401785, 16643.108921421637, 6770.566912957062, 25913.249065071235, 6050.214892651426, 40957.29183641575, 47292.424415638976, 37310.358859343396, 47441.37644068914, 23466.78357920451, 26516.366185708786, -7699.23719158616, -482.17183138988395, -0.11050000000000001, 0.9844999999999999, 0.261, 192.0, 0.0, 0.0, 0.0, 0.0, 0.0, 0.0, 0.0, 0.0, 0.0, 1.7068830502014995E9, 0.0, 2024-02-02 15:10:50.201
102.0, 62424.220135715026, 65222.43502407492, -26607.47189610862, 487.82682273707667, 16635.19640388446, 6761.425049474842, 25900.37446026498, 6040.424828580002, 40949.78165027877, 47275.437089852945, 37301.328754583454, 47431.899301040095, 23459.899241912277, 26507.671357115672, -7707.19441261225, -492.61009605051237, -0.11050000000000001, 0.9844999999999999, 0.261, 192.0, 0.0, 0.0, 0.0, 0.0, 0.0, 0.0, 0.0, 0.0, 0.0, 1.7068830502097363E9, 0.0, 2024-02-02 15:10:50.209
104.0, 62427.21526947204, 65224.4466810759, -26611.003471732554, 490.3078663716157, 16629.988447426374, 6761.961491341769, 25893.98186135076, 6039.173130890505, 40948.79817352274, 47276.82289800917, 37299.83118770495, 47432.97218477395, 23460.88271866831, 26510.68884261714, -7707.753206223632, -490.77725300517716, -0.11050000000000001, 0.9844999999999999, 0.261, 192.0, 0.0, 0.0, 0.0, 0.0, 0.0, 0.0, 0.0, 0.0, 0.0, 1.7068830502174623E9, 0.0, 2024-02-02 15:10:50.217
106.0, 62431.126824751715, 65231.53218406823, -26612.16576244423, 495.73934027425537, 16629.027322414797, 6767.147096055401, 25893.020736339182, 6042.838816981175, 40945.93715023246, 47280.08625269965, 37292.11983586787, 47425.35023991469, 23452.97020113113, 26510.264159472485, -7719.465520318213, -496.94633447484193, -0.11050000000000001, 0.9844999999999999, 0.261, 192.0, 0.0, 0.0, 0.0, 0.0, 0.0, 0.0, 0.0, 0.0, 0.0, 1.706883050225527E9, 0.0, 2024-02-02 15:10:50.225
108.0, 62438.81582484434, 65239.891736494515, -26616.45729737965, 493.459462339814, 16622.791185711765, 6767.504723966686, 25880.481407699754, 6039.5754622907, 40955.347234648136, 47287.19410743644, 37305.37442032986, 47439.45419066599, 23458.424026778226, 26520.367147966284, -7718.929078451286, -494.1076629290179, -0.11325000000000002, 0.98425, 0.2645, 192.0, 126.0, 48.0, 15.0, 96.0, 4.0, 48.0, 0.0, 0.0, 0.0, 1.7068830502337835E9, 0.0, 2024-02-02 15:10:50.233
110.0, 62447.242432504, 65256.14145471352, -26615.138544456786, 493.59357280654586, 16622.00887465583, 6769.0916978230125, 25891.031431082658, 6046.996241449862, 40946.63005431057, 47296.02304649628, 37296.165501614276, 47435.56498713076, 23446.39878826127, 26516.902627575713, -7730.663744290322, -502.3554566330262, -0.11325000000000002, 0.98425, 0.2645, 192.0, 0.0, 0.0, 0.0, 0.0, 0.0, 0.0, 0.0, 0.0, 0.0, 1.7068830502417736E9, 0.0, 2024-02-02 15:10:50.241
112.0, 62447.242432504, 65260.88002453805, -26601.88395999479, 506.0658462126072, 16629.4743573039, 6782.882724151937, 25894.65241368442, 6054.573482820211, 40964.578505108184, 47315.51376766131, 37318.96428095869, 47458.67669089755, 23462.84967218038, 26539.76846215349, -7707.149709123339, -480.45074706682533, -0.11325000000000002, 0.98425, 0.2645, 192.0, 0.0, 0.0, 0.0, 0.0, 0.0, 0.0, 0.0, 0.0, 0.0, 1.7068830502485604E9, 0.0, 2024-02-02 15:10:50.248
114.0, 62430.791548584886, 65245.0996929526, -26607.762468786535, 494.62175305149, 16627.976790425397, 6771.639796690917, 25893.60188169502, 6048.963194961929, 40954.34140614765, 47299.71108433141, 37304.36859182937, 47442.29286221181, 23459.899241912277, 26530.268970759986, -7710.591877769456, -487.5362500591576, -0.11325000000000002, 0.98425, 0.2645, 192.0, 0.0, 0.0, 0.0, 0.0, 0.0, 0.0, 0.0, 0.0, 0.0, 1.706883050257518E9, 0.0, 2024-02-02 15:10:50.257
116.0, 62438.45819693306, 65246.44079761992, -26611.15993394374, 490.06199718260734, 16630.5248892933, 6765.604825687984, 25895.63589044045, 6044.6940117709655, 40953.760260791816, 47295.33014241817, 37308.28014710905, 47441.1976267335, 23463.475521025124, 26522.468211945084, -7704.2216305996935, -487.0892151700515, -0.11325000000000002, 0.98425, 0.2645, 192.0, 0.0, 0.0, 0.0, 0.0, 0.0, 0.0, 0.0, 0.0, 0.0, 1.7068830502659159E9, 0.0, 2024-02-02 15:10:50.265
118.0, 62415.70412107756, 65213.42727105943, -26605.907273996745, 492.16306116140623, 16636.112825407126, 6764.129610553934, 25897.468733485788, 6044.135218159583, 40931.14029540304, 47284.57895333516, 37309.28597560954, 47440.48237091093, 23464.54840475898, 26518.57900840986, -7700.690054975755, -487.4691948257917, -0.113625, 0.9821249999999999, 0.26625, 192.0, 126.0, 56.0, 15.0, 80.0, 4.0, 48.0, 0.0, 0.0, 0.0, 1.7068830502735996E9, 0.0, 2024-02-02 15:10:50.273
120.0, 62334.947268360535, 65171.13777054999, -26622.805192804957, 477.5226685431801, 16620.33249382168, 6749.936252824814, 25882.11308504499, 6029.00308716334, 40918.71272548589, 47283.684883556954, 37297.79717895951, 47431.85459755118, 23468.884643183308, 26512.47698217356, -7703.685188732767, -488.45267158182526, -0.113625, 0.9821249999999999, 0.26625, 192.0, 0.0, 0.0, 0.0, 0.0, 0.0, 0.0, 0.0, 0.0, 0.0, 1.706883050280722E9, 0.0, 2024-02-02 15:10:50.280
122.0, 62365.52445477539, 65170.690735660886, -26612.903370011256, 492.94537221734197, 16628.848508459152, 6770.164581556867, 25884.37061123498, 6041.654174525043, 40870.87999235153, 47261.26608386828, 37282.97797238564, 47422.55627185777, 23455.02656162102, 26511.895836817723, -7708.870793446397, -495.22525015178326, -0.113625, 0.9821249999999999, 0.26625, 192.0, 0.0, 0.0, 0.0, 0.0, 0.0, 0.0, 0.0, 0.0, 0.0, 1.706883050289641E9, 0.0, 2024-02-02 15:10:50.289
124.0, 62319.79278561984, 65113.85024951104, -26615.36206190134, 491.5819158055682, 16631.687180004978, 6774.05378509209, 25901.670861443385, 6049.656099040044, 40856.03843403321, 47266.78696474874, 37295.67376323626, 47427.04897249329, 23461.84384367989, 26514.48863917454, -7693.76101419461, -473.94638943033095, -0.113625, 0.9821249999999999, 0.26625, 192.0, 0.0, 0.0, 0.0, 0.0, 0.0, 0.0, 0.0, 0.0, 0.0, 1.7068830502979255E9, 0.0, 2024-02-02 15:10:50.297
126.0, 62248.80364522978, 65051.17595805836, -26627.454355651662, 480.9424854448421, 16623.327627578692, 6766.878875121936, 25886.002288580214, 6036.8261977226975, 40763.725729432794, 47264.75295600331, 37284.699056708705, 47414.17436768703, 23461.195643090683, 26517.886104331745, -7686.85432515792, -469.3419300725377, -0.113625, 0.9821249999999999, 0.26625, 192.0, 0.0, 0.0, 0.0, 0.0, 0.0, 0.0, 0.0, 0.0, 0.0, 1.7068830503046825E9, 0.0, 2024-02-02 15:10:50.304
128.0, 62242.03106665982, 65039.91067885288, -26621.821716048922, 484.1834883908616, 16625.674560746498, 6767.929407111336, 25884.79529437963, 6033.451084309946, 40653.95631241278, 47224.43040900593, 37266.95177161119, 47387.55344004076, 23454.199547076172, 26504.765630336482, -7690.654121715323, -473.0523196521187, -0.11281250000000001, 0.9810625, 0.268125, 192.0, 126.0, 64.0, 15.0, 80.0, 4.0, 56.0, 0.0, 0.0, 0.0, 1.7068830503136866E9, 0.0, 2024-02-02 15:10:50.313
130.0, 62240.10881663666, 64998.76111731066, -26616.92668401321, 492.073654183585, 16623.975828167895, 6768.175276300344, 25878.916785587884, 6024.666848739011, 40583.32479993401, 47241.238920836324, 37279.26758280606, 47403.82551000423, 23456.747645944077, 26513.10283101831, -7681.825182655476, -461.13883985744, -0.11281250000000001, 0.9810625, 0.268125, 192.0, 0.0, 0.0, 0.0, 0.0, 0.0, 0.0, 0.0, 0.0, 0.0, 1.7068830503220975E9, 0.0, 2024-02-02 15:10:50.322
132.0, 62222.741511194894, 64913.37745349139, -26613.328053155907, 494.1076629290179, 16623.349979323146, 6766.498895466197, 25874.06645704108, 6012.015761377306, 40435.46801036215, 47225.21272006187, 37280.02754211755, 47398.77401575733, 23458.222861078128, 26512.8569618293, -7674.113830818395, -455.61795897697914, -0.11281250000000001, 0.9810625, 0.268125, 192.0, 0.0, 0.0, 0.0, 0.0, 0.0, 0.0, 0.0, 0.0, 0.0, 1.706883050328632E9, 0.0, 2024-02-02 15:10:50.328
134.0, 62185.905836332546, 64803.853905660384, -26611.919893255224, 482.3282936010711, 16621.941819422464, 6758.5863779290175, 25876.994535564725, 5999.051749593228, 40233.050612574894, 47220.138874070515, 37268.71755942316, 47393.74487325488, 23457.664067466747, 26506.799639081913, -7676.304301775015, -450.3205955410714, -0.11281250000000001, 0.9810625, 0.268125, 192.0, 0.0, 0.0, 0.0, 0.0, 0.0, 0.0, 0.0, 0.0, 0.0, 1.706883050338703E9, 0.0, 2024-02-02 15:10:50.338
136.0, 62189.951502078955, 64709.90952371473, -26600.20757916064, 483.91526745739793, 16623.841717701165, 6763.704927409283, 25873.954698318805, 5994.737862913355, 40022.340717594714, 47212.651039677985, 37263.911934365264, 47389.743910997386, 23467.45413153817, 26502.038717512933, -7670.403441238814, -448.688918195834, -0.11281250000000001, 0.9810625, 0.268125, 192.0, 0.0, 0.0, 0.0, 0.0, 0.0, 0.0, 0.0, 0.0, 0.0, 1.7068830503456962E9, 0.0, 2024-02-02 15:10:50.345
138.0, 62177.568635650714, 64561.0916091313, -26585.298965608952, 483.44588082383643, 16628.110900892127, 6767.48237222223, 25869.21612849428, 5992.301522767726, 39752.264589341234, 47199.999952316284, 37269.14224256781, 47398.751664012874, 23472.93030892972, 26499.043583755923, -7665.419002225281, -442.27396753716084, -0.10740625000000001, 0.98253125, 0.2690625, 192.0, 126.0, 104.0, 15.0, 96.0, 4.0, 56.0, 0.0, 0.0, 0.0, 1.7068830503529024E9, 0.0, 2024-02-02 15:10:50.352
140.0, 62141.04588521074, 64358.964784021955, -26583.39906733025, 464.71511897028915, 16619.259610087825, 6754.138380782411, 25856.78855857713, 5977.258798749304, 39538.76072630414, 47190.7910336007, 37255.77589938354, 47388.51456505234, 23473.26558509655, 26487.01834523897, -7673.353871506914, -449.0912495960295, -0.10740625000000001, 0.98253125, 0.2690625, 192.0, 0.0, 0.0, 0.0, 0.0, 0.0, 0.0, 0.0, 0.0, 0.0, 1.7068830503609197E9, 0.0, 2024-02-02 15:10:50.360
142.0, 62133.468643840395, 64239.38295118606, -26567.64108748926, 473.56640977459074, 16631.307200349238, 6766.610654188473, 25870.1549017614, 5982.8243831186755, 39446.73859438165, 47169.82509730162, 37243.25892248857, 47384.826527217214, 23480.08286715542, 26481.542167847416, -7667.073031314973, -446.76666817267756, -0.10740625000000001, 0.98253125, 0.2690625, 192.0, 0.0, 0.0, 0.0, 0.0, 0.0, 0.0, 0.0, 0.0, 0.0, 1.7068830503697085E9, 0.0, 2024-02-02 15:10:50.369
144.0, 62139.77183577679, 64181.29076734672, -26571.954974169133, 472.1135463849958, 16626.546278780257, 6765.560122199074, 25861.840052824027, 5976.297673737726, 39446.626835659365, 47173.781356070205, 37256.35704473937, 47402.52910882582, 23487.481294570127, 26491.66750808567, -7660.166342278283, -436.86484537897655, -0.10740625000000001, 0.98253125, 0.2690625, 192.0, 0.0, 0.0, 0.0, 0.0, 0.0, 0.0, 0.0, 0.0, 0.0, 1.706883050377721E9, 0.0, 2024-02-02 15:10:50.377
146.0, 62113.53088778626, 64164.63871772751, -26582.102666151844, 465.38567130394836, 16619.706644976934, 6763.593168687006, 25850.530070129644, 5969.167467256483, 39411.78046605355, 47168.86397229004, 37244.17534401123, 47396.38237910061, 23482.69802125669, 26486.928938261146, -7670.425792983269, -443.525665226658, -0.10740625000000001, 0.98253125, 0.2690625, 192.0, 0.0, 0.0, 0.0, 0.0, 0.0, 0.0, 0.0, 0.0, 0.0, 1.7068830503851E9, 0.0, 2024-02-02 15:10:50.385
148.0, 62115.96722793189, 64192.779563996744, -26584.78487548648, 461.0494328796188, 16617.6726362315, 6763.861389620471, 25849.63600035143, 5972.050842291217, 39416.38492541134, 47154.983538983295, 37238.94503580869, 47387.084053407205, 23479.568777032946, 26484.850226026803, -7676.773688408576, -447.95131062880887, -0.10670312500000001, 0.981265625, 0.26653125, 192.0, 126.0, 88.0, 15.0, 80.0, 4.0, 32.0, 0.0, 0.0, 0.0, 1.70688305039273E9, 0.0, 2024-02-02 15:10:50.392
150.0, 62124.505594313814, 64240.321724453184, -26591.557454056438, 453.00280487570825, 16608.374310538093, 6752.596110414996, 25842.59520084801, 5967.781659100254, 39468.26332429211, 47156.034070972695, 37228.350308936875, 47375.34938756817, 23472.371515318337, 26482.257423669987, -7694.230400828172, -461.13883985744, -0.10670312500000001, 0.981265625, 0.26653125, 192.0, 0.0, 0.0, 0.0, 0.0, 0.0, 0.0, 0.0, 0.0, 0.0, 1.7068830504017332E9, 0.0, 2024-02-02 15:10:50.401
152.0, 62149.09251321465, 64328.901687729565, -26585.03074467549, 456.84730492202107, 16619.885458932575, 6757.871122106448, 25862.845881324516, 5984.903095353019, 39542.627578094914, 47155.98936748378, 37225.13165773531, 47371.03550088829, 23471.522149029035, 26482.14566494771, -7699.550116008534, -471.7782702181662, -0.10670312500000001, 0.981265625, 0.26653125, 192.0, 0.0, 0.0, 0.0, 0.0, 0.0, 0.0, 0.0, 0.0, 0.0, 1.706883050408862E9, 0.0, 2024-02-02 15:10:50.408
154.0, 62168.15855123503, 64426.914087166086, -26591.937433712177, 450.3205955410714, 16614.67750247449, 6752.327889481532, 25851.222974207758, 5988.166450043494, 39640.37175659797, 47170.629760102005, 37232.41832642774, 47380.155012626055, 23479.233500866118, 26485.677240571647, -7705.294514333548, -480.6519127669231, -0.10670312500000001, 0.981265625, 0.26653125, 192.0, 0.0, 0.0, 0.0, 0.0, 0.0, 0.0, 0.0, 0.0, 0.0, 1.706883050416751E9, 0.0, 2024-02-02 15:10:50.416
156.0, 62183.58125490919, 64520.523192944915, -26604.54381758497, 442.5421884706245, 16609.000159382842, 6751.433819703319, 25845.858555538485, 5995.766043158298, 39755.840868454085, 47177.067062505135, 37224.59521586838, 47373.24832358937, 23466.31419257095, 26478.792903279413, -7721.857156974931, -506.95991599081947, -0.10670312500000001, 0.981265625, 0.26653125, 192.0, 0.0, 0.0, 0.0, 0.0, 0.0, 0.0, 0.0, 0.0, 0.0, 1.7068830504249873E9, 0.0, 2024-02-02 15:10:50.424
158.0, 62212.660874445544, 64615.71927258006, -26606.64488156377, 445.5820257165463, 16617.113842620118, 6758.0052325731795, 25869.439645938834, 6017.424883535491, 39929.40216414954, 47184.21962073084, 37234.38527993981, 47372.80128870026, 23465.12955011482, 26482.995031237013, -7714.503433049135, -511.76554104871053, -0.1103515625, 0.9806328125, 0.265265625, 192.0, 126.0, 56.0, 15.0, 80.0, 4.0, 32.0, 0.0, 0.0, 0.0, 1.7068830504337993E9, 0.0, 2024-02-02 15:10:50.433
160.0, 62238.521842780334, 64695.17972411868, -26609.50590485405, 445.15734257189547, 16619.550182765746, 6760.151000040889, 25877.195701264824, 6027.52787202929, 40169.16932692163, 47209.365333243055, 37245.56115216746, 47384.31243709474, 23470.60572750637, 26495.48965638753, -7710.770691725099, -511.85494802653176, -0.1103515625, 0.9806328125, 0.265265625, 192.0, 0.0, 0.0, 0.0, 0.0, 0.0, 0.0, 0.0, 0.0, 0.0, 1.7068830504411318E9, 0.0, 2024-02-02 15:10:50.441
162.0, 62258.01256394536, 64752.84722481338, -26624.056890494456, 442.0951535815184, 16612.598790240143, 6756.485313950219, 25866.44451218182, 6024.152758616538, 40428.04723120299, 47201.542222683696, 37244.95765506717, 47383.507774294354, 23459.809834934455, 26491.48869413003, -7717.118587150406, -519.5662998636127, -0.1103515625, 0.9806328125, 0.265265625, 192.0, 0.0, 0.0, 0.0, 0.0, 0.0, 0.0, 0.0, 0.0, 0.0, 1.7068830504488127E9, 0.0, 2024-02-02 15:10:50.448
164.0, 62275.581035087234, 64806.58081848393, -26631.768242331535, 444.37503151595973, 16613.068176873705, 6754.674822649339, 25881.755457133706, 6029.6065842636335, 40656.504411280686, 47215.377952501534, 37260.715634908156, 47396.784710500804, 23458.379323289315, 26502.284586701942, -7712.178851625783, -515.9676690063083, -0.1103515625, 0.9806328125, 0.265265625, 192.0, 0.0, 0.0, 0.0, 0.0, 0.0, 0.0, 0.0, 0.0, 0.0, 1.7068830504580405E9, 0.0, 2024-02-02 15:10:50.458
166.0, 62276.85508452119, 64837.11330140988, -26647.32505647243, 433.35562149949334, 16609.804822183232, 6746.248214989689, 25879.564986177087, 6023.236337093871, 40809.41269509944, 47213.88038562303, 37257.072300561944, 47390.30270460877, 23449.6844946962, 26496.24961569901, -7713.162328381816, -516.9958492512524, -0.1103515625, 0.9806328125, 0.265265625, 192.0, 0.0, 0.0, 0.0, 0.0, 0.0, 0.0, 0.0, 0.0, 0.0, 1.7068830504648345E9, 0.0, 2024-02-02 15:10:50.464
168.0, 62306.202924991005, 64888.18703749026, -26640.060739524455, 446.9007786394094, 16619.14785136555, 6759.212226773767, 25886.02464032467, 6031.707648242432, 40920.0091266643, 47208.96300184286, 37266.19181229971, 47391.822623231725, 23448.678666195712, 26507.000804782012, -7714.86106096042, -520.3262591750931, -0.11117578125, 0.98231640625, 0.26563281250000004, 192.0, 126.0, 64.0, 15.0, 96.0, 4.0, 40.0, 0.0, 0.0, 0.0, 1.7068830504731035E9, 0.0, 2024-02-02 15:10:50.473
170.0, 62308.63926513663, 64913.556267447035, -26653.404730964274, 442.8551128929988, 16614.364578052115, 6758.809895373571, 25879.810855366097, 6026.164415617516, 41001.10125554815, 47233.68403121043, 37276.87594614935, 47404.965448971445, 23456.50177675507, 26511.694671117624, -7708.960200424219, -502.42251186639214, -0.11117578125, 0.98231640625, 0.26563281250000004, 192.0, 0.0, 0.0, 0.0, 0.0, 0.0, 0.0, 0.0, 0.0, 0.0, 1.7068830504808908E9, 0.0, 2024-02-02 15:10:50.480
172.0, 62324.82192812228, 64945.27339282911, -26650.36489371835, 447.79484841762167, 16616.53269726428, 6767.169447799855, 25879.319116988077, 6027.6172790071105, 41041.11087812315, 47228.34196428561, 37268.94107686771, 47396.3376756117, 23446.756416172557, 26513.77338335197, -7719.487872062668, -507.51870960220214, -0.11117578125, 0.98231640625, 0.26563281250000004, 192.0, 0.0, 0.0, 0.0, 0.0, 0.0, 0.0, 0.0, 0.0, 0.0, 1.7068830504899478E9, 0.0, 2024-02-02 15:10:50.489
174.0, 62330.32045725828, 64967.9827651957, -26651.996571063588, 447.92895888435356, 16615.929200163984, 6763.503761709186, 25886.672840913874, 6027.304354584737, 41087.08841646772, 47241.037755136225, 37277.03240836053, 47405.27837339382, 23451.249116808074, 26521.618845655783, -7716.515090050112, -503.8306717670765, -0.11117578125, 0.98231640625, 0.26563281250000004, 192.0, 0.0, 0.0, 0.0, 0.0, 0.0, 0.0, 0.0, 0.0, 0.0, 1.7068830504968946E9, 0.0, 2024-02-02 15:10:50.496
176.0, 62335.05902708281, 64987.38407938291, -26653.31532398645, 446.2749297946608, 16615.415110041515, 6761.559159941574, 25884.37061123498, 6024.353924316636, 41112.435294680035, 47249.59847326261, 37274.32784728144, 47406.015980960845, 23447.96341037314, 26522.53526717845, -7718.258526117626, -504.8365002675653, -0.11117578125, 0.98231640625, 0.26563281250000004, 192.0, 0.0, 0.0, 0.0, 0.0, 0.0, 0.0, 0.0, 0.0, 0.0, 1.7068830505053217E9, 0.0, 2024-02-02 15:10:50.505
178.0, 62350.034695867864, 65006.6959865923, -26650.968390818645, 445.6490809499122, 16617.203249597937, 6760.441572718808, 25879.140303032436, 6022.5657847602115, 41117.531492415845, 47238.28849056822, 37279.155824083784, 47407.558251328264, 23445.325904527417, 26516.34383396433, -7721.320715108003, -511.56437534861277, -0.11258789062499999, 0.984158203125, 0.26681640625, 192.0, 126.0, 56.0, 15.0, 104.0, 4.0, 48.0, 0.0, 0.0, 0.0, 1.706883050513903E9, 0.0, 2024-02-02 15:10:50.513
180.0, 62357.1201988602, 65020.017626287656, -26651.102501285375, 444.2409210492279, 16621.159508366527, 6758.541674440107, 25889.55621594861, 6027.930203429485, 41134.69763215752, 47256.39340357702, 37286.21897533166, 47416.9906874884, 23454.57952673191, 26527.206781769608, -7709.76486322461, -503.09306420005134, -0.11258789062499999, 0.984158203125, 0.26681640625, 192.0, 0.0, 0.0, 0.0, 0.0, 0.0, 0.0, 0.0, 0.0, 0.0, 1.706883050520944E9, 0.0, 2024-02-02 15:10:50.520
182.0, 62368.58664376577, 65036.87084160696, -26650.119024529344, 445.69378443882283, 16626.300409591247, 6763.213189031267, 25890.69615491583, 6030.411247064024, 41139.05622232631, 47242.378859803546, 37278.70878919468, 47403.62434430413, 23446.95758187265, 26516.902627575713, -7719.57727904049, -516.5264626176909, -0.11258789062499999, 0.984158203125, 0.26681640625, 192.0, 0.0, 0.0, 0.0, 0.0, 0.0, 0.0, 0.0, 0.0, 0.0, 1.7068830505291276E9, 0.0, 2024-02-02 15:10:50.529
184.0, 62371.984108922974, 65047.711437667786, -26648.241477995096, 447.79484841762167, 16630.68135150449, 6767.929407111336, 25898.385155008455, 6036.736790744876, 41162.92788540458, 47260.327310601155, 37296.94781267021, 47423.96443175846, 23464.45899778116, 26537.175659796678, -7699.885392175364, -498.37684611998156, -0.11258789062499999, 0.984158203125, 0.26681640625, 192.0, 0.0, 0.0, 0.0, 0.0, 0.0, 0.0, 0.0, 0.0, 0.0, 1.7068830505370047E9, 0.0, 2024-02-02 15:10:50.537
186.0, 62373.52637929039, 65058.68614419534, -26662.50189095758, 432.5062552101917, 16617.76204320932, 6755.747706383194, 25885.890529857938, 6023.7951307052535, 41155.52945798987, 47256.974548932856, 37281.23453631813, 47410.061646707254, 23447.35991327285, 26524.904552090713, -7714.302267349037, -511.1396922039619, -0.11258789062499999, 0.984158203125, 0.26681640625, 192.0, 0.0, 0.0, 0.0, 0.0, 0.0, 0.0, 0.0, 0.0, 0.0, 1.70688305054496E9, 0.0, 2024-02-02 15:10:50.544
188.0, 62386.35628060774, 65078.78036246066, -26657.629210666324, 434.8308366335436, 16621.271267088803, 6758.161694784367, 25888.192759536836, 6023.079874882684, 41163.754899949425, 47252.280682597244, 37285.101388108895, 47409.90518449607, 23443.224840548617, 26522.848191600824, -7716.805662728031, -519.2086719523278, -0.11258789062499999, 0.984158203125, 0.26681640625, 192.0, 0.0, 0.0, 0.0, 0.0, 0.0, 0.0, 0.0, 0.0, 0.0, 1.7068830505529928E9, 0.0, 2024-02-02 15:10:50.552
190.0, 62376.67797525859, 65078.91447292739, -26668.402751493784, 425.80073187359955, 16612.084700117673, 6748.729258624227, 25882.671878656376, 6016.307296312725, 41168.940504663056, 47259.23207512285, 37283.60382123039, 47412.185062430515, 23442.68839868169, 26524.748089879526, -7719.420816829303, -520.6168318530121, -0.11, 0.986, 0.27, 192.0, 126.0, 72.0, 15.0, 104.0, 4.0, 56.0, 0.0, 0.0, 0.0, 1.7068830505612445E9, 0.0, 2024-02-02 15:10:50.561
192.0, 62395.431088856596, 65099.47807782627, -26658.009190322067, 434.65202267790113, 16626.00983691333, 6758.094639551001, 25899.74861142023, 6029.04779065225, 41176.7189117335, 47259.72381350086, 37283.55911774148, 47412.5426903418, 23443.73893067109, 26523.921075334678, -7716.470386561202, -517.4205323959031, -0.11, 0.986, 0.27, 192.0, 0.0, 0.0, 0.0, 0.0, 0.0, 0.0, 0.0, 0.0, 0.0, 1.7068830505690572E9, 0.0, 2024-02-02 15:10:50.569
194.0, 62392.79358301087, 65100.93094121587, -26658.813853122458, 435.05435407809665, 16622.277095589292, 6757.491142450708, 25890.293823515636, 6028.623107507599, 41191.24754562945, 47263.545961802716, 37290.912841667276, 47416.96833574395, 23447.73989292859, 26534.06876731739, -7712.3800173258805, -515.9229655173976, -0.11, 0.986, 0.27, 192.0, 0.0, 0.0, 0.0, 0.0, 0.0, 0.0, 0.0, 0.0, 0.0, 1.7068830505762672E9, 0.0, 2024-02-02 15:10:50.576
196.0, 62385.21634164052, 65098.62871153697, -26654.27644899803, 445.35850827199323, 16624.422863057003, 6767.124744310945, 25891.277300271668, 6034.14398838806, 41192.16396715212, 47265.3564531036, 37287.94005965472, 47416.47659736593, 23448.946887129176, 26524.613979412792, -7710.837746958465, -506.51288110171333, -0.11, 0.986, 0.27, 192.0, 0.0, 0.0, 0.0, 0.0, 0.0, 0.0, 0.0, 0.0, 0.0, 1.7068830505850391E9, 0.0, 2024-02-02 15:10:50.585
198.0, 62369.30189958834, 65086.06703115309, -26651.393073963296, 448.6665664513787, 16630.14490963756, 6771.393927501908, 25896.12762881847, 6035.52979654429, 41204.21155741353, 47260.79669723472, 37298.19951035971, 47425.08201898122, 23455.093616854385, 26538.114433063798, -7706.702674234233, -498.0862734420626, -0.11, 0.986, 0.27, 192.0, 0.0, 0.0, 0.0, 0.0, 0.0, 0.0, 0.0, 0.0, 0.0, 1.7068830505934377E9, 0.0, 2024-02-02 15:10:50.593
200.0, 62325.53718394485, 65039.68716140833, -26667.50868171557, 428.0359063191303, 16613.962246651918, 6755.233616260722, 25873.84293959653, 6018.006028891329, 41178.998789667945, 47252.63831050853, 37279.736969439626, 47407.826472261724, 23449.46097725165, 26534.404043484217, -7717.565622039512, -506.4011223794368, -0.108, 0.988, 0.276, 192.0, 126.0, 80.0, 15.0, 112.0, 4.0, 80.0, 0.0, 0.0, 0.0, 1.7068830506010633E9, 0.0, 2024-02-02 15:10:50.601
202.0, 62313.31077972779, 65017.06719601956, -26668.402751493784, 421.6209556604571, 16613.38110129608, 6754.093677293501, 25869.73021861675, 6016.262592823815, 41150.8132399098, 47229.30308929719, 37272.874983891845, 47390.347408097674, 23443.515413226538, 26521.194162511132, -7726.1710436548055, -518.9628027633194, -0.108, 0.988, 0.276, 192.0, 0.0, 0.0, 0.0, 0.0, 0.0, 0.0, 0.0, 0.0, 0.0, 1.7068830506091204E9, 0.0, 2024-02-02 15:10:50.609
204.0, 62264.069886692756, 64987.585245083006, -26669.60974569437, 425.51015919568056, 16614.968075152407, 6758.362860484464, 25872.88181458495, 6020.464720781412, 41094.062160737776, 47223.066952594156, 37266.728254166635, 47386.25703886236, 23441.369645758827, 26521.171810766675, -7722.997095942152, -513.3525149050373, -0.108, 0.988, 0.276, 192.0, 0.0, 0.0, 0.0, 0.0, 0.0, 0.0, 0.0, 0.0, 0.0, 1.7068830506172705E9, 0.0, 2024-02-02 15:10:50.617
206.0, 62252.51403480936, 64961.41135232584, -26665.877004370333, 431.0533918205967, 16620.19838335495, 6765.738936154716, 25877.888605342938, 6026.656153995533, 41055.70656725247, 47222.999897360794, 37262.48142272013, 47382.77016672733, 23440.54263121398, 26525.373938724275, -7715.129281893884, -506.4458258683474, -0.108, 0.988, 0.276, 192.0, 0.0, 0.0, 0.0, 0.0, 0.0, 0.0, 0.0, 0.0, 0.0, 1.7068830506253664E9, 0.0, 2024-02-02 15:10:50.625
208.0, 62255.48681682192, 64966.41814308383, -26667.46397822666, 431.1651505428732, 16620.556011266235, 6765.873046621447, 25887.343393247535, 6026.924374928996, 41032.237235574394, 47216.83081589113, 37268.78461465652, 47387.75460574086, 23444.342427771382, 26532.77236613898, -7697.963142152208, -491.44780533883636, -0.108, 0.988, 0.276, 192.0, 0.0, 0.0, 0.0, 0.0, 0.0, 0.0, 0.0, 0.0, 0.0, 1.7068830506320868E9, 0.0, 2024-02-02 15:10:50.632
210.0, 62209.97866511091, 64919.077148327495, -26676.359972519873, 416.1671300133622, 16616.264476330816, 6755.367726727453, 25878.3579919765, 6012.99923813334, 40992.29466823276, 47207.4430832199, 37260.26860001905, 47379.19388761448, 23439.693264924677, 26523.451688701116, -7697.471403774191, -492.4089303504146, -0.114, 0.98, 0.268, 192.0, 126.0, 56.0, 15.0, 80.0, 4.0, 48.0, 0.0, 0.0, 0.0, 1.7068830506411152E9, 0.0, 2024-02-02 15:10:50.641
212.0, 62172.91947280401, 64882.95672928772, -26685.591242979914, 406.89115606440976, 16606.116784348105, 6750.517398180652, 25860.32013420107, 5998.738825170854, 40932.19082739244, 47172.61906535853, 37240.643768387294, 47352.975291368406, 23426.81866011842, 26510.01829028348, -7696.823203184987, -494.3758838624816, -0.114, 0.98, 0.268, 192.0, 0.0, 0.0, 0.0, 0.0, 0.0, 0.0, 0.0, 0.0, 0.0, 1.7068830506494238E9, 0.0, 2024-02-02 15:10:50.649
214.0, 62212.72792967891, 64918.20543029373, -26670.95085036169, 420.8162928600661, 16618.209078098425, 6766.744764655205, 25877.55332917611, 6011.680485210477, 40923.116019143585, 47179.54810613968, 37246.90225683478, 47356.61862571462, 23421.834221104888, 26511.314691461885, -7700.354778808925, -495.7616920187107, -0.114, 0.98, 0.268, 192.0, 0.0, 0.0, 0.0, 0.0, 0.0, 0.0, 0.0, 0.0, 0.0, 1.7068830506561496E9, 0.0, 2024-02-02 15:10:50.656
216.0, 62209.46457498844, 64905.84491560995, -26669.497986972096, 424.77255162865544, 16625.272229346305, 6772.846790891504, 25897.08875383005, 6023.638668494066, 40916.8575306961, 47207.59954543108, 37267.30939952248, 47378.90331493656, 23439.73796841359, 26534.806374884414, -7680.014691354596, -473.29818884112706, -0.114, 0.98, 0.268, 192.0, 0.0, 0.0, 0.0, 0.0, 0.0, 0.0, 0.0, 0.0, 0.0, 1.7068830506641412E9, 0.0, 2024-02-02 15:10:50.664
218.0, 62197.97577833841, 64888.3658514459, -26679.33275453243, 413.10494102298514, 16617.069139131207, 6764.57664544304, 25881.710753644795, 6010.272325309793, 40873.27162900825, 47188.71232136635, 37260.06743431895, 47367.168649097526, 23431.289009009484, 26527.452650958618, -7689.402424025825, -482.395348834437, -0.114, 0.98, 0.268, 192.0, 0.0, 0.0, 0.0, 0.0, 0.0, 0.0, 0.0, 0.0, 0.0, 1.706883050673211E9, 0.0, 2024-02-02 15:10:50.673
220.0, 62183.00010955335, 64881.19094147575, -26696.47654252965, 397.99516177119756, 16600.95353137893, 6744.884758577915, 25856.073302754558, 5988.479374465868, 40832.99378549979, 47178.02818751671, 37242.43190794372, 47353.46702974642, 23420.515468182024, 26521.35062472232, -7701.673531731789, -493.54886931763525, -0.112, 0.976, 0.262, 192.0, 126.0, 64.0, 15.0, 64.0, 4.0, 24.0, 0.0, 0.0, 0.0, 1.7068830506812088E9, 0.0, 2024-02-02 15:10:50.681
222.0, 62205.463612730935, 64901.0169388076, -26687.334679047428, 403.35958044047123, 16610.408319283524, 6751.679688892328, 25863.941116802827, 5995.967208858396, 40823.24842491728, 47170.47329789082, 37236.28517821851, 47346.247416287355, 23413.362909956326, 26500.563502378882, -7716.0233516720955, -505.30588690112677, -0.112, 0.976, 0.262, 192.0, 0.0, 0.0, 0.0, 0.0, 0.0, 0.0, 0.0, 0.0, 0.0, 1.706883050688279E9, 0.0, 2024-02-02 15:10:50.688
224.0, 62211.766804667335, 64906.15784003233, -26690.799199438003, 395.6929320923009, 16608.195496582448, 6742.04608703209, 25867.24917498221, 5994.268476279793, 40843.208532715864, 47175.54714388218, 37248.064547546455, 47352.37179426811, 23424.315264739427, 26505.123258247764, -7711.642409758856, -504.7917967786547, -0.112, 0.976, 0.262, 192.0, 0.0, 0.0, 0.0, 0.0, 0.0, 0.0, 0.0, 0.0, 0.0, 1.7068830506971967E9, 0.0, 2024-02-02 15:10:50.697
226.0, 62232.799796199775, 64935.080997357494, -26676.784655664524, 411.495615422203, 16618.499650776346, 6758.184046528822, 25874.49114018573, 6010.428787520979, 40847.03068101772, 47189.49463242229, 37248.15395452428, 47353.75760242434, 23423.845878105865, 26511.158229250697, -7712.2012033702385, -509.105683458529, -0.112, 0.976, 0.262, 192.0, 0.0, 0.0, 0.0, 0.0, 0.0, 0.0, 0.0, 0.0, 0.0, 1.706883050705463E9, 0.0, 2024-02-02 15:10:50.705
228.0, 62245.71910449494, 64946.92742191881, -26682.48435050063, 406.91350780886506, 16615.61627574161, 6752.976090070736, 25870.1549017614, 6005.33258978517, 40865.895553338, 47195.97663831433, 37257.83225987342, 47364.03940487378, 23427.086881051884, 26519.07074678788, -7709.7425114801545, -509.5750700920904, -0.112, 0.976, 0.262, 192.0, 0.0, 0.0, 0.0, 0.0, 0.0, 0.0, 0.0, 0.0, 0.0, 1.7068830507132213E9, 0.0, 2024-02-02 15:10:50.713
230.0, 62263.287575636816, 64970.597919296975, -26686.686478458225, 401.9290687953316, 16611.637665228565, 6748.863369090959, 25866.44451218182, 6000.638723449555, 40874.83625112013, 47201.22929826132, 37250.21031501416, 47363.0782798622, 23423.443546705672, 26514.555694407907, -7715.531613294079, -516.9287940178864, -0.11, 0.988, 0.262, 192.0, 126.0, 72.0, 15.0, 112.0, 4.0, 24.0, 0.0, 0.0, 0.0, 1.706883050720254E9, 0.0, 2024-02-02 15:10:50.720
232.0, 62283.13592471313, 64997.82234404354, -26680.65150745529, 404.87949906343215, 16618.678464731987, 6756.2394447612105, 25873.97705006326, 6008.104206097628, 40888.157890815484, 47199.59762091609, 37248.623341157836, 47365.08993686318, 23421.655407149246, 26510.957063550602, -7720.583107540979, -521.3097359311266, -0.11, 0.988, 0.262, 192.0, 0.0, 0.0, 0.0, 0.0, 0.0, 0.0, 0.0, 0.0, 0.0, 1.7068830507292604E9, 0.0, 2024-02-02 15:10:50.729
234.0, 62295.27292195236, 65016.731919852726, -26675.152978319285, 408.70164736528966, 16622.120633378105, 6758.362860484464, 25874.334677974544, 6011.926354399486, 40911.35900156009, 47211.10876931057, 37259.6427511743, 47380.914971937535, 23432.384244487792, 26522.9599503231, -7709.80956671352, -510.2456224257496, -0.11, 0.988, 0.262, 192.0, 0.0, 0.0, 0.0, 0.0, 0.0, 0.0, 0.0, 0.0, 0.0, 1.706883050737464E9, 0.0, 2024-02-02 15:10:50.737
236.0, 62316.57413441827, 65041.005914331196, -26673.588356207416, 409.1486822543958, 16627.261534602825, 6759.9945378297025, 25885.711715902296, 6020.598831248144, 40928.77101049078, 47222.016420604756, 37257.56403893996, 47380.914971937535, 23430.68551190919, 26518.847229343326, -7714.123453393395, -514.492453872258, -0.11, 0.988, 0.262, 192.0, 0.0, 0.0, 0.0, 0.0, 0.0, 0.0, 0.0, 0.0, 0.0, 1.7068830507442603E9, 0.0, 2024-02-02 15:10:50.744
238.0, 62324.28548625535, 65052.4053040034, -26676.963469620165, 406.0864932640187, 16628.759101481333, 6759.413392473864, 25883.476541456766, 6020.867052181608, 40950.742775290346, 47222.30699328268, 37265.18598379922, 47387.061701662744, 23433.121852054817, 26520.702424133116, -7709.228421357682, -512.9501835048418, -0.11, 0.988, 0.262, 192.0, 0.0, 0.0, 0.0, 0.0, 0.0, 0.0, 0.0, 0.0, 0.0, 1.706883050753312E9, 0.0, 2024-02-02 15:10:50.753
240.0, 62342.502157986426, 65071.71721121278, -26674.95181261919, 410.04275203260806, 16630.457834059936, 6761.961491341769, 25884.214149023792, 6023.996296405351, 40968.37830166558, 47236.81327543417, 37265.83418438843, 47394.549536055274, 23430.797270631465, 26525.798621868926, -7712.737645237165, -512.1455207044507, -0.10400000000000001, 0.984, 0.262, 192.0, 126.0, 96.0, 15.0, 96.0, 4.0, 24.0, 0.0, 0.0, 0.0, 1.7068830507615464E9, 0.0, 2024-02-02 15:10:50.761
242.0, 62346.614878966204, 65078.75801071621, -26680.159769077276, 403.09135950700755, 16624.311104334727, 6760.061593063068, 25881.5095879447, 6021.604659748633, 40983.06339777272, 47236.72386845635, 37266.68355067773, 47393.87898372162, 23427.62332291881, 26524.926903835167, -7716.693904005755, -517.621698096001, -0.10400000000000001, 0.984, 0.262, 192.0, 0.0, 0.0, 0.0, 0.0, 0.0, 0.0, 0.0, 0.0, 0.0, 1.7068830507683208E9, 0.0, 2024-02-02 15:10:50.768
244.0, 62359.53418726137, 65094.00190043473, -26673.498949229594, 407.4052461868818, 16628.759101481333, 6764.531941954129, 25888.21511128129, 6027.840796451664, 41004.297555005265, 47247.92209242846, 37279.26758280606, 47409.70401879597, 23435.40172998926, 26537.756805152512, -7707.0379504010625, -510.8267677815876, -0.10400000000000001, 0.984, 0.262, 192.0, 0.0, 0.0, 0.0, 0.0, 0.0, 0.0, 0.0, 0.0, 0.0, 1.7068830507763393E9, 0.0, 2024-02-02 15:10:50.776
246.0, 62367.33494607627, 65105.04366219565, -26674.795350408003, 403.1807664848288, 16625.54045027977, 6758.899302351392, 25881.978974578262, 6022.051694637739, 41011.02543008631, 47256.03577566574, 37279.312286294975, 47413.079132208724, 23430.461994464637, 26534.381691739763, -7718.035008673073, -517.621698096001, -0.10400000000000001, 0.984, 0.262, 192.0, 0.0, 0.0, 0.0, 0.0, 0.0, 0.0, 0.0, 0.0, 0.0, 1.7068830507856147E9, 0.0, 2024-02-02 15:10:50.785
248.0, 62381.90828346113, 65123.10387171553, -26665.139396803308, 413.529624167636, 16636.58221204069, 6770.410450745875, 25891.99255609424, 6033.942822687963, 41021.84367440268, 47257.175714632955, 37288.7000189662, 47421.63985033511, 23436.25109627856, 26539.120261564287, -7709.116662635406, -516.0570759841295, -0.10400000000000001, 0.984, 0.262, 192.0, 0.0, 0.0, 0.0, 0.0, 0.0, 0.0, 0.0, 0.0, 0.0, 1.7068830507923582E9, 0.0, 2024-02-02 15:10:50.792
250.0, 62371.358260078225, 65115.34781638954, -26680.316231288463, 396.1846704703177, 16622.43355780048, 6753.467828448753, 25878.872082098973, 6020.28590682577, 41022.55893022525, 47263.07657516916, 37283.156786341286, 47419.315268911756, 23429.8808491088, 26546.20576455662, -7713.832880715476, -519.4545411413361, -0.1, 0.988, 0.268, 192.0, 126.0, 112.0, 15.0, 112.0, 4.0, 48.0, 0.0, 0.0, 0.0, 1.7068830508003628E9, 0.0, 2024-02-02 15:10:50.800
252.0, 62381.1259724052, 65125.18258394988, -26671.599050950892, 404.54422289660255, 16636.4257498295, 6765.001328587691, 25892.774867150172, 6031.640593009066, 41023.49770349237, 47253.755897731295, 37283.46971076366, 47417.52712935533, 23430.439642720183, 26528.77140388148, -7709.76486322461, -513.0172387382077, -0.1, 0.988, 0.268, 192.0, 0.0, 0.0, 0.0, 0.0, 0.0, 0.0, 0.0, 0.0, 0.0, 1.7068830508085632E9, 0.0, 2024-02-02 15:10:50.808
254.0, 62380.0754404158, 65122.366264148506, -26674.28126028553, 396.0505600035858, 16630.122557893104, 6761.2909390081095, 25886.069343813582, 6029.00308716334, 41029.01858437283, 47249.79963896271, 37284.967277642165, 47418.130626455626, 23432.898334610265, 26530.514839948995, -7705.138052122361, -508.8821660139759, -0.1, 0.988, 0.268, 192.0, 0.0, 0.0, 0.0, 0.0, 0.0, 0.0, 0.0, 0.0, 0.0, 1.706883050817406E9, 0.0, 2024-02-02 15:10:50.817
0.0, 62383.96464395102, 65130.189374707865, -26678.28222254303, 394.88826929190986, 16628.848508459152, 6760.374517485442, 25881.46488445579, 6026.767912717809, 41034.83003793121, 47254.06882215367, 37284.9002224088, 47416.9906874884, 23431.668988665224, 26532.146517294233, -7708.691979490755, -511.40791313742557, -0.1, 0.988, 0.268, 192.0, 0.0, 0.0, 0.0, 0.0, 0.0, 0.0, 0.0, 0.0, 0.0, 1.7068830508245883E9, 0.0, 2024-02-02 15:10:50.824
2.0, 62412.194897198075, 65161.4818169453, -26663.93240260272, 412.2555747336835, 16642.237203387882, 6777.719471182761, 25896.909939874404, 6042.548244303256, 41043.21194210195, 47257.01925242177, 37295.36083881388, 47424.120893969644, 23436.765186401033, 26539.20966854211, -7702.277028832082, -506.53523284616864, -0.1, 0.988, 0.268, 192.0, 0.0, 0.0, 0.0, 0.0, 0.0, 0.0, 0.0, 0.0, 0.0, 1.7068830508324475E9, 0.0, 2024-02-02 15:10:50.832
4.0, 62416.12880422221, 65172.41181998394, -26662.636001424315, 417.3964759584041, 16641.20902314294, 6780.781660173137, 25903.88368414446, 6047.890311228074, 41061.205096388476, 47277.5605055762, 37308.391905831326, 47442.29286221181, 23446.287029538995, 26557.582802484372, -7691.0117496266075, -489.2126308933057, -0.10200000000000001, 0.984, 0.272, 192.0, 126.0, 104.0, 15.0, 96.0, 4.0, 64.0, 0.0, 0.0, 0.0, 1.7068830508414235E9, 0.0, 2024-02-02 15:10:50.841
6.0, 62397.39804236866, 65157.36909596552, -26678.28222254303, 402.3090484510718, 16628.24501135886, 6767.683537922328, 25884.616480423985, 6029.450122052446, 41050.05157590527, 47267.54692406022, 37299.56296677148, 47435.0956004972, 23436.206392789652, 26546.429282001172, -7698.656046230322, -499.33797113155975, -0.10200000000000001, 0.984, 0.272, 192.0, 0.0, 0.0, 0.0, 0.0, 0.0, 0.0, 0.0, 0.0, 0.0, 1.7068830508484383E9, 0.0, 2024-02-02 15:10:50.848
8.0, 62426.58942062729, 65188.348613780574, -26673.700114929692, 406.55587989758016, 16637.72215100791, 6774.187895558822, 25896.03822184065, 6040.178959390993, 41050.297445094286, 47265.647025781516, 37297.081923136946, 47432.10046674019, 23437.6816079237, 26545.57991571187, -7704.333389321971, -507.5857648355681, -0.10200000000000001, 0.984, 0.272, 192.0, 0.0, 0.0, 0.0, 0.0, 0.0, 0.0, 0.0, 0.0, 0.0, 1.7068830508567388E9, 0.0, 2024-02-02 15:10:50.856
10.0, 62425.963571782544, 65188.639186458495, -26679.62332721035, 400.9232402948428, 16633.318857350216, 6769.449325734297, 25897.200512552325, 6038.994316934863, 41049.89511369409, 47280.64504631103, 37296.9031091813, 47436.90609179808, 23433.300666010462, 26549.938505880655, -7706.7473777231435, -513.620735838501, -0.10200000000000001, 0.984, 0.272, 192.0, 0.0, 0.0, 0.0, 0.0, 0.0, 0.0, 0.0, 0.0, 0.0, 1.7068830508646924E9, 0.0, 2024-02-02 15:10:50.864
12.0, 62445.543699925394, 65205.26888433324, -26662.07720781293, 416.3459439690047, 16649.523872080314, 6784.424994519352, 25908.912826646905, 6052.494770585868, 41054.633683518616, 47276.39821486452, 37309.86712096538, 47446.360879702675, 23445.10238708286, 26542.07069183239, -7694.252752572626, -503.65185781143407, -0.10200000000000001, 0.984, 0.272, 192.0, 0.0, 0.0, 0.0, 0.0, 0.0, 0.0, 0.0, 0.0, 0.0, 1.7068830508737404E9, 0.0, 2024-02-02 15:10:50.873
14.0, 62428.623429372725, 65189.57795972562, -26675.957641119676, 399.60448737197964, 16636.358694596136, 6769.739898412216, 25888.63979442594, 6034.948651188452, 41055.818325974746, 47281.226191666865, 37309.12951339835, 47447.23259773643, 23449.148052829274, 26547.099834334833, -7697.449052029736, -503.7412647892553, -0.11, 0.982, 0.276, 192.0, 126.0, 72.0, 15.0, 88.0, 4.0, 80.0, 0.0, 0.0, 0.0, 1.7068830508805292E9, 0.0, 2024-02-02 15:10:50.880
16.0, 62442.6379731462, 65203.30193082117, -26681.590280722416, 393.18953671330655, 16634.43644457298, 6769.9187123678585, 25886.3599164915, 6034.032229665784, 41045.00008165838, 47265.51291531479, 37300.0547051495, 47436.1461324866, 23443.135433570795, 26539.63435168676, -7709.586049268967, -512.7266660602887, -0.11, 0.982, 0.276, 192.0, 0.0, 0.0, 0.0, 0.0, 0.0, 0.0, 0.0, 0.0, 0.0, 1.7068830508885128E9, 0.0, 2024-02-02 15:10:50.888
18.0, 62439.8887085782, 65202.18434359841, -26683.89251040131, 389.34503666699374, 16634.14587189506, 6769.158753056378, 25890.159713048903, 6035.261575610826, 41040.149753111575, 47268.46334558289, 37300.09940863841, 47438.35895518768, 23442.286067281493, 26542.227154043576, -7708.267296346105, -509.2844974141714, -0.11, 0.982, 0.276, 192.0, 0.0, 0.0, 0.0, 0.0, 0.0, 0.0, 0.0, 0.0, 0.0, 1.7068830508975325E9, 0.0, 2024-02-02 15:10:50.897
20.0, 62433.63022013071, 65197.602235985076, -26687.446437769704, 389.03211224461944, 16631.5754212827, 6768.175276300344, 25882.783637378652, 6032.3111453427255, 41030.158523340055, 47273.00074970732, 37293.81856844647, 47437.64369936511, 23438.240401535084, 26539.29907551993, -7709.183717868772, -511.83259628207645, -0.11, 0.982, 0.276, 192.0, 0.0, 0.0, 0.0, 0.0, 0.0, 0.0, 0.0, 0.0, 0.0, 1.7068830509045217E9, 0.0, 2024-02-02 15:10:50.904
22.0, 62430.232754973506, 65199.88211391951, -26683.199606323196, 392.7425018242004, 16635.91165970703, 6771.371575757454, 25886.27050951368, 6038.122598901105, 41017.30627027825, 47263.121278658065, 37290.01877188907, 47433.1957022185, 23438.30745676845, 26535.11929930679, -7711.374188825392, -515.0959509725512, -0.11, 0.982, 0.276, 192.0, 0.0, 0.0, 0.0, 0.0, 0.0, 0.0, 0.0, 0.0, 0.0, 1.7068830509125402E9, 0.0, 2024-02-02 15:10:50.912
24.0, 62441.02864754542, 65209.87334369103, -26682.75257143409, 389.72501632273395, 16632.313028849727, 6767.996462344702, 25879.274413499166, 6032.445255809457, 41027.65512796106, 47278.76749977678, 37299.786484216034, 47445.444458180005, 23450.377398774315, 26550.631409958773, -7703.260505588116, -502.9813054777748, -0.116, 0.98, 0.272, 192.0, 126.0, 48.0, 15.0, 80.0, 4.0, 64.0, 0.0, 0.0, 0.0, 1.7068830509205668E9, 0.0, 2024-02-02 15:10:50.920
26.0, 62450.48343545001, 65221.71976825235, -26676.672896942247, 395.625876858935, 16638.750331252853, 6774.187895558822, 25888.84096012604, 6040.983622191385, 41020.18964531299, 47278.96866547688, 37298.735952226634, 47444.86331282417, 23441.25788703655, 26542.137747065754, -7710.658933002822, -510.62560208148983, -0.116, 0.98, 0.272, 192.0, 0.0, 0.0, 0.0, 0.0, 0.0, 0.0, 0.0, 0.0, 0.0, 1.7068830509299476E9, 0.0, 2024-02-02 15:10:50.929
28.0, 62433.56316489734, 65208.46518379035, -26679.891548143813, 394.91062103636517, 16637.29746786326, 6773.986729858724, 25886.73989614724, 6045.163398404527, 41027.31985179423, 47280.7121015444, 37311.43174307725, 47453.714603628476, 23453.30547729796, 26547.63627620176, -7695.482098517668, -491.1795844053727, -0.116, 0.98, 0.272, 192.0, 0.0, 0.0, 0.0, 0.0, 0.0, 0.0, 0.0, 0.0, 0.0, 1.7068830509366224E9, 0.0, 2024-02-02 15:10:50.936
30.0, 62390.26783588742, 65171.450694972365, -26689.52515000405, 388.272152933139, 16631.73188349389, 6769.33756701202, 25882.716582145284, 6041.207139635938, 41004.856348616646, 47276.1076421866, 37286.62130673186, 47437.30842319828, 23438.955657357652, 26541.467194732097, -7711.575354525489, -505.59645957904576, -0.116, 0.98, 0.272, 192.0, 0.0, 0.0, 0.0, 0.0, 0.0, 0.0, 0.0, 0.0, 0.0, 1.7068830509446437E9, 0.0, 2024-02-02 15:10:50.944
32.0, 62416.799356555865, 65188.929759136416, -26689.256929070587, 386.7522343101781, 16628.6249910146, 6765.604825687984, 25873.08298028505, 6033.853415710141, 40998.30728749124, 47261.869580968574, 37293.773864957555, 47442.06934476726, 23442.666046937233, 26538.717930164094, -7706.836784700965, -504.4788723562804, -0.116, 0.98, 0.272, 192.0, 0.0, 0.0, 0.0, 0.0, 0.0, 0.0, 0.0, 0.0, 0.0, 1.7068830509526608E9, 0.0, 2024-02-02 15:10:50.952
34.0, 62413.9830367545, 65170.57897693861, -26677.410504509273, 393.368350668949, 16642.39366559907, 6774.4337647478305, 25895.255910784712, 6048.270290883815, 40987.578450152694, 47274.74418577483, 37299.98764991613, 47448.12666751465, 23444.901221382766, 26541.556601709915, -7704.892182933353, -504.7917967786547, -0.114, 0.985, 0.274, 192.0, 126.0, 64.0, 15.0, 120.0, 4.0, 80.0, 0.0, 0.0, 0.0, 1.7068830509607294E9, 0.0, 2024-02-02 15:10:50.960
36.0, 62361.501140773435, 65117.56063909062, -26681.322059788952, 387.0204552436418, 16641.320781865215, 6775.394889759409, 25894.630061939963, 6048.4491048394575, 40955.25782767032, 47261.62371177956, 37301.84284470593, 47440.63883312212, 23450.287991796493, 26541.31073252091, -7691.034101371062, -495.51582282970224, -0.114, 0.985, 0.274, 192.0, 0.0, 0.0, 0.0, 0.0, 0.0, 0.0, 0.0, 0.0, 0.0, 1.7068830509686344E9, 0.0, 2024-02-02 15:10:50.968
38.0, 62298.82684932076, 65076.45578103731, -26687.401734280797, 385.34407440949377, 16640.33730510918, 6774.031433347635, 25891.657279927407, 6044.4034390930465, 40890.88480363903, 47239.78605744673, 37286.04016137602, 47420.23169043442, 23445.59412546088, 26536.795680140935, -7692.241095571649, -495.3146571296045, -0.114, 0.985, 0.274, 192.0, 0.0, 0.0, 0.0, 0.0, 0.0, 0.0, 0.0, 0.0, 0.0, 1.70688305097664E9, 0.0, 2024-02-02 15:10:50.976
40.0, 62285.57226485876, 65041.02826607565, -26705.61840601187, 368.5579143235582, 16627.038017158273, 6762.609691930973, 25878.469750698776, 6027.773741218298, 40852.439803175905, 47239.0484498797, 37273.12085308085, 47412.20741417497, 23442.30841902595, 26537.130956307767, -7692.9563513942185, -492.92302047288666, -0.114, 0.985, 0.274, 192.0, 0.0, 0.0, 0.0, 0.0, 0.0, 0.0, 0.0, 0.0, 0.0, 1.7068830509850788E9, 0.0, 2024-02-02 15:10:50.985
42.0, 62282.152447957094, 65013.379158184434, -26697.214150096675, 376.0904522049966, 16634.77172073981, 6769.896360623403, 25880.146131532925, 6031.797055220253, 40810.26206138874, 47206.213737274855, 37267.845841389404, 47396.80706224526, 23433.099500310364, 26526.04449105793, -7699.125432863883, -503.2495264112385, -0.114, 0.985, 0.274, 192.0, 0.0, 0.0, 0.0, 0.0, 0.0, 0.0, 0.0, 0.0, 0.0, 1.7068830509926553E9, 0.0, 2024-02-02 15:10:50.992
44.0, 62265.92508148254, 64994.76015505316, -26698.95758616419, 375.57636208252455, 16630.748406737854, 6765.649529176895, 25877.039239053636, 6029.539529030268, 40755.29912177314, 47218.306031025175, 37277.05476010499, 47404.11608268214, 23441.526107970014, 26525.753918380015, -7686.720214691189, -487.33508435905986, -0.111, 0.9855, 0.273, 192.0, 126.0, 80.0, 15.0, 104.0, 4.0, 64.0, 0.0, 0.0, 0.0, 1.7068830510006664E9, 0.0, 2024-02-02 15:10:51.000
46.0, 62244.489758549906, 64960.49493080318, -26703.04795539951, 373.94468473728716, 16627.61916251411, 6766.00715708818, 25872.83711109604, 6020.5094242703235, 40684.48879533873, 47211.15347279948, 37273.433777503225, 47397.634076790106, 23441.034369592, 26525.753918380015, -7684.574447223479, -486.8433459810431, -0.111, 0.9855, 0.273, 192.0, 0.0, 0.0, 0.0, 0.0, 0.0, 0.0, 0.0, 0.0, 0.0, 1.7068830510088975E9, 0.0, 2024-02-02 15:10:51.008
48.0, 62244.825034716734, 64941.38418929389, -26701.66214724328, 377.09628070548547, 16626.412168313524, 6765.269549521155, 25871.048971539614, 6017.4025317910355, 40639.04769886109, 47205.67729540793, 37270.25982979057, 47396.62824828962, 23439.939134113687, 26525.932732335656, -7688.776575181077, -486.8433459810431, -0.111, 0.9855, 0.273, 192.0, 0.0, 0.0, 0.0, 0.0, 0.0, 0.0, 0.0, 0.0, 0.0, 1.7068830510157137E9, 0.0, 2024-02-02 15:10:51.015
50.0, 62234.23030784492, 64917.13254655988, -26707.51830429057, 371.41893761383744, 16618.164374609518, 6755.7700581276495, 25852.385264919434, 6000.348150771636, 40608.71638163524, 47202.168071528446, 37265.70007392169, 47392.7837482433, 23438.620381190824, 26520.30009273292, -7688.128374591873, -485.4575378248141, -0.111, 0.9855, 0.273, 192.0, 0.0, 0.0, 0.0, 0.0, 0.0, 0.0, 0.0, 0.0, 0.0, 1.7068830510249949E9, 0.0, 2024-02-02 15:10:51.024
52.0, 62245.83086321722, 64923.323979774, -26699.09169663092, 379.9349522513094, 16629.29554334826, 6763.10143030899, 25872.010096551192, 6010.249973565337, 40599.32864896401, 47194.16614701345, 37268.22582104514, 47391.30853310925, 23440.296762024973, 26519.987168310545, -7686.51904899109, -485.68105526936716, -0.111, 0.9855, 0.273, 192.0, 0.0, 0.0, 0.0, 0.0, 0.0, 0.0, 0.0, 0.0, 0.0, 1.7068830510329912E9, 0.0, 2024-02-02 15:10:51.032
54.0, 62259.80070350179, 64947.307401574544, -26700.656318742793, 379.1079377064631, 16629.362598581625, 6761.559159941574, 25876.16752101988, 6014.563860245212, 40601.608526898446, 47211.175824543934, 37273.7467019256, 47404.25019314888, 23445.325904527417, 26524.569275923885, -7677.399537253325, -479.7801947331661, -0.10750000000000001, 0.98475, 0.2705, 192.0, 126.0, 96.0, 15.0, 96.0, 4.0, 48.0, 0.0, 0.0, 0.0, 1.7068830510408664E9, 0.0, 2024-02-02 15:10:51.040
56.0, 62278.88909326662, 64967.602785539966, -26702.645623999313, 375.8222312715329, 16627.95443868094, 6757.915825595359, 25872.54653841812, 6010.540546243256, 40601.02738154261, 47215.445007734896, 37271.42212050225, 47403.06555069274, 23440.38616900279, 26519.54013342144, -7688.150726336328, -488.05034018162974, -0.10750000000000001, 0.98475, 0.2705, 192.0, 0.0, 0.0, 0.0, 0.0, 0.0, 0.0, 0.0, 0.0, 0.0, 1.706883051047785E9, 0.0, 2024-02-02 15:10:51.047
58.0, 62284.72289856946, 64983.27135840314, -26697.594129752415, 377.1633359388514, 16630.882517204587, 6758.452267462286, 25873.93234657435, 6012.775720688787, 40601.58617515399, 47219.28950778121, 37271.46682399116, 47404.04902744878, 23443.94009637119, 26519.897761332722, -7691.347025793437, -494.19706990683915, -0.10750000000000001, 0.98475, 0.2705, 192.0, 0.0, 0.0, 0.0, 0.0, 0.0, 0.0, 0.0, 0.0, 0.0, 1.706883051057067E9, 0.0, 2024-02-02 15:10:51.057
60.0, 62285.50520962539, 64992.34616665199, -26706.981862423643, 360.57834155301356, 16623.66290374552, 6746.404677200875, 25856.922669043863, 5998.984694359862, 40595.61825938443, 47229.92893814194, 37269.11989082336, 47404.071379193236, 23443.560116715445, 26523.049357300923, -7695.012711884107, -498.62271530898994, -0.10750000000000001, 0.98475, 0.2705, 192.0, 0.0, 0.0, 0.0, 0.0, 0.0, 0.0, 0.0, 0.0, 0.0, 1.7068830510647888E9, 0.0, 2024-02-02 15:10:51.064
62.0, 62323.43611996605, 65039.3518852415, -26692.9002634168, 372.3800626254157, 16638.504462063847, 6760.419220974353, 25874.669954141376, 6015.077950367684, 40601.250898987164, 47218.037810091715, 37270.39394025731, 47400.71861752494, 23445.72823592761, 26514.868618830278, -7700.198316597738, -508.05515146912956, -0.10750000000000001, 0.98475, 0.2705, 192.0, 0.0, 0.0, 0.0, 0.0, 0.0, 0.0, 0.0, 0.0, 0.0, 1.7068830510718043E9, 0.0, 2024-02-02 15:10:51.071
64.0, 62327.92882060156, 65053.858167392995, -26702.62327225486, 364.4228415993264, 16630.256668359838, 6749.28805223561, 25873.574718663065, 6008.975924131385, 40629.68231793431, 47232.365278287565, 37279.28993455052, 47417.81770203325, 23453.21607032014, 26521.216514255586, -7695.504450262124, -499.1144536870067, -0.10675000000000001, 0.986375, 0.27025, 192.0, 126.0, 88.0, 15.0, 112.0, 4.0, 56.0, 0.0, 0.0, 0.0, 1.7068830510807824E9, 0.0, 2024-02-02 15:10:51.080
66.0, 62346.43606501056, 65082.58015901806, -26698.91288267528, 369.49668759068106, 16633.877650961596, 6759.5251511961405, 25874.64760239692, 6018.251898080337, 40639.80765817257, 47231.98529863183, 37275.400731015296, 47416.11896945465, 23447.53872722849, 26520.411851455196, -7705.652142244833, -512.1231689599954, -0.10675000000000001, 0.986375, 0.27025, 192.0, 0.0, 0.0, 0.0, 0.0, 0.0, 0.0, 0.0, 0.0, 0.0, 1.7068830510890555E9, 0.0, 2024-02-02 15:10:51.089
68.0, 62357.20960583802, 65102.026176694184, -26694.017850639564, 374.54818183758044, 16638.884441719587, 6764.509590209675, 25890.003250837715, 6032.981697676385, 40653.01753914566, 47245.77632496075, 37284.36378054188, 47426.49017888191, 23454.17719533172, 26528.68199690366, -7700.33242706447, -507.4069508799256, -0.10675000000000001, 0.986375, 0.27025, 192.0, 0.0, 0.0, 0.0, 0.0, 0.0, 0.0, 0.0, 0.0, 0.0, 1.7068830510958211E9, 0.0, 2024-02-02 15:10:51.095
70.0, 62353.38745753616, 65104.618979050996, -26705.752516478602, 360.1983618972733, 16633.76589223932, 6754.496008693696, 25881.330773989055, 6027.773741218298, 40662.38292007243, 47256.19223787692, 37285.07903636444, 47427.87598703814, 23456.300611054972, 26525.597456168827, -7700.444185786747, -502.2884013996603, -0.10675000000000001, 0.986375, 0.27025, 192.0, 0.0, 0.0, 0.0, 0.0, 0.0, 0.0, 0.0, 0.0, 0.0, 1.7068830511038218E9, 0.0, 2024-02-02 15:10:51.103
72.0, 62361.72465821799, 65116.152479189936, -26705.774868223056, 357.5608560515471, 16636.984543440885, 6755.524188938641, 25886.85165486952, 6029.092494141161, 40658.314902581566, 47233.59462423261, 37273.70199843669, 47410.59808857419, 23447.248154550573, 26512.745203107024, -7712.2012033702385, -517.2864219291713, -0.10675000000000001, 0.986375, 0.27025, 192.0, 0.0, 0.0, 0.0, 0.0, 0.0, 0.0, 0.0, 0.0, 0.0, 1.7068830511130505E9, 0.0, 2024-02-02 15:10:51.113
74.0, 62375.40392582464, 65135.03970325467, -26709.462906058183, 359.5725130525247, 16633.318857350216, 6757.155866283878, 25883.07421005657, 6030.679467997488, 40681.27014413716, 47254.42645006495, 37281.70392295169, 47424.21030094747, 23453.59604997588, 26523.675206145672, -7708.133185879373, -513.1289974604842, -0.10337500000000001, 0.9871875, 0.272125, 192.0, 126.0, 112.0, 15.0, 112.0, 4.0, 72.0, 0.0, 0.0, 0.0, 1.7068830511208353E9, 0.0, 2024-02-02 15:10:51.120
76.0, 62375.001594424444, 65142.080502758094, -26717.643644528824, 355.59390253948004, 16626.34511308016, 6752.3055377370765, 25874.535843674643, 6024.28686908327, 40690.99315297522, 47257.667453010974, 37279.580507228435, 47427.42895214903, 23448.58925921789, 26525.128069535265, -7715.308095849526, -522.2038057093389, -0.10337500000000001, 0.9871875, 0.272125, 192.0, 0.0, 0.0, 0.0, 0.0, 0.0, 0.0, 0.0, 0.0, 0.0, 1.7068830511278863E9, 0.0, 2024-02-02 15:10:51.127
78.0, 62376.96854793651, 65146.416741182424, -26714.648510771814, 359.01371944114203, 16627.216831113914, 6758.4075639733755, 25873.820587852075, 6029.450122052446, 40691.68605705334, 47254.09117389812, 37278.23940256112, 47425.08201898122, 23447.20345106166, 26526.558581180405, -7721.030142430084, -526.8082650671322, -0.10337500000000001, 0.9871875, 0.272125, 192.0, 0.0, 0.0, 0.0, 0.0, 0.0, 0.0, 0.0, 0.0, 0.0, 1.706883051135956E9, 0.0, 2024-02-02 15:10:51.135
80.0, 62376.58856828077, 65146.28263071569, -26725.265589388084, 347.3014053465611, 16614.565743752213, 6750.472694691742, 25860.722465601262, 6019.660057981022, 40695.083522210545, 47260.28260711225, 37272.539707725016, 47420.41050439006, 23445.839994649887, 26525.508049191005, -7728.897956478353, -529.7139918463221, -0.10337500000000001, 0.9871875, 0.272125, 192.0, 0.0, 0.0, 0.0, 0.0, 0.0, 0.0, 0.0, 0.0, 0.0, 1.7068830511451714E9, 0.0, 2024-02-02 15:10:51.145
82.0, 62395.4757923455, 65166.44390421438, -26717.86716197338, 351.0341466705974, 16628.490880547866, 6754.38424997142, 25874.468788441278, 6024.778607461287, 40704.13597871494, 47254.69467099842, 37279.938135139724, 47425.3949434036, 23448.142224328785, 26525.64215965774, -7727.266279133115, -532.5079599032355, -0.10337500000000001, 0.9871875, 0.272125, 192.0, 0.0, 0.0, 0.0, 0.0, 0.0, 0.0, 0.0, 0.0, 0.0, 1.70688305115289E9, 0.0, 2024-02-02 15:10:51.152
84.0, 62394.380556867196, 65169.908424604946, -26722.51632482008, 341.1993791102623, 16625.853374702143, 6749.913901080358, 25867.048009282116, 6021.671714981999, 40712.96491777479, 47263.121278658065, 37280.56398398447, 47427.65246959359, 23453.283125553506, 26526.87150560278, -7725.1205116654055, -535.0337070266852, -0.10368750000000002, 0.9865937499999999, 0.2720625, 192.0, 126.0, 96.0, 15.0, 104.0, 4.0, 64.0, 0.0, 0.0, 0.0, 1.706883051159894E9, 0.0, 2024-02-02 15:10:51.159
86.0, 62387.85384748624, 65166.28744200319, -26732.552258080515, 329.7776376936004, 16620.980694410886, 6739.945023053292, 25868.992611049725, 6017.00020039084, 40709.276879939665, 47256.37105183257, 37274.28314379253, 47421.751609057384, 23447.426968506214, 26523.027005556465, -7734.418837358813, -546.4107449544365, -0.10368750000000002, 0.9865937499999999, 0.2720625, 192.0, 0.0, 0.0, 0.0, 0.0, 0.0, 0.0, 0.0, 0.0, 0.0, 1.7068830511690476E9, 0.0, 2024-02-02 15:10:51.169
88.0, 62397.509801090935, 65183.677099189415, -26729.244199901128, 336.52786451910316, 16626.792147969263, 6746.3152702230545, 25876.234576253246, 6024.219813849904, 40706.81818804958, 47249.17379011796, 37270.66216119077, 47419.38232414512, 23446.532898728, 26507.29137745993, -7732.362476868925, -547.103649032551, -0.10368750000000002, 0.9865937499999999, 0.2720625, 192.0, 0.0, 0.0, 0.0, 0.0, 0.0, 0.0, 0.0, 0.0, 0.0, 1.70688305117696E9, 0.0, 2024-02-02 15:10:51.176
90.0, 62400.97432148151, 65189.24268355879, -26733.28986564754, 335.790256952078, 16624.95930492393, 6750.00330805818, 25875.809893108595, 6027.483168540379, 40718.999888777726, 47267.83749673814, 37277.25592580508, 47433.10629524068, 23450.846785407877, 26518.42254619867, -7728.897956478353, -534.6313756264897, -0.10368750000000002, 0.9865937499999999, 0.2720625, 192.0, 0.0, 0.0, 0.0, 0.0, 0.0, 0.0, 0.0, 0.0, 0.0, 1.706883051183941E9, 0.0, 2024-02-02 15:10:51.183
92.0, 62410.4291093861, 65194.89767490598, -26728.19366791173, 339.14301862037405, 16624.869897946108, 6755.680651149828, 25874.535843674643, 6030.590061019667, 40721.74915334573, 47260.72964200135, 37279.26758280606, 47429.73118182793, 23450.243288307585, 26519.00369155451, -7727.713314022221, -533.8714163150092, -0.10368750000000002, 0.9865937499999999, 0.2720625, 192.0, 0.0, 0.0, 0.0, 0.0, 0.0, 0.0, 0.0, 0.0, 0.0, 1.706883051191942E9, 0.0, 2024-02-02 15:10:51.191
94.0, 62404.215324427525, 65190.583788226104, -26729.981807468153, 333.8456551844663, 16621.673598489, 6748.505741179674, 25873.418256451878, 6024.823310950197, 40729.415801693896, 47272.576066562666, 37283.62617297485, 47433.03924000731, 23454.534823243004, 26524.59162766834, -7726.931002966286, -532.2173872253164, -0.10284375000000001, 0.988296875, 0.27003125, 192.0, 126.0, 104.0, 15.0, 120.0, 4.0, 48.0, 0.0, 0.0, 0.0, 1.7068830512010317E9, 0.0, 2024-02-02 15:10:51.201
96.0, 62414.05009198786, 65197.95986389636, -26730.361787123897, 332.75041970615626, 16622.500613033844, 6750.338584225009, 25865.63984938143, 6022.923412671496, 40725.45954292531, 47261.10962165709, 37276.83124266043, 47423.852673036185, 23447.02463710602, 26511.515857161983, -7737.413971115825, -543.5720734086125, -0.10284375000000001, 0.988296875, 0.27003125, 192.0, 0.0, 0.0, 0.0, 0.0, 0.0, 0.0, 0.0, 0.0, 0.0, 1.7068830512079973E9, 0.0, 2024-02-02 15:10:51.207
98.0, 62422.38729266969, 65207.25818958977, -26729.78064176806, 338.76303896463384, 16627.730921236387, 6753.356069726476, 25879.22971001026, 6032.66877325401, 40738.267092498194, 47270.76557526179, 37290.46580677817, 47439.163617988066, 23460.100407612375, 26534.73931965105, -7726.595726799456, -534.0278785261963, -0.10284375000000001, 0.988296875, 0.27003125, 192.0, 0.0, 0.0, 0.0, 0.0, 0.0, 0.0, 0.0, 0.0, 0.0, 1.706883051215978E9, 0.0, 2024-02-02 15:10:51.215
100.0, 62392.43595509958, 65182.067773588635, -26742.074101218477, 331.3646115499272, 16618.18672635397, 6746.76230511216, 25867.472692426767, 6023.6833719829765, 40728.76760110469, 47266.02700543726, 37280.16165258428, 47429.75353357238, 23453.59604997588, 26513.169886251675, -7737.6821920492885, -540.9792710517968, -0.10284375000000001, 0.988296875, 0.27003125, 192.0, 0.0, 0.0, 0.0, 0.0, 0.0, 0.0, 0.0, 0.0, 0.0, 1.7068830512250195E9, 0.0, 2024-02-02 15:10:51.225
102.0, 62398.15800168014, 65187.20867481336, -26739.928333750766, 337.7348587196897, 16618.454947287435, 6753.825456360038, 25864.03052378065, 6025.359752817125, 40706.415856649386, 47244.524627271254, 37259.41923372975, 47413.16853918655, 23439.20152654666, 26505.43618267014, -7750.91442476683, -553.0939165465733, -0.10284375000000001, 0.988296875, 0.27003125, 192.0, 0.0, 0.0, 0.0, 0.0, 0.0, 0.0, 0.0, 0.0, 0.0, 1.7068830512321672E9, 0.0, 2024-02-02 15:10:51.232
104.0, 62404.5282488499, 65182.626567200015, -26724.885609732344, 347.77079198012257, 16631.173089882504, 6769.29286352311, 25876.614555908985, 6040.246014624359, 40727.73942085975, 47277.60520906511, 37292.43276029024, 47444.17040874605, 23463.989611147597, 26537.846212130335, -7726.90865122183, -526.4282854113919, -0.10342187500000001, 0.9851484374999999, 0.265015625, 192.0, 126.0, 96.0, 15.0, 88.0, 4.0, 16.0, 0.0, 0.0, 0.0, 1.7068830512411864E9, 0.0, 2024-02-02 15:10:51.241
106.0, 62330.49927121393, 65116.80067977914, -26726.874914988868, 342.1828558662958, 16626.881554947086, 6766.76711639966, 25867.338581960033, 6035.730962244387, 40707.08640898304, 47267.54692406022, 37283.73793169713, 47430.491141139406, 23463.63198323631, 26532.63825567225, -7723.980572698185, -524.3495731770483, -0.10342187500000001, 0.9851484374999999, 0.265015625, 192.0, 0.0, 0.0, 0.0, 0.0, 0.0, 0.0, 0.0, 0.0, 0.0, 1.7068830512480783E9, 0.0, 2024-02-02 15:10:51.248
108.0, 62301.307892955294, 65101.69090052735, -26732.708720291703, 335.8796639298992, 16623.66290374552, 6761.916787852859, 25866.600974393008, 6032.467607553913, 40677.80562374659, 47238.33319405714, 37276.67478044925, 47420.00817298987, 23463.49787276958, 26524.301054990417, -7718.169119139805, -518.7839888076769, -0.10342187500000001, 0.9851484374999999, 0.265015625, 192.0, 0.0, 0.0, 0.0, 0.0, 0.0, 0.0, 0.0, 0.0, 0.0, 1.70688305125605E9, 0.0, 2024-02-02 15:10:51.256
110.0, 62304.95122730151, 65070.778437945664, -26732.529906336058, 338.47246628671485, 16627.686217747476, 6764.442534976308, 25872.54653841812, 6034.747485488354, 40632.56569296905, 47244.479923782346, 37261.00620758608, 47407.58060307272, 23451.986724375096, 26516.43324094215, -7726.774540755098, -523.8354830545763, -0.10342187500000001, 0.9851484374999999, 0.265015625, 192.0, 0.0, 0.0, 0.0, 0.0, 0.0, 0.0, 0.0, 0.0, 0.0, 1.706883051264073E9, 0.0, 2024-02-02 15:10:51.264
112.0, 62270.46248560697, 65033.67454214985, -26733.535734836547, 342.54048377758073, 16631.396607327057, 6765.135439054423, 25875.74283787523, 6034.613375021622, 40594.12069250592, 47234.86867366656, 37276.4959664936, 47413.995553731394, 23463.341410558394, 26532.750014394525, -7702.411139298813, -503.60715432252346, -0.10342187500000001, 0.9851484374999999, 0.265015625, 192.0, 0.0, 0.0, 0.0, 0.0, 0.0, 0.0, 0.0, 0.0, 0.0, 1.7068830512733965E9, 0.0, 2024-02-02 15:10:51.273
114.0, 62230.31875256524, 64986.57941658252, -26734.161583681296, 340.0370883985863, 16624.735787479378, 6758.34050874001, 25861.68359061284, 6019.525947514289, 40519.21999683619, 47218.931879869924, 37262.9955128426, 47397.25409713437, 23455.518299999036, 26514.041604285434, -7707.0379504010625, -506.7587502907217, -0.10371093750000002, 0.98857421875, 0.2605078125, 192.0, 126.0, 96.0, 15.5, 0.0, 4.0, 0.0, 0.0, 0.0, 0.0, 1.7068830512801154E9, 0.0, 2024-02-02 15:10:51.280
116.0, 62238.052456146776, 64965.971108194724, -26733.513383092093, 334.7620767071339, 16625.76396772432, 6757.468790706253, 25864.343448203024, 6011.211098576916, 40450.71190008067, 47223.78220841673, 37258.77103314055, 47394.840108733195, 23457.708770955654, 26516.455592686605, -7700.466537531202, -507.20578517982784, -0.10371093750000002, 0.98857421875, 0.2605078125, 192.0, 0.0, 0.0, 0.0, 0.0, 0.0, 0.0, 0.0, 0.0, 0.0, 1.7068830512880995E9, 0.0, 2024-02-02 15:10:51.288
118.0, 62246.09908415069, 64919.926514616796, -26728.48424058965, 336.52786451910316, 16623.05940664523, 6758.38521222892, 25856.11800624347, 6004.125595584584, 40377.353474778356, 47213.58981294511, 37270.23747804612, 47403.62434430413, 23466.202433848674, 26523.742261379037, -7681.735775677655, -494.040607695652, -0.10371093750000002, 0.98857421875, 0.2605078125, 192.0, 0.0, 0.0, 0.0, 0.0, 0.0, 0.0, 0.0, 0.0, 0.0, 1.7068830512971308E9, 0.0, 2024-02-02 15:10:51.297
120.0, 62213.48788899039, 64843.81882474647, -26727.14313592233, 342.58518726649135, 16621.360674066626, 6756.082982550023, 25860.476596412256, 5997.576534459178, 40246.953397626094, 47210.37116174355, 37262.9955128426, 47399.84689949118, 23463.140244858296, 26512.76755485148, -7684.730909434666, -489.9278867158755, -0.10371093750000002, 0.98857421875, 0.2605078125, 192.0, 0.0, 0.0, 0.0, 0.0, 0.0, 0.0, 0.0, 0.0, 0.0, 1.7068830513035312E9, 0.0, 2024-02-02 15:10:51.303
122.0, 62196.27704575981, 64772.047373300484, -26717.755403251103, 350.2518356146617, 16630.413130571025, 6762.900264608892, 25869.059666283094, 5997.643589692544, 40146.68347199958, 47201.76574012825, 37263.42019598725, 47398.125815168125, 23469.465788539146, 26515.069784530377, -7676.259598286105, -477.00857842070803, -0.10371093750000002, 0.98857421875, 0.2605078125, 192.0, 0.0, 0.0, 0.0, 0.0, 0.0, 0.0, 0.0, 0.0, 0.0, 1.7068830513121226E9, 0.0, 2024-02-02 15:10:51.312
124.0, 62216.50537449186, 64738.78797755099, -26730.42884235726, 339.2771290871059, 16611.81647918421, 6749.9586045692695, 25847.55728811709, 5978.286978994248, 40104.23750927896, 47205.87846110803, 37264.67189367675, 47404.71957978244, 23464.302535569972, 26517.506124676005, -7676.572522708479, -473.365244074493, -0.10385546875000001, 0.987287109375, 0.25725390625, 192.0, 126.0, 96.0, 15.0, 104.0, 3.5, 120.0, 0.0, 0.0, 0.0, 1.7068830513201427E9, 0.0, 2024-02-02 15:10:51.320
126.0, 62201.5297057068, 64691.022299649994, -26722.94100796473, 340.64058549887966, 16623.260572345327, 6758.787543629115, 25869.082018027548, 5989.485202966357, 40054.12489821016, 47194.43436794691, 37253.83129761592, 47395.01892268883, 23448.097520839874, 26507.76076409349, -7687.7260431916775, -488.0056366927191, -0.10385546875000001, 0.987287109375, 0.25725390625, 192.0, 0.0, 0.0, 0.0, 0.0, 0.0, 0.0, 0.0, 0.0, 0.0, 1.7068830513284504E9, 0.0, 2024-02-02 15:10:51.328
128.0, 62166.54922563425, 64648.08459855135, -26721.689310275236, 336.01377439663105, 16617.4714705314, 6755.703002894284, 25854.93336378734, 5978.823420861176, 40011.366011067155, 47192.4897661793, 37260.73798665262, 47399.243402390886, 23458.35697154486, 26520.165982266186, -7675.030252341063, -479.1990493773281, -0.10385546875000001, 0.987287109375, 0.25725390625, 192.0, 0.0, 0.0, 0.0, 0.0, 0.0, 0.0, 0.0, 0.0, 0.0, 1.706883051336192E9, 0.0, 2024-02-02 15:10:51.336
130.0, 62193.77365038081, 64668.737610428056, -26714.559103793992, 342.24991109966174, 16623.931124678984, 6762.967319842258, 25857.25794521069, 5980.768022628788, 39985.639153199096, 47197.3400947261, 37258.346349995896, 47403.69139953749, 23453.17136683123, 26511.314691461885, -7679.455897743213, -476.6285987649678, -0.10385546875000001, 0.987287109375, 0.25725390625, 192.0, 0.0, 0.0, 0.0, 0.0, 0.0, 0.0, 0.0, 0.0, 0.0, 1.7068830513441584E9, 0.0, 2024-02-02 15:10:51.344
132.0, 62209.55398196626, 64653.42666547617, -26706.266606601075, 345.69207974577904, 16628.222659614403, 6766.856523377482, 25860.49894815671, 5984.813688375198, 39978.4865949734, 47199.59762091609, 37271.89150713581, 47409.21228041795, 23459.049875622975, 26519.808354354904, -7672.124525561872, -474.59459001953485, -0.10385546875000001, 0.987287109375, 0.25725390625, 192.0, 0.0, 0.0, 0.0, 0.0, 0.0, 0.0, 0.0, 0.0, 0.0, 1.7068830513521955E9, 0.0, 2024-02-02 15:10:51.352
134.0, 62192.70076664696, 64608.23143818753, -26711.452211314707, 332.1469226058629, 16617.918505420508, 6752.260834248166, 25849.367779417968, 5965.904112566008, 39913.912405242016, 47193.67440863543, 37279.2005275727, 47414.263774664854, 23457.55230874447, 26514.82391534137, -7671.096345316929, -472.4488225518254, -0.10385546875000001, 0.987287109375, 0.25725390625, 192.0, 0.0, 0.0, 0.0, 0.0, 0.0, 0.0, 0.0, 0.0, 0.0, 1.706883051359368E9, 0.0, 2024-02-02 15:10:51.359
136.0, 62103.897285926025, 64508.43089919459, -26718.67182477377, 319.0711520995083, 16610.989464639362, 6745.0859242780125, 25838.48247986823, 5949.117952480073, 39808.16630222396, 47179.99514102878, 37252.91487609326, 47394.2366116329, 23439.805023646953, 26502.597511124317, -7686.563752480001, -488.38561634845934, -0.10400000000000001, 0.982, 0.26, 192.0, 126.0, 96.0, 15.0, 88.0, 4.0, 16.0, 0.0, 0.0, 0.0, 1.7068830513682032E9, 0.0, 2024-02-02 15:10:51.368
138.0, 62169.678469857994, 64550.20630958156, -26685.591242979914, 345.9379489347874, 16635.82225272921, 6771.706851924283, 25859.64958186741, 5970.776792857265, 39771.44238608389, 47159.319777407625, 37247.41634695725, 47395.62241978913, 23448.097520839874, 26506.933749548647, -7675.56669420799, -476.8297644650656, -0.10400000000000001, 0.982, 0.26, 192.0, 0.0, 0.0, 0.0, 0.0, 0.0, 0.0, 0.0, 0.0, 0.0, 1.7068830513762424E9, 0.0, 2024-02-02 15:10:51.376
140.0, 62178.418001940016, 64498.506724656436, -26692.252062827596, 335.32087031851654, 16627.753272980844, 6765.135439054423, 25851.424139907856, 5964.026566031763, 39745.782583449196, 47199.86584184955, 37271.131547824334, 47424.679687581025, 23460.033352379007, 26521.685900889148, -7664.591987680435, -464.5810085035573, -0.10400000000000001, 0.982, 0.26, 192.0, 0.0, 0.0, 0.0, 0.0, 0.0, 0.0, 0.0, 0.0, 0.0, 1.706883051384392E9, 0.0, 2024-02-02 15:10:51.384
142.0, 62139.257745654315, 64399.62260718615, -26688.698135459203, 329.59882373795796, 16633.989409683873, 6768.018814089158, 25852.765244575174, 5964.026566031763, 39578.21155526776, 47165.28769317719, 37258.72632965164, 47410.15105368508, 23450.377398774315, 26505.77145883697, -7667.1847900372495, -471.46534579579185, -0.10400000000000001, 0.982, 0.26, 192.0, 0.0, 0.0, 0.0, 0.0, 0.0, 0.0, 0.0, 0.0, 0.0, 1.7068830513922276E9, 0.0, 2024-02-02 15:10:51.392
144.0, 62114.380254075564, 64324.073710927216, -26695.582472751437, 321.06045735603067, 16622.29944733375, 6761.872084363948, 25837.767224045663, 5953.27537694876, 39473.73950168365, 47165.91354202194, 37246.83520160141, 47406.84299550569, 23449.97506737412, 26504.47505765856, -7672.549208706523, -475.0863283975516, -0.10400000000000001, 0.982, 0.26, 192.0, 0.0, 0.0, 0.0, 0.0, 0.0, 0.0, 0.0, 0.0, 0.0, 1.706883051400257E9, 0.0, 2024-02-02 15:10:51.400
146.0, 62095.224809077365, 64282.3206522847, -26701.57274026546, 315.0031346086424, 16617.404415298035, 6759.323985496043, 25827.507773340676, 5944.8487692891085, 39415.870835288864, 47141.79600975466, 37235.01112878456, 47393.99074244389, 23439.35798875785, 26496.741354077025, -7684.485040245658, -485.0552064246186, -0.10400000000000001, 0.98, 0.262, 192.0, 126.0, 96.0, 15.0, 80.0, 4.0, 24.0, 0.0, 0.0, 0.0, 1.7068830514083076E9, 0.0, 2024-02-02 15:10:51.408
148.0, 62083.691308938425, 64261.28766075226, -26700.790429209523, 317.3500677764497, 16617.560877509222, 6755.546540683096, 25829.653540808387, 5940.601937842601, 39382.03029418353, 47140.790181254175, 37235.86049507386, 47392.09084416519, 23441.123776569817, 26498.931825033647, -7682.898066389331, -485.27872386917164, -0.10400000000000001, 0.98, 0.262, 192.0, 0.0, 0.0, 0.0, 0.0, 0.0, 0.0, 0.0, 0.0, 0.0, 1.706883051415311E9, 0.0, 2024-02-02 15:10:51.415
150.0, 62084.607730461095, 64237.304238951714, -26705.014908911577, 315.5619282200251, 16612.934066406975, 6750.76326736966, 25818.701186025286, 5933.337620894626, 39332.87880812631, 47133.74938175075, 37224.014070512545, 47382.79251847178, 23430.283180508995, 26486.81717953887, -7695.236229328661, -496.4322443523699, -0.10400000000000001, 0.98, 0.262, 192.0, 0.0, 0.0, 0.0, 0.0, 0.0, 0.0, 0.0, 0.0, 0.0, 1.706883051424415E9, 0.0, 2024-02-02 15:10:51.424
152.0, 62074.50474196729, 64198.27809313275, -26700.701022231704, 315.6066317089357, 16618.298485076248, 6754.496008693696, 25825.026729706136, 5937.226824429849, 39293.58444137388, 47135.06813467362, 37240.26378873155, 47394.32601861072, 23442.21901204813, 26504.47505765856, -7687.413118769303, -494.331180373571, -0.10400000000000001, 0.98, 0.262, 192.0, 0.0, 0.0, 0.0, 0.0, 0.0, 0.0, 0.0, 0.0, 0.0, 1.7068830514323163E9, 0.0, 2024-02-02 15:10:51.432
154.0, 62064.17823602894, 64176.88747368902, -26702.75738272159, 311.60566945143574, 16607.81551692671, 6750.740915625205, 25815.951921457283, 5931.3483156381035, 39259.274513634984, 47136.49864631875, 37231.65836711626, 47390.012131930845, 23440.743796914077, 26492.852150541803, -7688.418947269792, -486.59747679203474, -0.10400000000000001, 0.98, 0.262, 192.0, 0.0, 0.0, 0.0, 0.0, 0.0, 0.0, 0.0, 0.0, 0.0, 1.706883051440595E9, 0.0, 2024-02-02 15:10:51.440
156.0, 62081.14321007052, 64170.22665384134, -26688.98870813712, 319.0264486105977, 16624.601677012644, 6765.202494287789, 25843.243401437212, 5952.113086237084, 39278.76523480001, 47134.08465791758, 37238.18507649721, 47396.516489567344, 23439.246230035573, 26493.43329589764, -7687.860153658409, -484.58581979105713, -0.108, 0.98, 0.266, 192.0, 126.0, 80.0, 15.0, 80.0, 4.0, 40.0, 0.0, 0.0, 0.0, 1.70688305144736E9, 0.0, 2024-02-02 15:10:51.447
158.0, 62052.06359053416, 64148.9924966088, -26702.71267923268, 306.9788583491872, 16613.068176873705, 6753.154904026378, 25839.77888104664, 5943.4406093884245, 39303.84389207887, 47127.69205900336, 37235.972253796135, 47391.77791974282, 23437.659256179246, 26491.175769707654, -7681.735775677655, -482.48475581225824, -0.108, 0.98, 0.266, 192.0, 0.0, 0.0, 0.0, 0.0, 0.0, 0.0, 0.0, 0.0, 0.0, 1.706883051456592E9, 0.0, 2024-02-02 15:10:51.456
160.0, 62080.405602503495, 64159.788389180714, -26691.246234327107, 314.824320653, 16622.992351411864, 6759.391040729409, 25838.951866501793, 5946.815722801176, 39352.16836359124, 47131.961242194324, 37236.30752996296, 47393.32019011023, 23436.027578834008, 26490.415810396174, -7683.613322211901, -484.2281918797722, -0.108, 0.98, 0.266, 192.0, 0.0, 0.0, 0.0, 0.0, 0.0, 0.0, 0.0, 0.0, 0.0, 1.7068830514646187E9, 0.0, 2024-02-02 15:10:51.464
162.0, 62081.031451348244, 64158.60374672458, -26691.246234327107, 316.81362590952233, 16623.48408978988, 6762.207360530778, 25841.54466885861, 5952.001327514807, 39402.83976827142, 47126.730933991785, 37240.308492220465, 47393.3872453436, 23438.575677701912, 26492.38276390824, -7681.065223343996, -488.13974715945096, -0.108, 0.98, 0.266, 192.0, 0.0, 0.0, 0.0, 0.0, 0.0, 0.0, 0.0, 0.0, 0.0, 1.70688305147141E9, 0.0, 2024-02-02 15:10:51.471
164.0, 62066.212244774375, 64151.89822338799, -26706.870103701367, 301.5250327020923, 16605.401528525537, 6747.589319657007, 25819.371738358946, 5934.566966839668, 39429.48304766215, 47136.61040504103, 37236.06166077396, 47394.52718431082, 23436.787538145487, 26496.67429884366, -7681.713423933199, -486.2174971362945, -0.108, 0.98, 0.266, 192.0, 0.0, 0.0, 0.0, 0.0, 0.0, 0.0, 0.0, 0.0, 0.0, 1.706883051480462E9, 0.0, 2024-02-02 15:10:51.480
166.0, 62081.63494844854, 64186.78929648272, -26706.221903112164, 302.597916435947, 16609.938932649962, 6753.154904026378, 25825.674930295343, 5942.546539610212, 39453.421765973784, 47121.25475660023, 37215.65451808626, 47377.5845620137, 23418.81673560342, 26477.58590907883, -7704.825127699987, -506.60228807953456, -0.106, 0.988, 0.272, 192.0, 126.0, 88.0, 15.0, 112.0, 4.0, 64.0, 0.0, 0.0, 0.0, 1.7068830514884179E9, 0.0, 2024-02-02 15:10:51.488
168.0, 62106.17716386046, 64247.72015186789, -26705.931330434243, 305.3024775150392, 16611.660016973023, 6760.665090163361, 25829.050043708092, 5952.22484495936, 39524.90264474185, 47134.93402420689, 37231.278387460516, 47393.56605929924, 23432.741872399078, 26496.38372616574, -7697.1808310962715, -497.460424597314, -0.106, 0.988, 0.272, 192.0, 0.0, 0.0, 0.0, 0.0, 0.0, 0.0, 0.0, 0.0, 0.0, 1.7068830514954479E9, 0.0, 2024-02-02 15:10:51.495
170.0, 62119.47645181137, 64311.86965845462, -26711.340452592427, 302.73202690267885, 16611.14592685055, 6758.42991571783, 25835.241476922212, 5956.337565939137, 39607.09000910402, 47140.656070787445, 37220.05781174396, 47388.827489474716, 23429.567924686424, 26496.00374651, -7712.536479537068, -509.2844974141714, -0.106, 0.988, 0.272, 192.0, 0.0, 0.0, 0.0, 0.0, 0.0, 0.0, 0.0, 0.0, 0.0, 1.7068830515034313E9, 0.0, 2024-02-02 15:10:51.503
172.0, 62125.39966409203, 64372.91227256206, -26719.610598040894, 291.08676804146387, 16606.38500528157, 6753.62429065994, 25826.077261695536, 5955.622310116567, 39723.05085933815, 47135.78339049619, 37214.40282039676, 47384.625361517115, 23423.39884321676, 26494.930862776146, -7725.411084343325, -519.7004103303445, -0.106, 0.988, 0.272, 192.0, 0.0, 0.0, 0.0, 0.0, 0.0, 0.0, 0.0, 0.0, 0.0, 1.7068830515124671E9, 0.0, 2024-02-02 15:10:51.512
174.0, 62151.841777782654, 64447.4106368316, -26719.34237710743, 290.5503261745365, 16617.00208389784, 6761.447401219297, 25838.661293823876, 5976.141211526538, 39920.19324543396, 47144.58997781158, 37213.9334337632, 47383.865402205636, 23424.382319972792, 26501.63638611274, -7731.311944879526, -535.6372041269784, -0.106, 0.988, 0.272, 192.0, 0.0, 0.0, 0.0, 0.0, 0.0, 0.0, 0.0, 0.0, 0.0, 1.7068830515194724E9, 0.0, 2024-02-02 15:10:51.519
176.0, 62176.27223447231, 64515.38229172019, -26732.351092380417, 286.25879123911756, 16614.878668174588, 6761.492104708208, 25839.845936280006, 5984.947798841929, 40169.25873389944, 47167.09818447807, 37222.7847245675, 47388.02282667432, 23418.324997225405, 26495.400249409708, -7729.792026256565, -546.2989862321599, -0.108, 0.986, 0.274, 192.0, 126.0, 80.0, 15.0, 104.0, 4.0, 72.0, 0.0, 0.0, 0.0, 1.7068830515276036E9, 0.0, 2024-02-02 15:10:51.527
178.0, 62197.59579868267, 64576.0449261719, -26745.33745590895, 287.7116546287125, 16612.039996628762, 6754.227787760233, 25835.085014711025, 5987.026511076273, 40410.72462925013, 47164.90771352145, 37232.41832642774, 47392.314361609744, 23416.805078602443, 26491.801618552403, -7727.065113433017, -556.9160648484308, -0.108, 0.986, 0.274, 192.0, 0.0, 0.0, 0.0, 0.0, 0.0, 0.0, 0.0, 0.0, 0.0, 1.7068830515364697E9, 0.0, 2024-02-02 15:10:51.536
180.0, 62219.47815650442, 64633.421854188666, -26748.48905187715, 295.5794686769806, 16612.75525245133, 6753.020793559646, 25841.321151414057, 5988.434670976958, 40598.523986163615, 47177.75996658325, 37234.67585261773, 47392.96256219895, 23410.099555265853, 26496.897816288212, -7735.469369348213, -565.7673556527324, -0.108, 0.986, 0.274, 192.0, 0.0, 0.0, 0.0, 0.0, 0.0, 0.0, 0.0, 0.0, 0.0, 1.7068830515445259E9, 0.0, 2024-02-02 15:10:51.544
182.0, 62245.98732542841, 64690.28469208297, -26746.946781509734, 301.01094257962023, 16617.829098442686, 6749.4892179357075, 25854.5533841316, 5997.554182714723, 40758.137793318965, 47181.738577096294, 37249.04802430249, 47402.75262627037, 23408.49022966507, 26503.022194268968, -7730.350819867947, -560.6041026835564, -0.108, 0.986, 0.274, 192.0, 0.0, 0.0, 0.0, 0.0, 0.0, 0.0, 0.0, 0.0, 0.0, 1.7068830515515609E9, 0.0, 2024-02-02 15:10:51.551
184.0, 62262.05822969178, 64733.84824202636, -26749.897211777832, 301.9050123578325, 16615.504517019333, 6759.838075618515, 25852.362913174977, 5997.4424239924465, 40896.360981030586, 47207.17486228643, 37261.81087038647, 47416.3424868992, 23415.195753001663, 26506.799639081913, -7726.685133777277, -553.9432828358749, -0.108, 0.986, 0.274, 192.0, 0.0, 0.0, 0.0, 0.0, 0.0, 0.0, 0.0, 0.0, 0.0, 1.70688305155981E9, 0.0, 2024-02-02 15:10:51.559
186.0, 62272.96588098597, 64765.967698808636, -26754.926354280276, 302.9331926027766, 16619.930162421486, 6758.854598862481, 25863.292916213624, 6001.353979272125, 40981.699941360945, 47209.67825766543, 37266.929419866734, 47417.46007412196, 23414.435793690183, 26510.599435639317, -7723.690000020266, -550.1881897673834, -0.108, 0.984, 0.266, 192.0, 126.0, 80.0, 15.0, 96.0, 4.0, 40.0, 0.0, 0.0, 0.0, 1.7068830515685282E9, 0.0, 2024-02-02 15:10:51.568
188.0, 62293.57418937376, 64803.83155391593, -26754.00993275761, 310.7339514176788, 16626.546278780257, 6761.693270408306, 25867.49504417122, 6007.456005508424, 41038.94275891099, 47214.30506876768, 37281.390998529314, 47429.12768472763, 23421.856572849345, 26516.366185708786, -7717.76678773961, -545.2484542427604, -0.108, 0.984, 0.266, 192.0, 0.0, 0.0, 0.0, 0.0, 0.0, 0.0, 0.0, 0.0, 0.0, 1.7068830515756447E9, 0.0, 2024-02-02 15:10:51.575
190.0, 62297.48574465344, 64823.45638554769, -26763.040037517552, 305.2801257705839, 16625.115767135117, 6761.536808197118, 25865.528090659154, 6006.696046196944, 41079.42176811955, 47226.75499042928, 37281.63686771833, 47429.15003647209, 23420.649578648758, 26524.904552090713, -7717.9008982063415, -541.7615821077326, -0.108, 0.984, 0.266, 192.0, 0.0, 0.0, 0.0, 0.0, 0.0, 0.0, 0.0, 0.0, 0.0, 1.7068830515839367E9, 0.0, 2024-02-02 15:10:51.583
192.0, 62304.124212756666, 64847.551566070506, -26769.119712009397, 294.7301023876789, 16627.038017158273, 6756.261796505666, 25867.226823237757, 6007.4783572528795, 41101.50529164139, 47220.47415023734, 37278.46292000567, 47424.07619048074, 23418.369700714316, 26522.803488111913, -7722.550061053045, -550.5234659342129, -0.108, 0.984, 0.266, 192.0, 0.0, 0.0, 0.0, 0.0, 0.0, 0.0, 0.0, 0.0, 0.0, 1.706883051591678E9, 0.0, 2024-02-02 15:10:51.591
194.0, 62307.409919191596, 64870.17153145928, -26776.786360357568, 290.95265757473203, 16627.082720647184, 6753.959566826769, 25872.770055862675, 6011.613429977111, 41130.271986755375, 47226.37501077355, 37276.652428704794, 47424.36676315866, 23418.995549559066, 26524.122241034776, -7726.975706455196, -554.7255938918107, -0.108, 0.984, 0.266, 192.0, 0.0, 0.0, 0.0, 0.0, 0.0, 0.0, 0.0, 0.0, 0.0, 1.706883051600652E9, 0.0, 2024-02-02 15:10:51.600
196.0, 62313.981332061456, 64886.08597351146, -26779.73679062567, 292.38316921987166, 16624.869897946108, 6754.563063927062, 25871.83128259555, 6015.457930023424, 41139.972643848974, 47234.37693528854, 37275.736007182124, 47428.1442079716, 23417.00624430254, 26526.44682245813, -7727.534500066579, -554.6808904029001, -0.108, 0.988, 0.266, 192.0, 126.0, 80.0, 15.0, 112.0, 4.0, 40.0, 0.0, 0.0, 0.0, 1.7068830516076384E9, 0.0, 2024-02-02 15:10:51.607
198.0, 62317.06587279629, 64900.23462775167, -26781.10024703744, 287.8010616065337, 16625.987485168873, 6753.154904026378, 25871.473654684265, 6016.061427123717, 41152.087289343755, 47226.12914158453, 37278.1499955833, 47425.99844050389, 23415.39691870176, 26517.327310720364, -7725.411084343325, -548.1765327664057, -0.108, 0.988, 0.266, 192.0, 0.0, 0.0, 0.0, 0.0, 0.0, 0.0, 0.0, 0.0, 0.0, 1.7068830516159775E9, 0.0, 2024-02-02 15:10:51.615
200.0, 62334.90256487162, 64924.598029207955, -26772.383066699873, 289.9468290742432, 16632.29067710527, 6759.569854685052, 25875.049933797116, 6022.185805104471, 41157.876391157675, 47234.93572889992, 37270.304533279486, 47420.3434491567, 23415.665139635224, 26518.936636321145, -7730.887261734875, -552.1104397905398, -0.108, 0.988, 0.266, 192.0, 0.0, 0.0, 0.0, 0.0, 0.0, 0.0, 0.0, 0.0, 0.0, 1.7068830516249475E9, 0.0, 2024-02-02 15:10:51.624
202.0, 62362.57402450729, 64956.29280284558, -26759.597868871435, 302.6202681804023, 16643.511252821834, 6770.611616445973, 25886.02464032467, 6033.294622098759, 41183.91617344811, 47243.630557493045, 37292.79038820152, 47436.77198133135, 23430.68551190919, 26523.921075334678, -7713.207031870727, -537.0006605387522, -0.108, 0.988, 0.266, 192.0, 0.0, 0.0, 0.0, 0.0, 0.0, 0.0, 0.0, 0.0, 0.0, 1.7068830516317031E9, 0.0, 2024-02-02 15:10:51.631
204.0, 62352.493387757946, 64957.49979704616, -26777.68043013578, 284.11302377140805, 16620.19838335495, 6747.298746979088, 25866.489215670732, 6012.798072433242, 41195.561432309325, 47258.69563325592, 37299.04887664901, 47445.466809924466, 23432.071320065417, 26533.86760161729, -7716.425683072292, -539.7052216178444, -0.108, 0.988, 0.266, 192.0, 0.0, 0.0, 0.0, 0.0, 0.0, 0.0, 0.0, 0.0, 0.0, 1.7068830516396987E9, 0.0, 2024-02-02 15:10:51.639
206.0, 62377.527341547895, 64988.03227997211, -26765.47637766318, 293.277238998084, 16634.659962017533, 6762.833209375526, 25877.37451522047, 6025.627973750588, 41182.59742052525, 47250.91722618547, 37284.38613228633, 47434.31328944126, 23417.20741000264, 26523.00465381201, -7735.9164042373195, -558.458335215847, -0.112, 0.99, 0.264, 192.0, 126.0, 64.0, 15.0, 120.0, 4.0, 32.0, 0.0, 0.0, 0.0, 1.7068830516477084E9, 0.0, 2024-02-02 15:10:51.647
208.0, 62381.997690438955, 64999.09639347749, -26773.38889520036, 281.5649249035031, 16625.29458109076, 6750.159770269367, 25861.21420397928, 6011.635781721567, 41190.107606662226, 47253.130048886545, 37293.28212657954, 47443.58926339022, 23427.891543852278, 26536.996845841033, -7731.311944879526, -558.6371491714895, -0.112, 0.99, 0.264, 192.0, 0.0, 0.0, 0.0, 0.0, 0.0, 0.0, 0.0, 0.0, 0.0, 1.7068830516567209E9, 0.0, 2024-02-02 15:10:51.656
210.0, 62380.61188228273, 65002.42680340133, -26769.231470731673, 285.051797038531, 16631.28484860478, 6753.490180193207, 25872.97122156277, 6014.80972943422, 41183.06680715881, 47261.02021467927, 37290.912841667276, 47441.57760638924, 23426.863363607332, 26521.685900889148, -7733.234194902682, -559.039480571685, -0.112, 0.99, 0.264, 192.0, 0.0, 0.0, 0.0, 0.0, 0.0, 0.0, 0.0, 0.0, 0.0, 1.7068830516636977E9, 0.0, 2024-02-02 15:10:51.663
212.0, 62377.54969329235, 65008.260608704164, -26770.01378178761, 281.6766836257796, 16631.038979415775, 6758.072287806545, 25880.03437281065, 6020.777645203787, 41173.47790878748, 47256.1028308991, 37290.44345503372, 47438.69423135451, 23428.807965374945, 26528.234962014554, -7730.976668712697, -555.0608700586403, -0.112, 0.99, 0.264, 192.0, 0.0, 0.0, 0.0, 0.0, 0.0, 0.0, 0.0, 0.0, 0.0, 1.7068830516718936E9, 0.0, 2024-02-02 15:10:51.671
214.0, 62362.43991404056, 65009.42289941584, -26774.05944753402, 280.4473376807377, 16623.841717701165, 6754.697174393795, 25870.73604711724, 6014.8767846675855, 41158.993978380444, 47255.02994716525, 37284.22967007514, 47437.30842319828, 23422.527125183, 26527.58676142535, -7737.570433327011, -558.4359834713916, -0.112, 0.99, 0.264, 192.0, 0.0, 0.0, 0.0, 0.0, 0.0, 0.0, 0.0, 0.0, 0.0, 1.706883051679726E9, 0.0, 2024-02-02 15:10:51.679
216.0, 62401.33194939279, 65035.39562647291, -26756.468624647692, 298.7534163896342, 16639.175014397504, 6766.633005932928, 25881.286070500144, 6022.386970804569, 41159.30690280282, 47269.133897916545, 37301.820492961466, 47453.133458272634, 23430.97608458711, 26535.745148151538, -7725.992229699163, -546.9695385658191, -0.106, 0.99, 0.266, 192.0, 126.0, 88.0, 15.0, 120.0, 4.0, 40.0, 0.0, 0.0, 0.0, 1.706883051687744E9, 0.0, 2024-02-02 15:10:51.687
218.0, 62346.279602799375, 64984.3889456259, -26763.464720662203, 290.5056226856259, 16630.547241037755, 6757.804066873082, 25868.769093605173, 6010.80876717672, 41146.52170497438, 47256.125182643555, 37302.513397039584, 47449.31130997078, 23433.948866599665, 26533.48762196155, -7723.824110486998, -543.7061838753443, -0.106, 0.99, 0.266, 192.0, 0.0, 0.0, 0.0, 0.0, 0.0, 0.0, 0.0, 0.0, 0.0, 1.706883051695762E9, 0.0, 2024-02-02 15:10:51.695
220.0, 62302.514887155885, 64967.55808205105, -26773.657116133825, 280.58144814746953, 16623.439386300968, 6753.601938915484, 25858.084959755535, 6001.309275783215, 41106.981469032944, 47245.17282786046, 37273.45612924769, 47425.81962654825, 23427.82448861891, 26527.698520147627, -7730.462578590224, -550.2775967452046, -0.106, 0.99, 0.266, 192.0, 0.0, 0.0, 0.0, 0.0, 0.0, 0.0, 0.0, 0.0, 0.0, 1.7068830517037854E9, 0.0, 2024-02-02 15:10:51.703
222.0, 62337.67418118408, 64976.744649022185, -26764.358790440416, 285.0294452940757, 16629.8766887041, 6760.732145396727, 25863.896413313916, 6007.634819464067, 41090.73175081393, 47239.58489174663, 37288.9011846663, 47437.50958889838, 23423.711767639135, 26534.135822550754, -7722.639468030867, -542.2309687412941, -0.106, 0.99, 0.266, 192.0, 0.0, 0.0, 0.0, 0.0, 0.0, 0.0, 0.0, 0.0, 0.0, 1.7068830517127924E9, 0.0, 2024-02-02 15:10:51.712
224.0, 62287.56157011528, 64926.073244342006, -26764.694066607248, 287.91282032881026, 16628.58028752569, 6759.86042736297, 25861.79534933512, 6005.421996762991, 41048.17402937103, 47234.51104575527, 37286.12956835384, 47432.97218477395, 23423.622360661313, 26528.614941670294, -7714.414026071314, -533.8490645705539, -0.106, 0.99, 0.266, 192.0, 0.0, 0.0, 0.0, 0.0, 0.0, 0.0, 0.0, 0.0, 0.0, 1.70688305171983E9, 0.0, 2024-02-02 15:10:51.719
226.0, 62229.89406942059, 64862.01314473309, -26771.399589943838, 285.23061099417345, 16619.99721765485, 6753.177255770834, 25856.11800624347, 5991.89919136753, 40973.7203685904, 47224.0951328391, 37282.93326889673, 47425.50670212587, 23423.622360661313, 26527.609113169805, -7701.04768288704, -524.2601661992271, -0.10300000000000001, 0.988, 0.269, 192.0, 126.0, 112.0, 15.0, 104.0, 4.0, 64.0, 0.0, 0.0, 0.0, 1.706883051727906E9, 0.0, 2024-02-02 15:10:51.727
228.0, 62215.119566335634, 64839.08025492195, -26765.006991029622, 291.35498897492755, 16620.041921143762, 6756.90999709487, 25855.17923297635, 5984.836040119653, 40877.13848079902, 47185.1360422535, 37258.94984709619, 47404.71957978244, 23415.888657079777, 26511.04647052842, -7703.171098610294, -527.9929075232634, -0.10300000000000001, 0.988, 0.269, 192.0, 0.0, 0.0, 0.0, 0.0, 0.0, 0.0, 0.0, 0.0, 0.0, 1.7068830517357976E9, 0.0, 2024-02-02 15:10:51.735
230.0, 62218.897011148576, 64809.3971382853, -26764.9175840518, 290.34916047443875, 16613.068176873705, 6753.043145304102, 25843.109290970482, 5969.5027434233125, 40824.92480575142, 47216.51789146876, 37275.49013799312, 47424.45617013647, 23419.911971081732, 26521.44003170014, -7693.984531639163, -512.0337619821742, -0.10300000000000001, 0.988, 0.269, 192.0, 0.0, 0.0, 0.0, 0.0, 0.0, 0.0, 0.0, 0.0, 0.0, 1.7068830517428207E9, 0.0, 2024-02-02 15:10:51.742
232.0, 62210.93979012249, 64747.59456486638, -26753.540546124048, 292.80785236452255, 16620.734825221876, 6756.842941861504, 25847.043197994615, 5968.6757288784665, 40668.82022247556, 47201.56457442815, 37270.66216119077, 47415.53782409881, 23418.168535014218, 26520.12127877728, -7694.878601417376, -504.97061073429717, -0.10300000000000001, 0.988, 0.269, 192.0, 0.0, 0.0, 0.0, 0.0, 0.0, 0.0, 0.0, 0.0, 0.0, 1.7068830517518456E9, 0.0, 2024-02-02 15:10:51.751
234.0, 62204.34602550817, 64703.22635212259, -26743.214040185696, 287.95752381772087, 16623.52879327879, 6753.333717982021, 25856.475634154755, 5966.641720133033, 40474.69532188122, 47201.20694651687, 37268.87402163434, 47415.98485898791, 23424.717596139624, 26518.646063643228, -7687.524877491579, -497.66159029741175, -0.10300000000000001, 0.988, 0.269, 192.0, 0.0, 0.0, 0.0, 0.0, 0.0, 0.0, 0.0, 0.0, 0.0, 1.706883051760166E9, 0.0, 2024-02-02 15:10:51.760
236.0, 62195.09240330368, 64671.665688951696, -26734.228638914665, 290.03623605206445, 16629.09437764816, 6757.71465989526, 25853.54755563111, 5962.931330553452, 40359.47207921411, 47195.4401964474, 37261.56500119746, 47410.57573682973, 23428.20446827465, 26512.141706006732, -7685.423813512781, -499.0921019425514, -0.1005, 0.985, 0.2725, 192.0, 126.0, 120.0, 15.0, 88.0, 4.0, 80.0, 0.0, 0.0, 0.0, 1.7068830517678645E9, 0.0, 2024-02-02 15:10:51.767
238.0, 62213.55494422376, 64685.926101914185, -26742.945819252232, 283.37541620438293, 16615.30335131924, 6748.863369090959, 25834.325055399546, 5943.015926243774, 40323.93280553017, 47195.663713891954, 37264.71659716566, 47414.73316129842, 23428.718558397122, 26513.080479273856, -7687.413118769303, -503.60715432252346, -0.1005, 0.985, 0.2725, 192.0, 0.0, 0.0, 0.0, 0.0, 0.0, 0.0, 0.0, 0.0, 0.0, 1.7068830517758653E9, 0.0, 2024-02-02 15:10:51.775
240.0, 62201.68616791799, 64681.723973956585, -26752.981752512667, 269.9420177867434, 16607.591999482156, 6739.363877697454, 25829.87705825294, 5932.6000133276, 40299.74821802953, 47190.76868185624, 37249.405652213776, 47408.58643157321, 23415.039290790475, 26501.63638611274, -7706.255639345127, -519.5439481191573, -0.1005, 0.985, 0.2725, 192.0, 0.0, 0.0, 0.0, 0.0, 0.0, 0.0, 0.0, 0.0, 0.0, 1.706883051784231E9, 0.0, 2024-02-02 15:10:51.784
242.0, 62221.825089672224, 64715.13983191727, -26742.565839596493, 278.32392195748355, 16615.72803446389, 6748.61749990195, 25846.998494505704, 5948.17917921295, 40297.222470906076, 47189.5393359112, 37255.79825112799, 47411.84978626368, 23418.19088675867, 26512.72285136257, -7701.606476498423, -518.6722300854004, -0.1005, 0.985, 0.2725, 192.0, 0.0, 0.0, 0.0, 0.0, 0.0, 0.0, 0.0, 0.0, 0.0, 1.706883051791916E9, 0.0, 2024-02-02 15:10:51.791
244.0, 62234.07384563373, 64744.152396220255, -26743.750482052623, 276.826355078978, 16609.491897760858, 6743.566005655051, 25831.598142575996, 5946.569853612167, 40310.25353792352, 47201.3410569836, 37256.737024395115, 47415.113140954156, 23423.756471128043, 26503.87156055827, -7705.629790500378, -516.0794277285847, -0.1005, 0.985, 0.2725, 192.0, 0.0, 0.0, 0.0, 0.0, 0.0, 0.0, 0.0, 0.0, 0.0, 1.7068830517989194E9, 0.0, 2024-02-02 15:10:51.798
246.0, 62258.92898546803, 64791.47103923214, -26744.75631055311, 275.6193608783914, 16614.878668174588, 6751.411467958864, 25844.562154360076, 5954.258853704793, 40326.860884053815, 47202.659809906465, 37250.70205339218, 47410.352219385175, 23416.715671624625, 26502.083421001844, -7717.76678773961, -528.9316807903863, -0.10325000000000001, 0.9804999999999999, 0.27225, 192.0, 126.0, 88.0, 15.0, 64.0, 4.0, 64.0, 0.0, 0.0, 0.0, 1.7068830518080432E9, 0.0, 2024-02-02 15:10:51.808
248.0, 62280.632529334136, 64835.41456883128, -26745.091586719944, 276.826355078978, 16616.6221042421, 6749.0198313021465, 25842.751663059196, 5958.840961318131, 40379.27572480151, 47210.88525186601, 37262.50377446458, 47421.72925731293, 23419.777860615, 26503.938615791634, -7717.453863317235, -533.0444017701628, -0.10325000000000001, 0.9804999999999999, 0.27225, 192.0, 0.0, 0.0, 0.0, 0.0, 0.0, 0.0, 0.0, 0.0, 0.0, 1.7068830518159256E9, 0.0, 2024-02-02 15:10:51.815
250.0, 62290.17672421655, 64866.39408664633, -26752.490014134648, 272.6242271213802, 16611.458851272924, 6747.634023145917, 25835.464994366765, 5961.098487508117, 40433.255187661074, 47222.575214216144, 37265.18598379922, 47428.81476030526, 23418.481459436593, 26515.047432785923, -7727.065113433017, -542.2533204857493, -0.10325000000000001, 0.9804999999999999, 0.27225, 192.0, 0.0, 0.0, 0.0, 0.0, 0.0, 0.0, 0.0, 0.0, 0.0, 1.7068830518229592E9, 0.0, 2024-02-02 15:10:51.822
252.0, 62299.05036676531, 64897.48536318367, -26752.355903667918, 270.03142476456463, 16618.544354265257, 6753.512531937663, 25839.220087435257, 5969.100412023117, 40485.04417956402, 47216.94257461341, 37268.85166988989, 47430.28997543931, 23415.39691870176, 26512.47698217356, -7732.6754012913, -554.747945636266, -0.10325000000000001, 0.9804999999999999, 0.27225, 192.0, 0.0, 0.0, 0.0, 0.0, 0.0, 0.0, 0.0, 0.0, 0.0, 1.7068830518309987E9, 0.0, 2024-02-02 15:10:51.830
254.0, 62325.939515345046, 64936.958543891735, -26747.8632030324, 274.92645680027687, 16626.255706102336, 6762.877912864436, 25842.81871829256, 5983.494935452335, 40561.062462456524, 47243.831723193136, 37281.52510899605, 47447.72433611445, 23435.759357900544, 26525.306883490906, -7722.90768896433, -552.1104397905398, -0.10325000000000001, 0.9804999999999999, 0.27225, 192.0, 0.0, 0.0, 0.0, 0.0, 0.0, 0.0, 0.0, 0.0, 0.0, 1.7068830518399901E9, 0.0, 2024-02-02 15:10:51.839
0.0, 62331.795672392334, 64953.252965599655, -26758.815557815502, 270.858439309411, 16624.020531656806, 6754.875988349437, 25843.22104969276, 5986.691234909444, 40619.10994280696, 47246.67039473896, 37281.86038516288, 47447.05378378079, 23428.025654319008, 26523.20581951211, -7726.260450632626, -562.2804835177045, -0.105625, 0.97925, 0.272125, 192.0, 126.0, 80.0, 15.0, 72.0, 4.0, 64.0, 0.0, 0.0, 0.0, 1.7068830518480005E9, 0.0, 2024-02-02 15:10:51.848
2.0, 62328.018227579385, 64962.77480873762, -26770.125540509885, 260.5766368599697, 16619.706644976934, 6744.169502755345, 25850.328904429545, 5986.534772698256, 40652.74931821219, 47242.512970270276, 37282.19566132971, 47440.415315677565, 23426.572790929415, 26521.52943867796, -7727.601555299945, -570.9753121108189, -0.105625, 0.97925, 0.272125, 192.0, 0.0, 0.0, 0.0, 0.0, 0.0, 0.0, 0.0, 0.0, 0.0, 1.7068830518549893E9, 0.0, 2024-02-02 15:10:51.854
4.0, 62329.87342236918, 64974.017736198635, -26773.478302178184, 256.59802634692505, 16619.90781067703, 6743.878930077426, 25848.049026495104, 5988.837002377153, 40677.42564409085, 47249.73258372934, 37276.451263004696, 47436.3472981867, 23421.096613537862, 26517.036738042443, -7735.871700748408, -576.4738412468245, -0.105625, 0.97925, 0.272125, 192.0, 0.0, 0.0, 0.0, 0.0, 0.0, 0.0, 0.0, 0.0, 0.0, 1.7068830518633235E9, 0.0, 2024-02-02 15:10:51.863
6.0, 62340.82577715228, 64990.84859977348, -26771.31018296602, 256.6874333247463, 16625.51809853531, 6748.505741179674, 25854.53103238714, 5997.822403648187, 40698.43628387884, 47248.25736859529, 37277.68060894973, 47436.704926097984, 23425.119927539818, 26514.33217696335, -7734.083561191984, -575.8256406576205, -0.105625, 0.97925, 0.272125, 192.0, 0.0, 0.0, 0.0, 0.0, 0.0, 0.0, 0.0, 0.0, 0.0, 1.7068830518720803E9, 0.0, 2024-02-02 15:10:51.872
