%OpenBCI Raw EXG Data
%Number of channels = 16
%Sample Rate = 125 Hz
%Board = OpenBCI_GUI$BoardCytonSerialDaisy
Sample Index, EXG Channel 0, EXG Channel 1, EXG Channel 2, EXG Channel 3, EXG Channel 4, EXG Channel 5, EXG Channel 6, EXG Channel 7, EXG Channel 8, EXG Channel 9, EXG Channel 10, EXG Channel 11, EXG Channel 12, EXG Channel 13, EXG Channel 14, EXG Channel 15, Accel Channel 0, Accel Channel 1, Accel Channel 2, Other, Other, Other, Other, Other, Other, Other, Analog Channel 0, Analog Channel 1, Analog Channel 2, Timestamp, Other, Timestamp (Formatted)
0.0, 62254.50334006588, 64461.35812537171, -30764.51638513999, -2683.036349181694, 16842.888813363174, 6527.9610786391595, 25274.615022494203, 5809.1960321898505, 0.0, 0.0, 0.0, 0.0, 0.0, 0.0, 0.0, 0.0, 0.0, 0.0, 0.0, 192.0, 0.0, 0.0, 0.0, 0.0, 0.0, 0.0, 0.0, 0.0, 0.0, 1.7068831174715395E9, 0.0, 2024-02-02 15:11:57.471
34.0, 62245.71910449494, 64462.766285272395, -30763.152928728217, -2683.3939770929787, 16846.95683085404, 6530.844453673894, 25297.659671027624, 5820.215442206317, 38988.19255688102, 47179.369292184034, 37320.685365281744, 48069.08048022753, 23453.12666334232, 26628.057852751954, -8181.006691575849, -1488.7379394457269, 0.0, 0.0, 0.0, 192.0, 0.0, 0.0, 0.0, 0.0, 0.0, 0.0, 0.0, 0.0, 0.0, 1.7068831174715679E9, 0.0, 2024-02-02 15:11:57.471
0.0, 31338.218610074357, 32514.277996334793, -15779.415163924119, -1681.1641074614654, 8393.705891812551, 3223.7026958111164, 12573.459753210516, 2951.4137448565657, 19464.726086226237, 23581.85035966043, 18652.21782353137, 24025.398376631543, 11725.903955209727, 13306.529916111222, -4090.995084165941, -748.3811078525911, -0.04, 0.49, 0.136, 192.0, 126.5, 64.0, 15.0, 80.0, 4.0, 64.0, 0.0, 0.0, 0.0, 1.7068831175766015E9, 0.0, 2024-02-02 15:11:57.576
2.0, 62662.601490330875, 64996.749460309686, -31565.44644420701, -3365.9939010136013, 16776.70529803101, 6437.078885683881, 25131.049767857763, 5892.88096343052, 40018.004479170384, 46881.6664077838, 37362.14785124634, 48297.96234344987, 23440.185003302697, 26623.721614327624, -8291.759585351896, -1661.561627574161, -0.04, 0.49, 0.136, 192.0, 0.0, 0.0, 0.0, 0.0, 0.0, 0.0, 0.0, 0.0, 0.0, 1.706883117583672E9, 0.0, 2024-02-02 15:11:57.583
4.0, 62656.61122281686, 64972.3860588534, -31556.01400804687, -3362.0823457339225, 16778.26992014288, 6445.594900321353, 25133.754328936855, 5897.3066088326705, 39877.4120065465, 46862.9132941858, 37356.02347326559, 48295.43659632643, 23430.260828764538, 26616.83727703539, -8300.588524411742, -1666.6131218210605, -0.04, 0.49, 0.136, 192.0, 0.0, 0.0, 0.0, 0.0, 0.0, 0.0, 0.0, 0.0, 0.0, 1.7068831175918016E9, 0.0, 2024-02-02 15:11:57.591
6.0, 62628.87270794782, 64944.178157350805, -31553.91294406807, -3372.0959272499, 16778.046402698328, 6439.291708384956, 25128.36755852313, 5892.098652374584, 39801.7960550542, 46848.25054982311, 37353.900057542334, 48289.535735790225, 23434.708825911144, 26621.352329415364, -8299.02390229987, -1664.8473340090914, -0.04, 0.49, 0.136, 192.0, 0.0, 0.0, 0.0, 0.0, 0.0, 0.0, 0.0, 0.0, 0.0, 1.7068831176006453E9, 0.0, 2024-02-02 15:11:57.600
8.0, 62647.44700759018, 64951.06249464304, -31560.43965344902, -3383.6964826222043, 16769.865664227684, 6430.6415832807525, 25109.033299569288, 5874.507829488258, 39793.99529623929, 46849.99398589063, 37344.177048704274, 48288.50755554528, 23431.35606424285, 26611.338747899386, -8306.623495414675, -1672.5810375906276, -0.076, 0.98, 0.274, 192.0, 126.5, 80.0, 15.0, 80.0, 4.0, 72.0, 0.0, 0.0, 0.0, 1.7068831176077027E9, 0.0, 2024-02-02 15:11:57.607
10.0, 62654.10782743786, 64966.50755006165, -31556.885726080625, -3376.7003866076934, 16780.08041144376, 6438.46469384011, 25121.237352041884, 5882.152126091973, 39823.76781985376, 46844.76367768809, 37353.16244997531, 48292.687331758425, 23439.20152654666, 26608.298910653462, -8302.935457579548, -1671.3963951344963, -0.076, 0.98, 0.274, 192.0, 0.0, 0.0, 0.0, 0.0, 0.0, 0.0, 0.0, 0.0, 0.0, 1.7068831176156688E9, 0.0, 2024-02-02 15:11:57.615
12.0, 62657.19236817269, 64981.39381186889, -31559.47852843744, -3375.649854618294, 16778.69460328753, 6436.363629861311, 25122.82432589821, 5882.018015625241, 39825.71242162138, 46847.579997489454, 37352.96128427521, 48295.23543062633, 23436.362855000836, 26604.16383792923, -8304.634190158153, -1668.6471305664934, -0.076, 0.98, 0.274, 192.0, 0.0, 0.0, 0.0, 0.0, 0.0, 0.0, 0.0, 0.0, 0.0, 1.70688311762493E9, 0.0, 2024-02-02 15:11:57.624
14.0, 62672.033926491014, 65010.98752152771, -31560.05967379328, -3375.560447640473, 16776.41472535309, 6436.430685094677, 25121.572628208713, 5883.02384412573, 39839.07876480565, 46852.31856731398, 37351.97780751918, 48296.598887038104, 23428.003302574554, 26605.616701318828, -8311.65263791712, -1678.1242702155437, -0.076, 0.98, 0.274, 192.0, 0.0, 0.0, 0.0, 0.0, 0.0, 0.0, 0.0, 0.0, 0.0, 1.706883117631647E9, 0.0, 2024-02-02 15:11:57.631
16.0, 62685.757897586576, 65039.44129221932, -31560.10437728219, -3370.441898160207, 16771.564396806287, 6433.9272897156825, 25107.982767579888, 5876.854762656065, 39865.29736105172, 46856.051308638016, 37357.52104014409, 48303.237355141326, 23426.103404295853, 26613.193942689177, -8312.837280373249, -1676.3808341480296, -0.076, 0.98, 0.274, 192.0, 0.0, 0.0, 0.0, 0.0, 0.0, 0.0, 0.0, 0.0, 0.0, 1.7068831176396887E9, 0.0, 2024-02-02 15:11:57.639
18.0, 62695.816182591465, 65066.39749603242, -31557.980961558937, -3369.614883615361, 16776.41472535309, 6433.904937971228, 25120.25387528585, 5881.302759802671, 39907.072771438696, 46873.93270420226, 37357.878668055375, 48308.13238717704, 23435.468785222627, 26602.26393965053, -8317.17351879758, -1679.3536161605855, -0.088, 0.976, 0.28, 192.0, 126.5, 32.0, 15.0, 64.0, 4.0, 96.0, 0.0, 0.0, 0.0, 1.7068831176476853E9, 0.0, 2024-02-02 15:11:57.647
20.0, 62716.06686306797, 65095.63357777996, -31555.209345246476, -3369.4360696597187, 16781.75679227791, 6425.210109378113, 25121.371462508618, 5883.649692970478, 39947.06004226924, 46866.75779423211, 37353.408319164315, 48303.9526109639, 23432.428947976703, 26615.764393301535, -8315.340675752244, -1681.924066772946, -0.088, 0.976, 0.28, 192.0, 0.0, 0.0, 0.0, 0.0, 0.0, 0.0, 0.0, 0.0, 0.0, 1.7068831176572492E9, 0.0, 2024-02-02 15:11:57.657
22.0, 62719.307866013994, 65112.2185721658, -31560.931391827035, -3380.321369209453, 16774.715992774487, 6439.403467107233, 25116.45407872845, 5884.677873215423, 40031.415525843564, 46878.22423913768, 37352.648359852836, 48307.73005577685, 23433.16655554373, 26619.36302415884, -8322.962620611504, -1690.7753575772474, -0.088, 0.976, 0.28, 192.0, 0.0, 0.0, 0.0, 0.0, 0.0, 0.0, 0.0, 0.0, 0.0, 1.7068831176637297E9, 0.0, 2024-02-02 15:11:57.663
24.0, 62734.976438877165, 65136.559621877626, -31565.91583084057, -3377.236828474621, 16781.645033555633, 6439.403467107233, 25136.570648738223, 5902.492213546302, 40124.66700371111, 46879.94532346074, 37347.887438283855, 48304.84668074211, 23427.39980547426, 26604.275596651507, -8334.205548072523, -1703.5829071501385, -0.088, 0.976, 0.28, 192.0, 0.0, 0.0, 0.0, 0.0, 0.0, 0.0, 0.0, 0.0, 0.0, 1.7068831176717148E9, 0.0, 2024-02-02 15:11:57.671
26.0, 62744.65474422631, 65155.223328497814, -31571.503766954396, -3381.997750043601, 16779.87924574366, 6437.905900228728, 25129.01575911233, 5909.331847349626, 40257.48106926454, 46883.78982350705, 37357.36457793291, 48310.5016720893, 23431.02078807602, 26622.581675360405, -8335.256080061923, -1715.138759033532, -0.088, 0.976, 0.28, 192.0, 0.0, 0.0, 0.0, 0.0, 0.0, 0.0, 0.0, 0.0, 0.0, 1.7068831176797352E9, 0.0, 2024-02-02 15:11:57.679
28.0, 62740.65378196881, 65156.966764565324, -31589.787493918837, -3390.558468169984, 16769.84331248323, 6427.735856501563, 25125.908866633043, 5908.817757227154, 40378.15813757874, 46891.52352708859, 37351.15079297433, 48310.7028377894, 23426.77395662951, 26600.587558816384, -8340.687553964563, -1723.0959800596215, -0.08600000000000001, 0.984, 0.28, 192.0, 126.5, 40.0, 15.0, 96.0, 4.0, 96.0, 0.0, 0.0, 0.0, 1.7068831176880107E9, 0.0, 2024-02-02 15:11:57.688
30.0, 62753.55073851952, 65173.35059325107, -31590.72626718596, -3391.0055030590897, 16773.151370662614, 6432.474426326087, 25129.887477146087, 5918.6078212985785, 40481.69141789573, 46878.24659088214, 37345.49580162714, 48300.286924873224, 23421.767165871523, 26587.26591912102, -8348.734181968473, -1742.2961285467302, -0.08600000000000001, 0.984, 0.28, 192.0, 0.0, 0.0, 0.0, 0.0, 0.0, 0.0, 0.0, 0.0, 0.0, 1.7068831176958048E9, 0.0, 2024-02-02 15:11:57.695
32.0, 62759.60806126691, 65182.626567200015, -31598.2588050674, -3389.999674558601, 16778.538141076344, 6425.858309967317, 25129.686311445992, 5921.580603311134, 40592.95840179425, 46895.569192835, 37359.286827956064, 48312.401570368005, 23432.719520654624, 26614.758564801046, -8336.060742862313, -1730.6508696855153, -0.08600000000000001, 0.984, 0.28, 192.0, 0.0, 0.0, 0.0, 0.0, 0.0, 0.0, 0.0, 0.0, 0.0, 1.7068831177037723E9, 0.0, 2024-02-02 15:11:57.703
34.0, 62757.59640426593, 65179.05028808717, -31615.06731689779, -3404.3047910099976, 16767.004640937404, 6413.877774939272, 25132.145003336074, 5916.953792208886, 40639.293568050096, 46884.97446596318, 37342.791240548046, 48296.71064576038, 23420.582523415393, 26585.45542782014, -8352.913958181614, -1744.2630820587972, -0.08600000000000001, 0.984, 0.28, 192.0, 0.0, 0.0, 0.0, 0.0, 0.0, 0.0, 0.0, 0.0, 0.0, 1.7068831177130008E9, 0.0, 2024-02-02 15:11:57.713
36.0, 62766.80532298152, 65185.353480023565, -31607.713592971995, -3394.224154260654, 16778.60519630971, 6422.326734343378, 25136.660055716045, 5925.089827190617, 40700.872624024465, 46891.12119568839, 37356.93989478826, 48304.04201794172, 23430.037311319986, 26597.50301808155, -8340.59814698674, -1732.3943057530291, -0.08600000000000001, 0.984, 0.28, 192.0, 0.0, 0.0, 0.0, 0.0, 0.0, 0.0, 0.0, 0.0, 0.0, 1.7068831177198255E9, 0.0, 2024-02-02 15:11:57.719
38.0, 62770.1133811609, 65190.36027078155, -31616.810752965303, -3403.0083898315897, 16769.306870616303, 6423.757245988518, 25130.468622501925, 5922.340562622615, 40735.80840060811, 46901.58181209348, 37352.49189764165, 48302.09741617411, 23421.901276338253, 26606.39901237476, -8346.3201935673, -1732.014326097289, -0.088, 0.986, 0.276, 192.0, 126.5, 32.0, 15.0, 104.0, 4.0, 80.0, 0.0, 0.0, 0.0, 1.7068831177278192E9, 0.0, 2024-02-02 15:11:57.727
40.0, 62781.13279117737, 65205.0900703776, -31611.133409873655, -3395.162927527777, 16775.677117786065, 6434.284917626967, 25136.324779549217, 5932.376495883048, 40757.04255784066, 46898.698437058745, 37353.63183660887, 48304.10907317509, 23417.609741402834, 26600.565207071926, -8350.857597691727, -1732.5731197086716, -0.088, 0.986, 0.276, 192.0, 0.0, 0.0, 0.0, 0.0, 0.0, 0.0, 0.0, 0.0, 0.0, 1.7068831177358441E9, 0.0, 2024-02-02 15:11:57.735
42.0, 62787.90536974733, 65219.10461415108, -31614.93320643106, -3396.5040321950955, 16769.530388060855, 6427.981725690571, 25129.30633179025, 5927.995553969808, 40772.42055802591, 46908.28733543007, 37360.739691345654, 48311.88748024553, 23427.48921245208, 26605.013204218532, -8346.119027867202, -1728.0804190731549, -0.088, 0.986, 0.276, 192.0, 0.0, 0.0, 0.0, 0.0, 0.0, 0.0, 0.0, 0.0, 0.0, 1.7068831177442355E9, 0.0, 2024-02-02 15:11:57.744
44.0, 62808.67014034631, 65242.685704551426, -31605.433715037554, -3392.0560350484893, 16784.70722254601, 6437.078885683881, 25147.21007909895, 5939.529054108746, 40775.52745050519, 46910.38839940887, 37360.5161739011, 48308.26649764377, 23427.131584540795, 26607.65071006426, -8344.308536566323, -1732.6625266864928, -0.088, 0.986, 0.276, 192.0, 0.0, 0.0, 0.0, 0.0, 0.0, 0.0, 0.0, 0.0, 0.0, 1.7068831177518477E9, 0.0, 2024-02-02 15:11:57.751
46.0, 62814.43689041578, 65249.99472498831, -31608.697069728027, -3390.0890815364223, 16782.203827167014, 6434.016696693504, 25146.49482327638, 5939.931385508941, 40791.419540812916, 46905.02398073959, 37373.81546185201, 48317.54247159272, 23437.92747711271, 26614.065660722932, -8332.752684682928, -1722.3136690036856, -0.088, 0.986, 0.276, 192.0, 0.0, 0.0, 0.0, 0.0, 0.0, 0.0, 0.0, 0.0, 0.0, 1.7068831177598896E9, 0.0, 2024-02-02 15:11:57.759
48.0, 62802.74692806565, 65237.96948647136, -31619.984700677956, -3407.2328695336428, 16765.3059083588, 6424.852481466828, 25130.513325990836, 5928.487292347824, 40777.33794180607, 46909.36021916392, 37358.21394422221, 48305.22666039785, 23424.35996822834, 26617.284311924497, -8348.13068486818, -1731.3214220191744, -0.09, 0.99, 0.28200000000000003, 192.0, 126.5, 24.0, 15.0, 120.0, 4.0, 104.0, 0.0, 0.0, 0.0, 1.7068831177690303E9, 0.0, 2024-02-02 15:11:57.769
50.0, 62819.354274195946, 65254.44272213492, -31616.743697731938, -3398.2698200070645, 16779.968652721484, 6428.786388490962, 25135.855392915655, 5933.963469739374, 40780.06485462962, 46893.89281200085, 37356.17993547677, 48294.11784340356, 23418.615569903322, 26592.49622732356, -8360.111219896224, -1738.8539599006128, -0.09, 0.99, 0.28200000000000003, 192.0, 0.0, 0.0, 0.0, 0.0, 0.0, 0.0, 0.0, 0.0, 0.0, 1.7068831177760456E9, 0.0, 2024-02-02 15:11:57.776
52.0, 62836.2298412597, 65274.78280958925, -31611.669851740582, -3397.711026395682, 16779.409859110103, 6427.579394290376, 25146.02543664282, 5936.2209959293605, 40796.73925599328, 46914.00938201063, 37375.514194430616, 48320.649364072015, 23426.416328718227, 26609.215332176133, -8342.118065609702, -1722.0230963257668, -0.09, 0.99, 0.28200000000000003, 192.0, 0.0, 0.0, 0.0, 0.0, 0.0, 0.0, 0.0, 0.0, 0.0, 1.7068831177839203E9, 0.0, 2024-02-02 15:11:57.783
54.0, 62842.60008842946, 65281.264815481285, -31605.612528993195, -3399.901497352302, 16784.41664986809, 6432.317964114901, 25156.866032703645, 5943.977051255352, 40781.562421508126, 46914.25525119963, 37374.28484848557, 48320.53760534974, 23430.707863653646, 26602.9791954731, -8348.287147079367, -1729.1533028070096, -0.09, 0.99, 0.28200000000000003, 192.0, 0.0, 0.0, 0.0, 0.0, 0.0, 0.0, 0.0, 0.0, 0.0, 1.706883117792066E9, 0.0, 2024-02-02 15:11:57.792
56.0, 62836.609820915444, 65279.63313813605, -31597.767066689383, -3380.768404098559, 16795.056080228816, 6442.152731675235, 25164.73384675191, 5955.152923483005, 40796.00164842625, 46919.55261463554, 37385.59483117996, 48327.5560531087, 23444.387131260293, 26619.385375903297, -8331.612745715707, -1716.3904567230293, -0.09, 0.99, 0.28200000000000003, 192.0, 0.0, 0.0, 0.0, 0.0, 0.0, 0.0, 0.0, 0.0, 0.0, 1.7068831178002932E9, 0.0, 2024-02-02 15:11:57.800
58.0, 62816.202678227746, 65268.97135603087, -31619.202389622023, -3398.716854896171, 16775.878283486163, 6433.2790891264785, 25139.610485984147, 5939.372591897559, 40766.89967714545, 46922.05601001454, 37364.85241232543, 48318.66005881549, 23431.847802620865, 26609.863532765336, -8345.64964123364, -1726.8957766170236, -0.09, 0.99, 0.28200000000000003, 192.0, 126.5, 24.0, 15.0, 120.0, 4.0, 104.0, 0.0, 0.0, 0.0, 1.7068831178079655E9, 0.0, 2024-02-02 15:11:57.807
60.0, 62844.231765774704, 65279.74489685833, -31605.456066782008, -3387.585686157428, 16778.381678865157, 6443.538539831465, 25145.734863964903, 5949.050897246707, 40767.30200854564, 46924.60410888244, 37378.1740520208, 48324.38210539605, 23427.891543852278, 26622.671082338227, -8348.711830224018, -1726.1805207944537, -0.09, 0.99, 0.28200000000000003, 192.0, 0.0, 0.0, 0.0, 0.0, 0.0, 0.0, 0.0, 0.0, 0.0, 1.706883117815996E9, 0.0, 2024-02-02 15:11:57.815
62.0, 62815.42036717181, 65254.50977736829, -31609.54643601733, -3387.5409826685172, 16777.08527768675, 6444.700830543141, 25147.6347622436, 5951.241368203327, 40748.52654320318, 46929.454437429245, 37381.05742705553, 48331.02057349928, 23437.703959668157, 26610.824657776913, -8345.001440644437, -1713.5517851772054, -0.09, 0.99, 0.28200000000000003, 192.0, 0.0, 0.0, 0.0, 0.0, 0.0, 0.0, 0.0, 0.0, 0.0, 1.7068831178239791E9, 0.0, 2024-02-02 15:11:57.823
64.0, 62769.73340150517, 65238.215355660366, -31609.54643601733, -3390.4467094477072, 16783.902559745617, 6443.18091192018, 25150.7863582118, 5949.386173413536, 40711.66851659638, 46914.56817562201, 37367.62402863789, 48318.615355326576, 23429.567924686424, 26626.336768428897, -8343.816798188305, -1711.1825002649427, -0.09, 0.99, 0.28200000000000003, 192.0, 0.0, 0.0, 0.0, 0.0, 0.0, 0.0, 0.0, 0.0, 0.0, 1.706883117832017E9, 0.0, 2024-02-02 15:11:57.832
66.0, 62779.81403825451, 65232.135681168525, -31593.877863154157, -3375.806316829481, 16796.12896396267, 6456.65901382673, 25159.570593782737, 5957.075173506162, 40690.747283786215, 46914.210547710725, 37377.25763049813, 48322.19163443943, 23434.753529400055, 26627.23083820711, -8329.243460803445, -1701.2136222378758, -0.09, 0.99, 0.28200000000000003, 192.0, 0.0, 0.0, 0.0, 0.0, 0.0, 0.0, 0.0, 0.0, 0.0, 1.7068831178399873E9, 0.0, 2024-02-02 15:11:57.839
68.0, 62756.83644495445, 65220.19984962939, -31597.72236320047, -3374.576970884439, 16786.89769350263, 6443.695002042652, 25146.02543664282, 5939.260833175282, 40658.11373688147, 46925.38641993838, 37383.35965673443, 48322.63866932853, 23441.146128314274, 26632.595256876382, -8316.234745530457, -1686.2826569417307, -0.08, 0.994, 0.28200000000000003, 192.0, 126.5, 64.0, 15.5, 8.0, 4.0, 104.0, 0.0, 0.0, 0.0, 1.7068831178479743E9, 0.0, 2024-02-02 15:11:57.847
70.0, 62725.96868586168, 65197.62458772953, -31598.035287622846, -3381.9306948102353, 16784.126077190173, 6442.0856764418695, 25140.526907506814, 5929.783693526232, 40545.28213087108, 46899.43604462577, 37374.44131069676, 48309.16056742198, 23432.652465421255, 26616.6808148242, -8314.22308852948, -1692.1611657334765, -0.08, 0.994, 0.28200000000000003, 192.0, 0.0, 0.0, 0.0, 0.0, 0.0, 0.0, 0.0, 0.0, 0.0, 1.7068831178563585E9, 0.0, 2024-02-02 15:11:57.856
72.0, 62694.65389187979, 65170.04253507168, -31594.615470721183, -3373.7499563395927, 16783.254359156414, 6441.415124108211, 25142.73973020789, 5923.145225423005, 40434.55158883949, 46897.62555332489, 37365.74648210365, 48309.115863933075, 23437.815718390433, 26616.50200086856, -8299.11330927769, -1672.7374998018147, -0.08, 0.994, 0.28200000000000003, 192.0, 0.0, 0.0, 0.0, 0.0, 0.0, 0.0, 0.0, 0.0, 0.0, 1.7068831178640199E9, 0.0, 2024-02-02 15:11:57.864
74.0, 62705.76270887408, 65137.65485735594, -31594.83898816574, -3389.7314536251374, 16770.69267877253, 6420.426836064677, 25123.58428520969, 5899.631190256023, 40331.063012011415, 46885.42150085229, 37365.321798959, 48305.91956447597, 23431.043139820475, 26597.659480292736, -8308.143414037635, -1683.9804272628342, -0.08, 0.994, 0.28200000000000003, 192.0, 0.0, 0.0, 0.0, 0.0, 0.0, 0.0, 0.0, 0.0, 0.0, 1.7068831178710368E9, 0.0, 2024-02-02 15:11:57.871
76.0, 62697.67137738125, 65103.07670868358, -31583.819578149272, -3377.169773241255, 16780.393335866134, 6435.335449616367, 25131.541506235782, 5906.917858948453, 40161.0779954288, 46863.1591633748, 37368.652208882835, 48306.67952378745, 23437.30162826796, 26606.510771097037, -8307.919896593083, -1677.6772353264375, -0.08, 0.994, 0.28200000000000003, 192.0, 0.0, 0.0, 0.0, 0.0, 0.0, 0.0, 0.0, 0.0, 0.0, 1.706883117880028E9, 0.0, 2024-02-02 15:11:57.880
78.0, 62677.82302830494, 65065.30226055411, -31580.48916822543, -3388.256238491087, 16787.389431880645, 6436.2742228834895, 25146.40541629856, 5908.303667104682, 39982.912240375554, 46864.05323315302, 37362.572534390994, 48304.489052830824, 23435.759357900544, 26601.012241961034, -8300.052082544815, -1668.6694823109488, -0.08499999999999999, 0.99, 0.28300000000000003, 192.0, 126.5, 24.0, 15.0, 104.0, 4.0, 112.0, 0.0, 0.0, 0.0, 1.7068831178880863E9, 0.0, 2024-02-02 15:11:57.888
80.0, 62640.98735344259, 65018.38594894242, -31579.103360069203, -3392.7265873821484, 16783.254359156414, 6436.833016494873, 25129.194573067973, 5894.557344264668, 39879.06603563619, 46855.201942348715, 37354.97294127619, 48295.03426492623, 23443.962448115642, 26606.510771097037, -8301.21437325649, -1674.8609155250688, -0.08499999999999999, 0.99, 0.28300000000000003, 192.0, 0.0, 0.0, 0.0, 0.0, 0.0, 0.0, 0.0, 0.0, 0.0, 1.706883117895094E9, 0.0, 2024-02-02 15:11:57.895
82.0, 62645.99414420059, 65029.874745592446, -31577.62814493515, -3386.021064045556, 16781.17564692207, 6437.280051383978, 25134.179012081506, 5896.457242543369, 39843.90674160799, 46843.71314569869, 37345.29463592704, 48289.58043927913, 23440.38616900279, 26596.430134347695, -8301.2590767454, -1671.172877689943, -0.08499999999999999, 0.99, 0.28300000000000003, 192.0, 0.0, 0.0, 0.0, 0.0, 0.0, 0.0, 0.0, 0.0, 0.0, 1.7068831179031076E9, 0.0, 2024-02-02 15:11:57.903
84.0, 62655.471283849634, 65013.78148958463, -31578.857490880193, -3389.6643983917716, 16777.08527768675, 6434.2178623936015, 25123.53958172078, 5893.685626230911, 39837.06710780467, 46851.916235913784, 37349.80968830701, 48296.30831436018, 23441.861384136842, 26590.685736022682, -8307.539916937341, -1679.66654058296, -0.08499999999999999, 0.99, 0.28300000000000003, 192.0, 0.0, 0.0, 0.0, 0.0, 0.0, 0.0, 0.0, 0.0, 0.0, 1.706883117912223E9, 0.0, 2024-02-02 15:11:57.912
86.0, 62631.644324260276, 64973.92832922081, -31577.62814493515, -3391.6313519038385, 16774.581882307753, 6436.341278116855, 25128.635779456592, 5894.914972175953, 39777.656171042465, 46830.83854089243, 37350.05555749602, 48292.687331758425, 23441.704921925655, 26604.45441060715, -8310.356236738711, -1679.532430116228, -0.08499999999999999, 0.99, 0.28300000000000003, 192.0, 0.0, 0.0, 0.0, 0.0, 0.0, 0.0, 0.0, 0.0, 0.0, 1.7068831179200995E9, 0.0, 2024-02-02 15:11:57.920
88.0, 62632.69485624968, 64966.082866917, -31574.454197222498, -3393.486546693629, 16779.52161783238, 6433.636717037763, 25136.280076060306, 5895.831393698621, 39746.900170671965, 46834.52657872756, 37346.03224349407, 48290.11688114606, 23439.805023646953, 26604.11913444032, -8304.701245391518, -1672.8939620130018, -0.08549999999999999, 0.983, 0.28350000000000003, 192.0, 126.5, 40.0, 15.0, 64.0, 4.0, 112.0, 0.0, 0.0, 0.0, 1.7068831179273274E9, 0.0, 2024-02-02 15:11:57.927
90.0, 62626.749292224566, 64960.40552382536, -31580.39976124761, -3391.3407792259195, 16777.286443386845, 6430.08278966937, 25123.740747420878, 5885.080204615618, 39761.20528712336, 46828.73747691363, 37347.82038305049, 48294.631933526034, 23443.649523693268, 26592.585634301384, -8306.355274481211, -1676.9396277594124, -0.08549999999999999, 0.983, 0.28350000000000003, 192.0, 0.0, 0.0, 0.0, 0.0, 0.0, 0.0, 0.0, 0.0, 0.0, 1.7068831179352005E9, 0.0, 2024-02-02 15:11:57.935
92.0, 62619.21675434313, 64963.02067792662, -31583.216081048977, -3398.6945031517153, 16775.4088968526, 6427.6464495237415, 25120.052709585754, 5881.995663880785, 39777.030322197716, 46827.105799568395, 37342.83594403695, 48292.396759080504, 23447.672837695223, 26596.810114003434, -8310.043312316337, -1679.308912671675, -0.08549999999999999, 0.983, 0.28350000000000003, 192.0, 0.0, 0.0, 0.0, 0.0, 0.0, 0.0, 0.0, 0.0, 0.0, 1.7068831179444304E9, 0.0, 2024-02-02 15:11:57.944
94.0, 62611.43834727268, 64954.37055282242, -31581.986735103936, -3402.4048927312965, 16777.107629431204, 6427.422932079188, 25116.16350605053, 5882.755623192265, 39786.79803452468, 46834.437171749734, 37336.845676522935, 48288.55225903419, 23443.53776497099, 26598.84412274887, -8314.603068185219, -1683.0640057401665, -0.08549999999999999, 0.983, 0.28350000000000003, 192.0, 0.0, 0.0, 0.0, 0.0, 0.0, 0.0, 0.0, 0.0, 0.0, 1.7068831179511478E9, 0.0, 2024-02-02 15:11:57.951
96.0, 62624.67057999022, 64973.86127398745, -31571.324952998755, -3396.1464042838106, 16786.785934780353, 6436.9224234726935, 25127.473488744916, 5897.060739643663, 39806.82519755664, 46816.86870060786, 37337.49387711214, 48280.25976184127, 23448.745721429077, 26582.192073129663, -8310.177422783068, -1682.0581772396777, -0.08549999999999999, 0.983, 0.28350000000000003, 192.0, 0.0, 0.0, 0.0, 0.0, 0.0, 0.0, 0.0, 0.0, 0.0, 1.7068831179591823E9, 0.0, 2024-02-02 15:11:57.959
98.0, 62626.190498613185, 64978.46573334524, -31573.87305186666, -3398.4933374516177, 16786.830638269264, 6435.268394383001, 25139.00698888385, 5899.877059445031, 39843.68322416344, 46833.63250894934, 37341.114859713896, 48287.568782278155, 23457.664067466747, 26608.522428098015, -8304.83535585825, -1673.13983120201, -0.08274999999999999, 0.9824999999999999, 0.28375000000000006, 192.0, 126.5, 64.0, 15.0, 88.0, 4.0, 112.0, 0.0, 0.0, 0.0, 1.7068831179683287E9, 0.0, 2024-02-02 15:11:57.968
100.0, 62614.8805159188, 64969.882663474404, -31590.34628753022, -3412.709046925193, 16773.97838520746, 6414.593030761842, 25118.801011896256, 5878.933474890408, 39854.16619231298, 46819.349744242405, 37329.648414808325, 48274.56006700517, 23444.29772428247, 26595.513712825028, -8318.425216487076, -1690.5518401326945, -0.08274999999999999, 0.9824999999999999, 0.28375000000000006, 192.0, 0.0, 0.0, 0.0, 0.0, 0.0, 0.0, 0.0, 0.0, 0.0, 1.7068831179754717E9, 0.0, 2024-02-02 15:11:57.975
102.0, 62621.67544623321, 64983.874855503425, -31584.244261293923, -3402.4719479646624, 16778.113457931693, 6419.376304075277, 25119.940950863478, 5882.420347025436, 39880.09421588114, 46812.44305520571, 37322.11587692689, 48270.4920495143, 23440.743796914077, 26577.25233760504, -8327.768245669395, -1698.7325786033368, -0.08274999999999999, 0.9824999999999999, 0.28375000000000006, 192.0, 0.0, 0.0, 0.0, 0.0, 0.0, 0.0, 0.0, 0.0, 0.0, 1.7068831179832523E9, 0.0, 2024-02-02 15:11:57.983
104.0, 62632.53839403849, 65004.23729470221, -31590.167473574576, -3406.539965455528, 16766.3564403482, 6413.788367961451, 25110.553218192246, 5875.424251010925, 39926.69760307045, 46821.093180309916, 37327.2120746627, 48272.30254081518, 23440.430872491703, 26584.27078536401, -8333.847920161239, -1699.9619245483786, -0.08274999999999999, 0.9824999999999999, 0.28375000000000006, 192.0, 0.0, 0.0, 0.0, 0.0, 0.0, 0.0, 0.0, 0.0, 0.0, 1.7068831179912145E9, 0.0, 2024-02-02 15:11:57.991
106.0, 62646.2847168785, 65037.362579984976, -31580.62327869216, -3395.833479861436, 16779.812190510296, 6425.478330311576, 25128.144041078573, 5895.5408210207015, 39969.52354544682, 46812.21953776116, 37325.1110106839, 48273.28601757122, 23439.939134113687, 26580.98507892908, -8335.993687628948, -1703.33703796113, -0.08274999999999999, 0.9824999999999999, 0.28375000000000006, 192.0, 0.0, 0.0, 0.0, 0.0, 0.0, 0.0, 0.0, 0.0, 0.0, 1.706883118000512E9, 0.0, 2024-02-02 15:11:58.000
108.0, 62651.02328670303, 65053.94757437082, -31585.518310727875, -3394.9170583387686, 16776.481780586455, 6427.847615223839, 25121.080889830697, 5899.07239664464, 40042.613749815675, 46832.4031630043, 37327.882626996354, 48283.00902640927, 23448.03046560651, 26589.36698309982, -8336.060742862313, -1699.984276292834, -0.078375, 0.98525, 0.28587500000000005, 192.0, 126.5, 88.0, 15.0, 112.0, 4.5, 0.0, 0.0, 0.0, 0.0, 1.7068831180072324E9, 0.0, 2024-02-02 15:11:58.007
110.0, 62662.44502811969, 65078.199217104826, -31587.82054040677, -3398.426282218252, 16782.874379500674, 6432.072094925892, 25139.27520981732, 5912.438739828914, 40104.32691625678, 46832.53727347103, 37328.24025490764, 48284.21602060986, 23439.5815062024, 26607.40484087525, -8336.999516129437, -1700.654828626493, -0.078375, 0.98525, 0.28587500000000005, 192.0, 0.0, 0.0, 0.0, 0.0, 0.0, 0.0, 0.0, 0.0, 0.0, 1.70688311801524E9, 0.0, 2024-02-02 15:11:58.015
112.0, 62672.63742359131, 65107.32354013009, -31593.274366053865, -3398.716854896171, 16776.973518964474, 6432.65324028173, 25136.078910360207, 5915.523280563746, 40168.49877458796, 46831.66555543728, 37325.021603706075, 48285.08773864362, 23436.273448023017, 26591.535102311984, -8344.017963888404, -1705.1251775175547, -0.078375, 0.98525, 0.28587500000000005, 192.0, 0.0, 0.0, 0.0, 0.0, 0.0, 0.0, 0.0, 0.0, 0.0, 1.7068831180243676E9, 0.0, 2024-02-02 15:11:58.024
114.0, 62689.177714488236, 65140.51588064622, -31592.58146197575, -3398.001599073601, 16782.65086205612, 6430.440417580655, 25138.247029572372, 5920.306553877182, 40239.3985080002, 46849.256378323604, 37336.219827678186, 48292.955552691885, 23445.415311505236, 26616.07731772391, -8342.430990032077, -1711.9871630653338, -0.078375, 0.98525, 0.28587500000000005, 192.0, 0.0, 0.0, 0.0, 0.0, 0.0, 0.0, 0.0, 0.0, 0.0, 1.706883118031283E9, 0.0, 2024-02-02 15:11:58.031
116.0, 62710.300112998506, 65166.354497236556, -31594.43665676554, -3400.125014796855, 16789.915179004096, 6440.118722929803, 25160.911698450054, 5940.93721400943, 40312.60047109133, 46842.03676486454, 37336.53275210056, 48287.3452648336, 23444.67770393821, 26592.78680000148, -8339.838187675261, -1719.4079422244959, -0.078375, 0.98525, 0.28587500000000005, 192.0, 0.0, 0.0, 0.0, 0.0, 0.0, 0.0, 0.0, 0.0, 0.0, 1.706883118039287E9, 0.0, 2024-02-02 15:11:58.039
118.0, 62712.95997058869, 65178.5361979647, -31612.20629360751, -3415.704180682204, 16778.202864909515, 6430.328658858378, 25147.567707010236, 5934.209338928383, 40392.70912321915, 46855.24664583762, 37337.44917362323, 48290.228639868335, 23438.709788168646, 26602.75567802855, -8341.93925165406, -1724.6606021714929, -0.0791875, 0.985625, 0.28593750000000007, 192.0, 126.5, 64.0, 15.0, 104.0, 4.0, 120.0, 0.0, 0.0, 0.0, 1.7068831180473151E9, 0.0, 2024-02-02 15:11:58.047
120.0, 62731.064883597486, 65203.257227332266, -31601.4104010356, -3405.9141166107797, 16793.22323718348, 6443.605595064831, 25161.582250783715, 5951.487237392335, 40476.192888759724, 46854.55374175951, 37338.41029863481, 48288.55225903419, 23436.07228232292, 26600.63226230529, -8340.50874000892, -1727.9463086064231, -0.0791875, 0.985625, 0.28593750000000007, 192.0, 0.0, 0.0, 0.0, 0.0, 0.0, 0.0, 0.0, 0.0, 0.0, 1.7068831180565329E9, 0.0, 2024-02-02 15:11:58.056
122.0, 62731.7577876756, 65209.560419268666, -31611.73690697395, -3407.2328695336428, 16783.544931834334, 6439.850501996339, 25150.54048902279, 5948.670917590966, 40563.96818923571, 46868.54593378853, 37348.84856329543, 48301.56097430718, 23443.82833764891, 26618.334843913897, -8334.540824239353, -1715.8093113671914, -0.0791875, 0.985625, 0.28593750000000007, 192.0, 0.0, 0.0, 0.0, 0.0, 0.0, 0.0, 0.0, 0.0, 0.0, 1.7068831180633206E9, 0.0, 2024-02-02 15:11:58.063
124.0, 62733.70238944321, 65212.2426286033, -31625.50558155842, -3426.7235906986703, 16773.151370662614, 6433.32379261539, 25139.6328377286, 5941.719525065366, 40615.95834683876, 46860.47695404017, 37336.19747593373, 48287.76994797825, 23426.68454965169, 26602.912140239736, -8350.432914547077, -1729.3768202515628, -0.0791875, 0.985625, 0.28593750000000007, 192.0, 0.0, 0.0, 0.0, 0.0, 0.0, 0.0, 0.0, 0.0, 0.0, 1.706883118071323E9, 0.0, 2024-02-02 15:11:58.071
126.0, 62757.194072865736, 65235.37668411454, -31615.78257272036, -3407.523442211562, 16788.819943525785, 6449.461752112121, 25156.4860530479, 5958.460981662391, 40672.73177775524, 46864.03088140856, 37346.32281617198, 48293.46964281436, 23425.38814847328, 26609.796477531967, -8344.353240055232, -1726.0240585832667, -0.0791875, 0.985625, 0.28593750000000007, 192.0, 0.0, 0.0, 0.0, 0.0, 0.0, 0.0, 0.0, 0.0, 0.0, 1.70688311808049E9, 0.0, 2024-02-02 15:11:58.080
128.0, 62762.446732812736, 65246.038466219725, -31617.97304367698, -3411.5244044690617, 16782.874379500674, 6446.734839288573, 25154.02736115782, 5954.169446726972, 40711.936737529846, 46885.22033515219, 37356.135231987864, 48306.456006342894, 23440.78850040299, 26621.84406779338, -8335.658411462118, -1715.4740352003616, -0.08259375, 0.9848125, 0.28596875000000005, 192.0, 126.5, 40.0, 15.0, 96.0, 4.0, 120.0, 0.0, 0.0, 0.0, 1.7068831180873404E9, 0.0, 2024-02-02 15:11:58.087
130.0, 62759.07161939998, 65247.26781216476, -31621.59402627874, -3410.4962242241177, 16783.097896945226, 6439.649336296241, 25149.51230877785, 5944.804065800198, 40740.88224659947, 46878.40305309332, 37357.29752269954, 48302.052712685196, 23431.199602031662, 26622.112288726843, -8340.642850475651, -1722.9395178484342, -0.08259375, 0.9848125, 0.28596875000000005, 192.0, 0.0, 0.0, 0.0, 0.0, 0.0, 0.0, 0.0, 0.0, 0.0, 1.7068831180953617E9, 0.0, 2024-02-02 15:11:58.095
132.0, 62758.40106706633, 65251.71580931137, -31630.691186272048, -3420.800378418014, 16780.14746667713, 6430.9321559586715, 25143.656151730556, 5937.092713963118, 40745.419650723896, 46874.04446292454, 37344.28880742655, 48294.40841608148, 23422.393014716272, 26604.83439026289, -8348.376554057188, -1731.72375341937, -0.08259375, 0.9848125, 0.28596875000000005, 192.0, 0.0, 0.0, 0.0, 0.0, 0.0, 0.0, 0.0, 0.0, 0.0, 1.706883118103386E9, 0.0, 2024-02-02 15:11:58.103
134.0, 62762.96082293521, 65258.17546345895, -31631.317035116797, -3423.057904608, 16781.93560623355, 6435.089580427359, 25135.855392915655, 5938.143245952517, 40755.63439793997, 46877.441928081746, 37343.43944113725, 48291.68150325793, 23423.331787983392, 26610.73525079909, -8350.991708158459, -1729.6003376961157, -0.08259375, 0.9848125, 0.28596875000000005, 192.0, 0.0, 0.0, 0.0, 0.0, 0.0, 0.0, 0.0, 0.0, 0.0, 1.7068831181126752E9, 0.0, 2024-02-02 15:11:58.112
136.0, 62766.782971237066, 65267.0044025188, -31628.3666048487, -3411.7255701691593, 16786.920045247083, 6446.645432310753, 25149.244087844385, 5953.3647839265805, 40772.73348244828, 46876.99489319264, 37348.446231895236, 48298.16350914997, 23425.499907195557, 26612.232817677595, -8347.616594745707, -1722.4030759815068, -0.08259375, 0.9848125, 0.28596875000000005, 192.0, 0.0, 0.0, 0.0, 0.0, 0.0, 0.0, 0.0, 0.0, 0.0, 1.706883118119383E9, 0.0, 2024-02-02 15:11:58.119
138.0, 62761.239738612145, 65275.36395494509, -31629.886523471658, -3416.0171051045786, 16785.89186500214, 6441.258661897024, 25158.587117026702, 5955.555254883201, 40780.89186917447, 46891.210602666215, 37348.22271445068, 48299.83988998412, 23423.48825019458, 26624.280407939008, -8348.242443590456, -1715.8093113671914, -0.08329687499999999, 0.9824062499999999, 0.28498437500000007, 192.0, 126.5, 48.0, 15.0, 80.0, 4.0, 112.0, 0.0, 0.0, 0.0, 1.7068831181274123E9, 0.0, 2024-02-02 15:11:58.127
140.0, 62764.816017724996, 65280.34839395862, -31630.11004091621, -3418.609907461394, 16783.83550451225, 6444.343202631856, 25161.559899039257, 5961.836095075142, 40792.179500124395, 46882.56047756201, 37348.49093538415, 48292.91084920298, 23422.996511816564, 26619.96652125913, -8346.096676122746, -1721.3301922476521, -0.08329687499999999, 0.9824062499999999, 0.28498437500000007, 192.0, 0.0, 0.0, 0.0, 0.0, 0.0, 0.0, 0.0, 0.0, 0.0, 1.7068831181364589E9, 0.0, 2024-02-02 15:11:58.136
142.0, 62780.57399756599, 65300.129687801564, -31620.87877045617, -3401.1531950417993, 16788.95405399252, 6452.7698102915065, 25167.03607643081, 5971.872028335575, 40804.74118050828, 46888.70720728722, 37355.77760407658, 48301.82919524064, 23427.757433385545, 26615.295006667973, -8341.93925165406, -1708.7238083748591, -0.08329687499999999, 0.9824062499999999, 0.28498437500000007, 192.0, 0.0, 0.0, 0.0, 0.0, 0.0, 0.0, 0.0, 0.0, 0.0, 1.7068831181435208E9, 0.0, 2024-02-02 15:11:58.143
144.0, 62781.602177810935, 65300.62142617958, -31627.53959030385, -3409.2445265346205, 16793.625568583677, 6446.533673588476, 25159.727055993924, 5964.898284065519, 40814.84416900208, 46898.49727135865, 37360.22560122319, 48309.384084866535, 23423.510601939037, 26631.924704542722, -8338.072399863291, -1706.8462618406131, -0.08329687499999999, 0.9824062499999999, 0.28498437500000007, 192.0, 0.0, 0.0, 0.0, 0.0, 0.0, 0.0, 0.0, 0.0, 0.0, 1.7068831181514595E9, 0.0, 2024-02-02 15:11:58.151
146.0, 62789.60410232593, 65306.87991462707, -31627.427831581575, -3412.2620120360866, 16789.110516203706, 6439.716391529607, 25160.151739138575, 5962.41724043098, 40824.25425341776, 46886.40497760833, 37359.75621458962, 48306.724227276354, 23422.281255993996, 26618.37954740281, -8342.565100498809, -1713.2165090103758, -0.08329687499999999, 0.9824062499999999, 0.28498437500000007, 192.0, 0.0, 0.0, 0.0, 0.0, 0.0, 0.0, 0.0, 0.0, 0.0, 1.7068831181594703E9, 0.0, 2024-02-02 15:11:58.159
148.0, 62791.727518049185, 65315.84296415365, -31627.964273448502, -3411.5244044690617, 16791.882132516163, 6442.51035958652, 25160.531718794315, 5963.735993353844, 40830.40098314297, 46895.27862015708, 37358.01277852211, 48307.46183484338, 23424.672892650713, 26615.764393301535, -8344.420295288599, -1719.6761631579595, -0.0806484375, 0.978203125, 0.28349218750000005, 192.0, 126.5, 72.0, 15.0, 56.0, 4.0, 104.0, 0.0, 0.0, 0.0, 1.7068831181687756E9, 0.0, 2024-02-02 15:11:58.168
150.0, 62800.86938153141, 65323.151984590535, -31621.281101856366, -3408.0375323340336, 16791.055117971315, 6440.789275263462, 25158.341247837692, 5962.193722986427, 40819.113352193046, 46896.105634701926, 37356.49285989915, 48307.9535732214, 23417.989721058577, 26619.675948581214, -8347.527187767886, -1723.0512765707108, -0.0806484375, 0.978203125, 0.28349218750000005, 192.0, 0.0, 0.0, 0.0, 0.0, 0.0, 0.0, 0.0, 0.0, 0.0, 1.7068831181755118E9, 0.0, 2024-02-02 15:11:58.175
152.0, 62816.60500962794, 65336.89830743054, -31614.97790991997, -3405.601192188405, 16793.200885439026, 6436.855368239328, 25160.196442627486, 5961.009080530296, 40854.07148052115, 46910.70132383124, 37376.60942990892, 48324.31505016268, 23434.105328810852, 26629.17543997472, -8334.764341683906, -1714.825834611158, -0.0806484375, 0.978203125, 0.28349218750000005, 192.0, 0.0, 0.0, 0.0, 0.0, 0.0, 0.0, 0.0, 0.0, 0.0, 1.7068831181835325E9, 0.0, 2024-02-02 15:11:58.183
154.0, 62817.40967242834, 65337.479452786385, -31620.722308244982, -3401.644933419816, 16790.630434826664, 6440.141074674258, 25159.190614126997, 5960.360879941092, 40855.390233444006, 46927.10750426144, 37373.21196475172, 48326.66198333049, 23442.26371553704, 26630.851820808868, -8338.98882138596, -1714.9375933334343, -0.0806484375, 0.978203125, 0.28349218750000005, 192.0, 0.0, 0.0, 0.0, 0.0, 0.0, 0.0, 0.0, 0.0, 0.0, 1.706883118191517E9, 0.0, 2024-02-02 15:11:58.191
156.0, 62825.61276264343, 65356.903118718044, -31598.661136467595, -3386.4680989346625, 16809.003568768927, 6456.211978937624, 25186.973832484942, 5981.975016829374, 40832.1891226994, 46910.45545464224, 37372.94374381826, 48318.548300093214, 23431.15489854275, 26635.568038888938, -8333.177367827579, -1714.7364276333367, -0.0806484375, 0.978203125, 0.28349218750000005, 192.0, 0.0, 0.0, 0.0, 0.0, 0.0, 0.0, 0.0, 0.0, 0.0, 1.7068831181985097E9, 0.0, 2024-02-02 15:11:58.198
158.0, 62806.59142811197, 65341.30160108824, -31618.487133799452, -3400.5049944525954, 16786.13773419115, 6443.538539831465, 25166.499634563883, 5965.032394532251, 40859.70412012388, 46943.62544341391, 37377.72701713169, 48337.90491079151, 23433.300666010462, 26645.425158193728, -8325.823643901784, -1696.4750524133508, -0.08132421875000001, 0.9811015624999999, 0.28774609375000004, 192.0, 126.5, 56.0, 15.0, 96.0, 4.5, 16.0, 0.0, 0.0, 0.0, 1.7068831182075567E9, 0.0, 2024-02-02 15:11:58.207
160.0, 62797.82954428549, 65344.184976122975, -31617.615415765697, -3406.0705788219666, 16795.167838951093, 6439.649336296241, 25155.793148969788, 5952.761286826288, 40824.14249469549, 46916.66923960081, 37374.35190371894, 48322.593965839624, 23422.34831122736, 26624.436870150195, -8340.55344349783, -1715.0270003112555, -0.08132421875000001, 0.9811015624999999, 0.28774609375000004, 192.0, 0.0, 0.0, 0.0, 0.0, 0.0, 0.0, 0.0, 0.0, 0.0, 1.7068831182166116E9, 0.0, 2024-02-02 15:11:58.216
162.0, 62775.83542774146, 65325.00717938032, -31626.44435482554, -3406.4058549887964, 16788.216446425493, 6433.457903082121, 25139.476375517414, 5941.540711109724, 40805.814064242135, 46905.895698773355, 37358.59392387795, 48311.03811395623, 23423.7788228725, 26633.98106503261, -8349.158865113124, -1726.3593347500962, -0.08132421875000001, 0.9811015624999999, 0.28774609375000004, 192.0, 0.0, 0.0, 0.0, 0.0, 0.0, 0.0, 0.0, 0.0, 0.0, 1.7068831182235456E9, 0.0, 2024-02-02 15:11:58.223
164.0, 62741.547851747026, 65325.34245554715, -31622.15281989012, -3412.440825991729, 16789.155219692617, 6433.703772271129, 25143.633799986103, 5943.7311820663435, 40792.29125884667, 46914.54582387755, 37363.51130765812, 48310.27815464475, 23417.92266582521, 26627.879038796313, -8343.325059810288, -1716.9045468455015, -0.08132421875000001, 0.9811015624999999, 0.28774609375000004, 192.0, 0.0, 0.0, 0.0, 0.0, 0.0, 0.0, 0.0, 0.0, 0.0, 1.7068831182307377E9, 0.0, 2024-02-02 15:11:58.230
166.0, 62707.215572263674, 65313.02664435228, -31632.45697408402, -3414.7877591595366, 16782.047364955826, 6434.597842049342, 25130.982712624398, 5936.735086051833, 40732.545045917635, 46890.450643354736, 37345.74167081615, 48291.41328232447, 23418.88379083679, 26625.17447771722, -8341.22399583149, -1720.0337910692444, -0.08132421875000001, 0.9811015624999999, 0.28774609375000004, 192.0, 0.0, 0.0, 0.0, 0.0, 0.0, 0.0, 0.0, 0.0, 0.0, 1.7068831182395968E9, 0.0, 2024-02-02 15:11:58.239
168.0, 62700.10771752688, 65304.60003669263, -31641.800003266337, -3427.8188261769806, 16767.496379315424, 6423.55608028842, 25114.688290916478, 5920.597126555101, 40700.02325773516, 46896.463262613215, 37355.59879012094, 48293.17907013644, 23418.101479780853, 26610.35527114335, -8342.632155732173, -1714.468206699873, -0.08066210937500001, 0.98155078125, 0.28687304687500004, 192.0, 126.5, 64.0, 15.0, 88.0, 4.0, 120.0, 0.0, 0.0, 0.0, 1.706883118247682E9, 0.0, 2024-02-02 15:11:58.247
170.0, 62685.28851095302, 65290.294920241235, -31620.25292161142, -3405.891764866324, 16782.896731245128, 6444.566720076409, 25132.569686480725, 5929.426065614947, 40562.940008990765, 46871.47401231218, 37347.328644672474, 48282.24906709779, 23407.037366275476, 26622.82754454941, -8342.430990032077, -1714.2223375108645, -0.08066210937500001, 0.98155078125, 0.28687304687500004, 192.0, 0.0, 0.0, 0.0, 0.0, 0.0, 0.0, 0.0, 0.0, 0.0, 1.7068831182546735E9, 0.0, 2024-02-02 15:11:58.254
172.0, 62675.43139164823, 65263.62928910605, -31612.943901174534, -3404.7294741546484, 16781.93560623355, 6436.2742228834895, 25134.380177781604, 5914.338638107614, 40420.827617743926, 46883.454547340225, 37360.7173396012, 48299.23639288383, 23428.24917176356, 26623.31928292743, -8313.329018751267, -1684.0251307517447, -0.08066210937500001, 0.98155078125, 0.28687304687500004, 192.0, 0.0, 0.0, 0.0, 0.0, 0.0, 0.0, 0.0, 0.0, 0.0, 1.7068831182636943E9, 0.0, 2024-02-02 15:11:58.263
174.0, 62685.98141503113, 65269.35133568661, -31609.188808106042, -3400.348532241408, 16781.577978322268, 6435.000173449537, 25128.233448056395, 5906.001437425785, 40336.80741033643, 46888.01430320911, 37356.31404594351, 48299.37050335056, 23418.83908734788, 26628.102556240865, -8311.004437327914, -1683.9580755183788, -0.08066210937500001, 0.98155078125, 0.28687304687500004, 192.0, 0.0, 0.0, 0.0, 0.0, 0.0, 0.0, 0.0, 0.0, 0.0, 1.7068831182717457E9, 0.0, 2024-02-02 15:11:58.271
176.0, 62661.282737408015, 65219.99868392929, -31608.607662750204, -3402.5613549424834, 16787.098859202728, 6431.379190847778, 25136.458890015947, 5901.26286760126, 40244.82998190284, 46881.57700080598, 37353.92240928679, 48298.67759927244, 23412.15591575574, 26615.205599690154, -8310.155071038613, -1681.6781975839374, -0.08066210937500001, 0.98155078125, 0.28687304687500004, 192.0, 0.0, 0.0, 0.0, 0.0, 0.0, 0.0, 0.0, 0.0, 0.0, 1.7068831182787223E9, 0.0, 2024-02-02 15:11:58.278
178.0, 62665.618975832345, 65203.61485524355, -31590.10041834121, -3394.0229885605563, 16793.200885439026, 6436.944775217149, 25141.532736007302, 5903.900373446986, 40147.24226561097, 46874.156221646816, 37360.270304712096, 48304.399645853, 23434.172384044217, 26627.275541696017, -8291.379605696155, -1664.7132235423594, -0.08066210937500001, 0.98155078125, 0.28687304687500004, 192.0, 0.0, 0.0, 0.0, 0.0, 0.0, 0.0, 0.0, 0.0, 0.0, 1.7068831182867131E9, 0.0, 2024-02-02 15:11:58.286
180.0, 62685.78024933103, 65210.20861985787, -31578.81278739128, -3391.0725582924556, 16795.346652906734, 6436.60949905032, 25136.257724315852, 5898.804175711176, 40087.96543931549, 46871.18343963426, 37368.20517399373, 48307.41713135447, 23427.422157218716, 26620.97234975962, -8294.59825689772, -1672.469278868351, -0.084, 0.982, 0.28800000000000003, 192.0, 126.5, 48.0, 15.0, 88.0, 4.5, 0.0, 0.0, 0.0, 0.0, 1.7068831182957816E9, 0.0, 2024-02-02 15:11:58.295
182.0, 62683.27685395204, 65210.27567509123, -31584.40072350511, -3392.6595321487825, 16789.89282725964, 6430.015734436004, 25126.959398622443, 5890.086995373606, 40047.01704347337, 46874.20092513572, 37371.20030775074, 48312.35686687909, 23423.465898450126, 26616.658463079748, -8297.92866682156, -1671.9328370014236, -0.084, 0.982, 0.28800000000000003, 192.0, 0.0, 0.0, 0.0, 0.0, 0.0, 0.0, 0.0, 0.0, 0.0, 1.706883118303651E9, 0.0, 2024-02-02 15:11:58.303
184.0, 62690.585874388926, 65221.96563744136, -31581.405589748098, -3389.7761571140477, 16795.436059884556, 6435.357801360822, 25135.140137093083, 5894.624399498034, 40029.56033105378, 46880.50411707212, 37374.39660720785, 48315.35200063611, 23428.964427586132, 26621.955826515656, -8297.54868716582, -1666.3449008875969, -0.084, 0.982, 0.28800000000000003, 192.0, 0.0, 0.0, 0.0, 0.0, 0.0, 0.0, 0.0, 0.0, 0.0, 1.7068831183109527E9, 0.0, 2024-02-02 15:11:58.310
186.0, 62704.73452862913, 65245.904355752995, -31584.668944438574, -3391.452537948196, 16789.021109225883, 6437.0341821949705, 25120.075061330208, 5888.410614539459, 40034.81299100077, 46872.16691639029, 37380.610392166425, 48318.57065183767, 23427.891543852278, 26623.386338160795, -8301.482594189954, -1668.6471305664934, -0.084, 0.982, 0.28800000000000003, 192.0, 0.0, 0.0, 0.0, 0.0, 0.0, 0.0, 0.0, 0.0, 0.0, 1.7068831183196893E9, 0.0, 2024-02-02 15:11:58.319
188.0, 62720.31369451448, 65277.17444624597, -31583.372543260164, -3391.1172617813663, 16792.21740868299, 6440.789275263462, 25132.63674171409, 5897.507774532768, 40053.387290643135, 46885.73442527466, 37380.78920612207, 48326.63963158603, 23427.511564196535, 26633.109346998855, -8303.851879102216, -1667.462488110362, -0.084, 0.982, 0.28800000000000003, 192.0, 0.0, 0.0, 0.0, 0.0, 0.0, 0.0, 0.0, 0.0, 0.0, 1.706883118328057E9, 0.0, 2024-02-02 15:11:58.328
190.0, 62729.790834163534, 65296.68751915545, -31583.171377560066, -3393.19597401571, 16795.905446518118, 6447.114818944314, 25135.8330411712, 5906.157899636973, 40066.3065989383, 46876.27963737007, 37371.312066473016, 48318.57065183767, 23418.704976881145, 26622.64873059377, -8314.40190248512, -1681.6111423505715, -0.08600000000000001, 0.982, 0.28800000000000003, 192.0, 126.5, 40.0, 15.0, 88.0, 4.5, 0.0, 0.0, 0.0, 0.0, 1.7068831183347387E9, 0.0, 2024-02-02 15:11:58.334
192.0, 62742.48662501414, 65325.00717938032, -31581.182072303545, -3391.832517603936, 16800.308740175813, 6447.22657766659, 25138.805823183757, 5910.494138061302, 40104.01399183441, 46891.27765789958, 37381.996200322654, 48330.99822175482, 23439.000360846563, 26629.89069579729, -8303.158975024102, -1673.9668457468565, -0.08600000000000001, 0.982, 0.28800000000000003, 192.0, 0.0, 0.0, 0.0, 0.0, 0.0, 0.0, 0.0, 0.0, 0.0, 1.7068831183428822E9, 0.0, 2024-02-02 15:11:58.342
194.0, 62743.64891572582, 65337.45710104193, -31593.92256664307, -3404.349494498908, 16791.524504604877, 6435.268394383001, 25120.11976481912, 5897.798347210687, 40116.6203757072, 46889.93655323226, 37368.16047050482, 48324.493864118325, 23426.81866011842, 26637.17736448972, -8324.549594467831, -1693.8822500565352, -0.08600000000000001, 0.982, 0.28800000000000003, 192.0, 0.0, 0.0, 0.0, 0.0, 0.0, 0.0, 0.0, 0.0, 0.0, 1.7068831183518069E9, 0.0, 2024-02-02 15:11:58.351
196.0, 62750.197976851225, 65357.99835419636, -31597.029459122357, -3403.9471630987127, 16790.876304015674, 6430.596879791842, 25120.700910174957, 5900.234687356316, 40151.55615229084, 46887.634323553364, 37368.652208882835, 48324.627974585055, 23423.15297402775, 26624.995663761576, -8332.283298049368, -1702.9347065609345, -0.08600000000000001, 0.982, 0.28800000000000003, 192.0, 0.0, 0.0, 0.0, 0.0, 0.0, 0.0, 0.0, 0.0, 0.0, 1.7068831183599238E9, 0.0, 2024-02-02 15:11:58.359
198.0, 62763.698430502234, 65371.811732269736, -31599.756371945903, -3408.2834015230424, 16790.94335924904, 6425.455978567122, 25121.505572975348, 5901.598143768089, 40187.85538528626, 46889.75773927662, 37365.00887453662, 48320.24703267182, 23424.76229962853, 26613.126887455808, -8339.212338830512, -1712.5683084211719, -0.08600000000000001, 0.982, 0.28800000000000003, 192.0, 0.0, 0.0, 0.0, 0.0, 0.0, 0.0, 0.0, 0.0, 0.0, 1.7068831183670888E9, 0.0, 2024-02-02 15:11:58.367
200.0, 62776.30481437503, 65386.496828376876, -31598.459970767497, -3410.4962242241177, 16801.538086120854, 6431.669763525697, 25133.106128347652, 5915.389170097014, 40229.22846427304, 46890.98708522166, 37368.42869143828, 48323.66684957348, 23422.460069949637, 26609.371794387316, -8344.085019121769, -1724.5264917047612, -0.08600000000000001, 0.982, 0.29, 192.0, 126.5, 40.0, 15.0, 88.0, 4.5, 8.0, 0.0, 0.0, 0.0, 1.7068831183748071E9, 0.0, 2024-02-02 15:11:58.374
202.0, 62769.57693929398, 65384.596930098174, -31609.792305206338, -3419.995715617623, 16795.860743029207, 6421.902051198727, 25126.042977099776, 5907.901335704486, 40282.69383701013, 46903.861690027916, 37375.4694909417, 48330.081800232154, 23432.227782276605, 26613.529218856005, -8335.971335884493, -1722.6712969149705, -0.08600000000000001, 0.982, 0.29, 192.0, 0.0, 0.0, 0.0, 0.0, 0.0, 0.0, 0.0, 0.0, 0.0, 1.7068831183837795E9, 0.0, 2024-02-02 15:11:58.383
204.0, 62777.28829113106, 65396.488058148396, -31621.25875011191, -3424.3096022974973, 16787.99292898094, 6416.7835017184625, 25114.464773471926, 5903.386283324514, 40295.970773216584, 46893.870460256396, 37361.946685546245, 48315.79903552521, 23418.548514669958, 26618.848934036367, -8353.56215877082, -1743.659584958504, -0.08600000000000001, 0.982, 0.29, 192.0, 0.0, 0.0, 0.0, 0.0, 0.0, 0.0, 0.0, 0.0, 0.0, 1.706883118390979E9, 0.0, 2024-02-02 15:11:58.390
206.0, 62784.23968365666, 65409.16149725456, -31613.994433163934, -3424.734285442148, 16783.4108213676, 6416.939963929649, 25118.24221828487, 5906.560231037168, 40350.33021573189, 46900.06189347052, 37375.17891826379, 48323.37627689556, 23416.179229757694, 26619.921817770224, -8351.930481425581, -1742.363183780096, -0.08600000000000001, 0.982, 0.29, 192.0, 0.0, 0.0, 0.0, 0.0, 0.0, 0.0, 0.0, 0.0, 0.0, 1.7068831183988166E9, 0.0, 2024-02-02 15:11:58.398
208.0, 62779.41170685431, 65414.727081623925, -31629.394785093642, -3420.129826084355, 16774.403068352112, 6412.201394105125, 25103.400659966548, 5902.134585635017, 40378.91809689022, 46906.163919706814, 37368.786319349565, 48325.34323040763, 23410.323072710406, 26604.320300140418, -8361.631138519186, -1745.9841663818559, -0.08600000000000001, 0.982, 0.29, 192.0, 0.0, 0.0, 0.0, 0.0, 0.0, 0.0, 0.0, 0.0, 0.0, 1.7068831184078567E9, 0.0, 2024-02-02 15:11:58.407
210.0, 62797.36015765192, 65433.94958185549, -31617.190732621046, -3412.440825991729, 16792.64209182764, 6431.066266425403, 25121.237352041884, 5920.93240272193, 40408.243585615586, 46905.694533073256, 37371.11090077292, 48326.75139030831, 23407.68556686468, 26614.82562003441, -8358.144266384157, -1740.530340734761, -0.084, 0.984, 0.29, 192.0, 126.5, 48.0, 15.0, 96.0, 4.5, 8.0, 0.0, 0.0, 0.0, 1.7068831184148536E9, 0.0, 2024-02-02 15:11:58.414
212.0, 62794.65559657283, 65430.440357976004, -31623.02453792388, -3420.3086400399975, 16791.815077282798, 6428.249946624034, 25132.860259158642, 5924.978068468341, 40455.58458037193, 46920.89371930286, 37382.33147648948, 48334.10511423411, 23424.20350601715, 26628.057852751954, -8344.464998777508, -1728.7062679179035, -0.084, 0.984, 0.29, 192.0, 0.0, 0.0, 0.0, 0.0, 0.0, 0.0, 0.0, 0.0, 0.0, 1.7068831184230595E9, 0.0, 2024-02-02 15:11:58.423
214.0, 62798.99183499716, 65431.60264868768, -31625.97496819198, -3428.2658610660865, 16794.07260347278, 6426.5288623009765, 25134.894267904077, 5926.453283602391, 40466.693397366216, 46912.15418722084, 37370.77562460609, 48321.275212916764, 23409.987796543577, 26614.51269561204, -8351.528150025386, -1735.5459017212274, -0.084, 0.984, 0.29, 192.0, 0.0, 0.0, 0.0, 0.0, 0.0, 0.0, 0.0, 0.0, 0.0, 1.7068831184308674E9, 0.0, 2024-02-02 15:11:58.430
216.0, 62802.47870713219, 65432.206145787975, -31624.142125146645, -3429.5399105000392, 16789.490495859445, 6425.858309967317, 25128.948703878967, 5925.134530679528, 40492.554365701006, 46904.19696619475, 37376.29650548655, 48323.3539251511, 23415.128697768298, 26612.568093844427, -8349.740010468962, -1736.2835092882526, -0.084, 0.984, 0.29, 192.0, 0.0, 0.0, 0.0, 0.0, 0.0, 0.0, 0.0, 0.0, 0.0, 1.7068831184398875E9, 0.0, 2024-02-02 15:11:58.439
218.0, 62799.774146053096, 65428.205183530474, -31634.49098282945, -3441.006355405612, 16780.661556799598, 6414.525975528476, 25111.91667460402, 5910.494138061302, 40507.9100141418, 46909.36021916392, 37367.91460131581, 48318.03420997074, 23410.34542445486, 26614.579750845405, -8359.351260584745, -1742.5196459912834, -0.084, 0.984, 0.29, 192.0, 0.0, 0.0, 0.0, 0.0, 0.0, 0.0, 0.0, 0.0, 0.0, 1.70688311844689E9, 0.0, 2024-02-02 15:11:58.446
220.0, 62809.139526979874, 65439.09048308021, -31634.02159619589, -3441.118114127888, 16785.02014696838, 6417.811681963406, 25119.203343296453, 5914.6739142744445, 40523.086848626954, 46911.99772500965, 37367.71343561571, 48317.87774775955, 23403.81871507391, 26605.97432923011, -8361.340565841267, -1748.1299338495653, -0.084, 0.98, 0.28800000000000003, 192.0, 126.5, 48.0, 15.0, 80.0, 4.5, 0.0, 0.0, 0.0, 0.0, 1.7068831184549167E9, 0.0, 2024-02-02 15:11:58.454
222.0, 62819.130756751394, 65452.18860533102, -31631.182924650067, -3438.502960026617, 16786.89769350263, 6422.259679110012, 25116.901113617554, 5917.222013142349, 40545.952683204734, 46914.74698957765, 37370.06036878352, 48319.48707336034, 23421.6777588937, 26613.17159094472, -8354.299766337845, -1742.363183780096, -0.084, 0.98, 0.28800000000000003, 192.0, 0.0, 0.0, 0.0, 0.0, 0.0, 0.0, 0.0, 0.0, 0.0, 1.706883118462983E9, 0.0, 2024-02-02 15:11:58.462
224.0, 62817.85670731744, 65453.28384080933, -31632.434622339562, -3437.452428037218, 16783.16495217859, 6414.280106339468, 25109.88266585859, 5909.376550838537, 40540.18593313527, 46919.15028323535, 37365.18768849226, 48323.89036701803, 23414.860476834834, 26607.06956470842, -8365.319176354311, -1749.851018172624, -0.084, 0.98, 0.28800000000000003, 192.0, 0.0, 0.0, 0.0, 0.0, 0.0, 0.0, 0.0, 0.0, 0.0, 1.7068831184709826E9, 0.0, 2024-02-02 15:11:58.470
226.0, 62825.59041089898, 65463.96797465897, -31630.422965338585, -3434.7031634692153, 16787.680004558566, 6417.252888352024, 25117.281093273294, 5916.059722430673, 40554.155773419836, 46915.84222505596, 37374.955400819235, 48330.79705605472, 23412.133564011285, 26604.722631540615, -8353.003365159437, -1741.9608523799006, -0.084, 0.98, 0.28800000000000003, 192.0, 0.0, 0.0, 0.0, 0.0, 0.0, 0.0, 0.0, 0.0, 0.0, 1.7068831184789383E9, 0.0, 2024-02-02 15:11:58.478
228.0, 62837.12391103792, 65475.72499224246, -31631.004110694423, -3436.2901373255418, 16784.394298123636, 6415.442397051143, 25113.34718624916, 5911.634077028522, 40562.180049679286, 46928.71682986222, 37370.753272861635, 48330.19355895443, 23412.06650877792, 26604.78968677398, -8360.111219896224, -1743.5254744917722, -0.084, 0.98, 0.28800000000000003, 192.0, 0.0, 0.0, 0.0, 0.0, 0.0, 0.0, 0.0, 0.0, 0.0, 1.706883118486966E9, 0.0, 2024-02-02 15:11:58.486
230.0, 62851.04904783357, 65495.260416896395, -31624.87973271367, -3426.701238954215, 16788.32820514777, 6425.5900890338535, 25121.371462508618, 5919.971277710352, 40563.14117469086, 46925.4758269162, 37376.85529909794, 48333.591024111636, 23416.626264646802, 26609.729422298602, -8361.027641418892, -1745.783000681758, -0.084, 0.984, 0.28800000000000003, 192.0, 126.5, 48.0, 15.0, 96.0, 4.5, 0.0, 0.0, 0.0, 0.0, 1.7068831184959977E9, 0.0, 2024-02-02 15:11:58.495
232.0, 62863.14134158389, 65503.88819025615, -31611.06635464029, -3417.224099305165, 16799.884057031162, 6438.129417673281, 25129.485145745894, 5932.6000133276, 40577.66980858682, 46945.9276730928, 37397.70947667473, 48354.199332499426, 23429.769090386522, 26631.343559186884, -8346.901338923137, -1729.1533028070096, -0.084, 0.984, 0.28800000000000003, 192.0, 0.0, 0.0, 0.0, 0.0, 0.0, 0.0, 0.0, 0.0, 0.0, 1.7068831185020342E9, 0.0, 2024-02-02 15:11:58.502
234.0, 62851.11610306694, 65496.020376207875, -31630.95940720551, -3426.6565354653044, 16778.672251543077, 6428.674629768686, 25108.20628502444, 5917.870213731553, 40573.914715518324, 46946.55352193755, 37388.25468877014, 48346.26446321779, 23420.582523415393, 26622.492268382583, -8359.015984417914, -1738.138704078043, -0.084, 0.984, 0.28800000000000003, 192.0, 0.0, 0.0, 0.0, 0.0, 0.0, 0.0, 0.0, 0.0, 0.0, 1.7068831185111456E9, 0.0, 2024-02-02 15:11:58.511
236.0, 62860.4367805048, 65507.48682111345, -31626.220837380988, -3425.471893009173, 16786.31654814679, 6428.60757453532, 25113.54835194926, 5921.200623655394, 40554.73691877567, 46933.45539968675, 37381.68327590028, 48343.291681205235, 23411.373604699806, 26614.557399100948, -8365.162714143124, -1741.4914657463391, -0.084, 0.984, 0.28800000000000003, 192.0, 0.0, 0.0, 0.0, 0.0, 0.0, 0.0, 0.0, 0.0, 0.0, 1.7068831185189803E9, 0.0, 2024-02-02 15:11:58.518
238.0, 62848.12096930993, 65497.45088785302, -31622.577503034772, -3422.767331930081, 16783.27671090087, 6424.696019255641, 25106.641662912567, 5919.747760265799, 40572.730073062194, 46948.453420216254, 37388.14293004786, 48346.53268415126, 23421.610703660335, 26616.591407846383, -8361.318214096811, -1741.7373349353475, -0.084, 0.984, 0.28800000000000003, 192.0, 0.0, 0.0, 0.0, 0.0, 0.0, 0.0, 0.0, 0.0, 0.0, 1.7068831185272255E9, 0.0, 2024-02-02 15:11:58.527
240.0, 62844.14235879688, 65487.32554761476, -31608.719421472484, -3409.2668782790756, 16794.050251728328, 6439.358763618322, 25129.485145745894, 5939.305536664193, 40568.17031719331, 46943.29016724708, 37392.59092719447, 48349.594873141636, 23426.59514267387, 26625.286236439497, -8348.711830224018, -1723.2300905263533, -0.08, 0.988, 0.28800000000000003, 192.0, 126.5, 64.0, 15.0, 112.0, 4.5, 0.0, 0.0, 0.0, 0.0, 1.7068831185350823E9, 0.0, 2024-02-02 15:11:58.535
242.0, 62829.36785571193, 65470.87466369566, -31613.905026186116, -3412.440825991729, 16787.232969669458, 6434.776656004984, 25122.332587520195, 5935.5727953401565, 40553.35111061944, 46938.37278346691, 37395.11667431792, 48349.013727785794, 23425.45520370665, 26622.671082338227, -8338.02769637438, -1714.2223375108645, -0.08, 0.988, 0.28800000000000003, 192.0, 0.0, 0.0, 0.0, 0.0, 0.0, 0.0, 0.0, 0.0, 0.0, 1.7068831185432441E9, 0.0, 2024-02-02 15:11:58.543
244.0, 62813.52046889311, 65458.53650075633, -31604.472590025973, -3412.1502533138105, 16800.956940765016, 6436.587147305864, 25130.714491690935, 5938.903205263997, 40547.45025008324, 46949.079269061, 37391.60745043844, 48349.661928375, 23427.958599085643, 26623.52044862753, -8337.401847529633, -1716.591622423127, -0.08, 0.988, 0.28800000000000003, 192.0, 0.0, 0.0, 0.0, 0.0, 0.0, 0.0, 0.0, 0.0, 0.0, 1.706883118552052E9, 0.0, 2024-02-02 15:11:58.552
246.0, 62793.76152679462, 65460.21288159047, -31610.082877884255, -3406.9199451112686, 16795.234894184458, 6437.905900228728, 25121.371462508618, 5936.846844774109, 40515.57666248997, 46924.44764667126, 37390.08753181547, 48347.18088474046, 23432.272485765516, 26624.615684105836, -8331.523338737887, -1712.8141776101802, -0.08, 0.988, 0.28800000000000003, 192.0, 0.0, 0.0, 0.0, 0.0, 0.0, 0.0, 0.0, 0.0, 0.0, 1.7068831185581737E9, 0.0, 2024-02-02 15:11:58.558
248.0, 62757.35053507693, 65419.86798284865, -31611.24516859593, -3410.0491893350113, 16800.576961109276, 6431.602708292331, 25136.34713129367, 5935.684554062433, 40497.024714592066, 46934.282414231595, 37388.20998528123, 48347.42675392947, 23414.279331478996, 26622.536971871494, -8322.068550833292, -1703.113520516577, -0.08, 0.988, 0.28800000000000003, 192.0, 0.0, 0.0, 0.0, 0.0, 0.0, 0.0, 0.0, 0.0, 0.0, 1.7068831185672946E9, 0.0, 2024-02-02 15:11:58.567
250.0, 62749.2592035841, 65408.93797981, -31614.620282008684, -3414.318372525975, 16797.917103519096, 6435.447208338644, 25130.5803812242, 5929.98485922633, 40437.189094685215, 46914.00938201063, 37377.05646479803, 48327.44429438643, 23430.68551190919, 26613.752736300557, -8319.855728132216, -1706.2651164847753, -0.078, 0.98, 0.28800000000000003, 192.0, 126.5, 72.0, 15.0, 80.0, 4.5, 0.0, 0.0, 0.0, 0.0, 1.70688311857568E9, 0.0, 2024-02-02 15:11:58.575
252.0, 62734.08236909895, 65397.96327328245, -31606.216026093487, -3404.4612532211845, 16798.520600619388, 6439.381115362778, 25124.97009336592, 5927.056780702685, 40429.18717017021, 46909.65079184184, 37391.13806380487, 48339.380125925556, 23438.821546890922, 26627.700224840668, -8311.943210595038, -1695.8492035686022, -0.078, 0.98, 0.28800000000000003, 192.0, 0.0, 0.0, 0.0, 0.0, 0.0, 0.0, 0.0, 0.0, 0.0, 1.706883118583109E9, 0.0, 2024-02-02 15:11:58.583
254.0, 62733.32240978747, 65377.75729629485, -31616.609587265208, -3414.7207039261707, 16779.387507365645, 6428.741685002052, 25107.491029201872, 5909.711827005366, 40377.04055035598, 46918.36797217941, 37383.44906371225, 48337.770800324775, 23424.069395550418, 26619.02774799201, -8317.017056586392, -1697.6149913805714, -0.078, 0.98, 0.28800000000000003, 192.0, 0.0, 0.0, 0.0, 0.0, 0.0, 0.0, 0.0, 0.0, 0.0, 1.7068831185912051E9, 0.0, 2024-02-02 15:11:58.591
0.0, 62729.07557834096, 65330.08102537168, -31613.54739827483, -3412.038494591534, 16782.85202775622, 6428.808740235418, 25107.334566990685, 5901.553440279179, 40319.2165874501, 46895.99387597965, 37381.14683403335, 48327.86897753108, 23418.43675594768, 26606.577826330406, -8319.11812056519, -1696.3185902021637, -0.078, 0.98, 0.28800000000000003, 192.0, 0.0, 0.0, 0.0, 0.0, 0.0, 0.0, 0.0, 0.0, 0.0, 1.706883118599134E9, 0.0, 2024-02-02 15:11:58.599
2.0, 62710.009540320585, 65299.39208023454, -31611.69220348504, -3409.825671890458, 16781.823847511274, 6427.847615223839, 25099.332642475685, 5890.869306429542, 40253.5024587515, 46898.81019578102, 37380.5209851886, 48331.557015366205, 23422.661235649735, 26610.042346720977, -8311.78674838385, -1683.5110406292727, -0.078, 0.98, 0.28800000000000003, 192.0, 0.0, 0.0, 0.0, 0.0, 0.0, 0.0, 0.0, 0.0, 0.0, 1.7068831186071572E9, 0.0, 2024-02-02 15:11:58.607
4.0, 62721.02895033705, 65301.58255119116, -31609.054697639313, -3418.4757969946622, 16783.32141438978, 6426.08182741187, 25099.086773286675, 5881.995663880785, 40205.222690728035, 46886.94141947525, 37375.62595315289, 48332.07110548867, 23419.889619337275, 26610.17645718771, -8315.385379241156, -1687.7131685868703, -0.084, 0.976, 0.28600000000000003, 192.0, 126.5, 48.0, 15.0, 64.0, 4.0, 120.0, 0.0, 0.0, 0.0, 1.7068831186141665E9, 0.0, 2024-02-02 15:11:58.614
6.0, 62726.90745912879, 65300.129687801564, -31607.98181390546, -3412.373770758363, 16783.83550451225, 6427.601746034831, 25108.653319913545, 5887.203620338872, 40182.356856150254, 46891.54587883304, 37377.25763049813, 48331.91464327749, 23422.191849016173, 26602.778029773002, -8316.704132164017, -1688.76370057627, -0.084, 0.976, 0.28600000000000003, 192.0, 0.0, 0.0, 0.0, 0.0, 0.0, 0.0, 0.0, 0.0, 0.0, 1.7068831186232002E9, 0.0, 2024-02-02 15:11:58.623
8.0, 62730.99782836412, 65309.942103617446, -31601.54451150233, -3412.6196399473715, 16792.753850549918, 6435.670725783197, 25121.438517741983, 5896.12196637654, 40182.82624278382, 46898.74314054765, 37384.29843000155, 48338.128428236065, 23429.098538052862, 26618.424250891716, -8309.640980916141, -1680.6053138500827, -0.084, 0.976, 0.28600000000000003, 192.0, 0.0, 0.0, 0.0, 0.0, 0.0, 0.0, 0.0, 0.0, 0.0, 1.7068831186311963E9, 0.0, 2024-02-02 15:11:58.631
10.0, 62728.47208124067, 65316.24529555385, -31609.233511594954, -3410.473872479662, 16780.393335866134, 6428.65227802423, 25101.38900296557, 5884.767280193243, 40163.559039063344, 46893.13285268937, 37383.15849103433, 48333.501617133814, 23430.707863653646, 26630.27067545303, -8316.480614719465, -1685.9250290304458, -0.084, 0.976, 0.28600000000000003, 192.0, 0.0, 0.0, 0.0, 0.0, 0.0, 0.0, 0.0, 0.0, 0.0, 1.7068831186381955E9, 0.0, 2024-02-02 15:11:58.638
12.0, 62736.719874944676, 65336.76419696381, -31617.302491343322, -3415.5253667265615, 16780.32628063277, 6422.863176210306, 25093.76705810631, 5880.185172579905, 40161.41327159563, 46901.40299813783, 37373.748406618644, 48333.90394853401, 23420.359005970837, 26612.054003721954, -8327.3659142692, -1690.3283226881413, -0.084, 0.976, 0.28600000000000003, 192.0, 0.0, 0.0, 0.0, 0.0, 0.0, 0.0, 0.0, 0.0, 0.0, 1.7068831186474516E9, 0.0, 2024-02-02 15:11:58.647
14.0, 62771.1639131503, 65374.62805207111, -31601.075124868767, -3404.237735776632, 16791.99389123844, 6435.044876938448, 25112.140192048573, 5895.853745443076, 40164.20723965255, 46901.492405115656, 37379.09047354347, 48342.241149215835, 23419.979026315097, 26615.920855512722, -8327.209452058012, -1695.625686124049, -0.08, 0.972, 0.294, 192.0, 126.5, 64.0, 15.0, 48.0, 4.5, 24.0, 0.0, 0.0, 0.0, 1.7068831186552167E9, 0.0, 2024-02-02 15:11:58.655
16.0, 62767.833503226466, 65386.29566267678, -31606.30543307131, -3417.939355127735, 16785.08720220175, 6422.483196554565, 25104.451191955948, 5889.6399604845, 40184.99436199598, 46912.95885002123, 37385.080741057485, 48348.58904464114, 23434.21708753313, 26619.8324107924, -8324.527242723376, -1697.369122191563, -0.08, 0.972, 0.294, 192.0, 0.0, 0.0, 0.0, 0.0, 0.0, 0.0, 0.0, 0.0, 0.0, 1.7068831186622872E9, 0.0, 2024-02-02 15:11:58.662
18.0, 62766.85002647043, 65399.46084016095, -31611.82631395177, -3412.8431573919247, 16784.729574290464, 6418.1916616191465, 25103.221846010907, 5889.282332573215, 40175.718388047026, 46910.47780638669, 37371.58028740648, 48340.363602681595, 23422.281255993996, 26607.963634486634, -8336.4183707736, -1705.5722124066608, -0.08, 0.972, 0.294, 192.0, 0.0, 0.0, 0.0, 0.0, 0.0, 0.0, 0.0, 0.0, 0.0, 1.7068831186702616E9, 0.0, 2024-02-02 15:11:58.670
20.0, 62784.97729122369, 65425.09829105119, -31605.321956315274, -3413.6925236812262, 16795.6148738402, 6424.070170410892, 25110.553218192246, 5898.200678610883, 40196.550213879374, 46908.35439066344, 37382.10795904493, 48345.817428328686, 23429.813793875433, 26609.75177404306, -8334.071437605791, -1705.8404333401245, -0.08, 0.972, 0.294, 192.0, 0.0, 0.0, 0.0, 0.0, 0.0, 0.0, 0.0, 0.0, 0.0, 1.706883118679246E9, 0.0, 2024-02-02 15:11:58.679
22.0, 62790.7216895487, 65435.80477664528, -31614.039136652846, -3423.795512175025, 16793.245588927937, 6419.219841864091, 25106.507552445837, 5892.992722152797, 40215.32567922183, 46919.7761320801, 37377.5705549205, 48348.00789928531, 23427.86919210782, 26612.009300233043, -8339.346449297243, -1711.6518868985042, -0.08, 0.972, 0.294, 192.0, 0.0, 0.0, 0.0, 0.0, 0.0, 0.0, 0.0, 0.0, 0.0, 1.7068831186872988E9, 0.0, 2024-02-02 15:11:58.687
24.0, 62812.44758515926, 65466.51607352687, -31602.796209191827, -3411.703218424704, 16801.22516169848, 6434.08375192687, 25124.92538987701, 5909.018922927252, 40231.73185965203, 46919.172634979805, 37384.097264301454, 48347.359698696106, 23426.63984616278, 26613.238646178084, -8340.754609197927, -1719.1397212910322, -0.081, 0.972, 0.294, 192.0, 126.5, 56.0, 15.0, 48.0, 4.5, 24.0, 0.0, 0.0, 0.0, 1.7068831186942737E9, 0.0, 2024-02-02 15:11:58.694
26.0, 62819.91306780733, 65476.97668993196, -31610.038174395348, -3421.7167999406815, 16796.017205240394, 6430.060437924914, 25115.8282298837, 5908.236611871316, 40274.33428458384, 46936.80816135504, 37396.01074409613, 48363.52000993729, 23433.613590432837, 26632.774070832023, -8333.736161438961, -1707.2485932408088, -0.081, 0.972, 0.294, 192.0, 0.0, 0.0, 0.0, 0.0, 0.0, 0.0, 0.0, 0.0, 0.0, 1.7068831187023373E9, 0.0, 2024-02-02 15:11:58.702
28.0, 62808.89365779086, 65471.94754742951, -31618.911816944103, -3425.158968586799, 16792.08329821626, 6421.410312820711, 25115.694119416967, 5907.655466515478, 40291.12044466978, 46927.420428683814, 37382.86791835641, 48350.10896326411, 23427.466860707627, 26616.50200086856, -8350.410562802621, -1721.7325236478478, -0.081, 0.972, 0.294, 192.0, 0.0, 0.0, 0.0, 0.0, 0.0, 0.0, 0.0, 0.0, 0.0, 1.7068831187113132E9, 0.0, 2024-02-02 15:11:58.711
30.0, 62827.64677138886, 65496.53446633035, -31611.73690697395, -3420.3980470178185, 16801.918065776594, 6430.596879791842, 25129.59690446817, 5922.206452155883, 40308.28658441146, 46922.77126583711, 37388.38879923687, 48352.52295166528, 23430.05966306444, 26609.32709089841, -8344.308536566323, -1720.6819916584484, -0.081, 0.972, 0.294, 192.0, 0.0, 0.0, 0.0, 0.0, 0.0, 0.0, 0.0, 0.0, 0.0, 1.7068831187183409E9, 0.0, 2024-02-02 15:11:58.718
32.0, 62819.93541955179, 65496.69092854154, -31618.196561121535, -3425.96363138719, 16795.12313546218, 6425.455978567122, 25124.83598289919, 5919.591298054612, 40341.16600050521, 46936.785809610585, 37391.45098822725, 48359.87667559108, 23433.144203799275, 26618.670120080726, -8344.375591799688, -1721.5090062032946, -0.081, 0.972, 0.294, 192.0, 0.0, 0.0, 0.0, 0.0, 0.0, 0.0, 0.0, 0.0, 0.0, 1.7068831187263556E9, 0.0, 2024-02-02 15:11:58.726
34.0, 62824.04814053156, 65502.43532686655, -31621.191694878544, -3422.409704018796, 16798.162972708105, 6430.552176302931, 25124.903038132554, 5925.3580481240815, 40353.10183204435, 46930.7284868632, 37391.16041554933, 48356.47921043387, 23432.071320065417, 26620.65942533725, -8342.565100498809, -1720.4584742138952, -0.0815, 0.973, 0.296, 192.0, 126.5, 56.0, 15.0, 56.0, 4.5, 40.0, 0.0, 0.0, 0.0, 1.7068831187354984E9, 0.0, 2024-02-02 15:11:58.735
36.0, 62826.395073699365, 65505.43046062356, -31621.661081512106, -3427.081218609955, 16800.129926220172, 6429.836920480361, 25127.406433511547, 5925.939193479919, 40366.66934092872, 46934.215358998226, 37392.59092719447, 48356.74743136733, 23429.72438689761, 26619.854762536856, -8339.257042319423, -1720.3914189805294, -0.0815, 0.973, 0.296, 192.0, 0.0, 0.0, 0.0, 0.0, 0.0, 0.0, 0.0, 0.0, 0.0, 1.70688311874351E9, 0.0, 2024-02-02 15:11:58.743
38.0, 62827.13268126639, 65505.542219345836, -31622.30928210131, -3434.0102593911006, 16801.873362287686, 6429.971030947093, 25131.20623006895, 5928.889623748019, 40376.437053255686, 46942.99959456916, 37389.52873820409, 48355.249864488826, 23431.847802620865, 26626.31441668444, -8338.340620796755, -1722.3807242370517, -0.0815, 0.973, 0.296, 192.0, 0.0, 0.0, 0.0, 0.0, 0.0, 0.0, 0.0, 0.0, 0.0, 1.706883118750393E9, 0.0, 2024-02-02 15:11:58.750
40.0, 62830.66425689033, 65503.82113502278, -31626.846686225737, -3430.0763523669666, 16795.167838951093, 6425.165405889203, 25120.276227030306, 5922.899356233997, 40375.40887301074, 46929.43208568479, 37382.24206951166, 48344.8115998282, 23429.433814219694, 26614.915027012234, -8343.459170277021, -1726.3816864945516, -0.0815, 0.973, 0.296, 192.0, 0.0, 0.0, 0.0, 0.0, 0.0, 0.0, 0.0, 0.0, 0.0, 1.706883118758418E9, 0.0, 2024-02-02 15:11:58.758
42.0, 62832.11712027992, 65506.2127716795, -31636.30147413033, -3441.8110182060027, 16792.08329821626, 6422.907879699216, 25122.01966309782, 5922.497024833801, 40387.74703595007, 46938.90922533384, 37378.97871482119, 48344.74454459483, 23424.40467171725, 26619.944169514678, -8351.215225603011, -1729.309765018197, -0.0815, 0.973, 0.296, 192.0, 0.0, 0.0, 0.0, 0.0, 0.0, 0.0, 0.0, 0.0, 0.0, 1.7068831187676687E9, 0.0, 2024-02-02 15:11:58.767
44.0, 62840.72254189522, 65518.93091427457, -31626.533761803363, -3421.6720964517713, 16802.007472754416, 6436.430685094677, 25130.558029479747, 5935.617498829067, 40384.77425393752, 46933.25423398665, 37378.665790398816, 48342.5093701493, 23425.723424640113, 26610.399974632262, -8350.947004669548, -1727.3204597616746, -0.07975, 0.9784999999999999, 0.294, 192.0, 126.5, 72.0, 15.0, 96.0, 4.5, 16.0, 0.0, 0.0, 0.0, 1.70688311877441E9, 0.0, 2024-02-02 15:11:58.774
46.0, 62824.2269544872, 65506.74921354643, -31644.34810213424, -3441.96748041719, 16785.578940579766, 6423.869004710795, 25119.31510201873, 5928.576699325646, 40386.31652430493, 46935.55646366555, 37377.816424109515, 48346.443277173435, 23429.456165964148, 26618.424250891716, -8349.404734302132, -1724.1241603045655, -0.07975, 0.9784999999999999, 0.294, 192.0, 0.0, 0.0, 0.0, 0.0, 0.0, 0.0, 0.0, 0.0, 0.0, 1.7068831187824235E9, 0.0, 2024-02-02 15:11:58.782
48.0, 62854.15594031286, 65529.99502777994, -31632.725195017483, -3433.4291140352625, 16802.588618110254, 6432.27326062599, 25135.58717198219, 5941.585414598634, 40397.827672699415, 46950.688594661784, 37379.40339796584, 48350.46659117539, 23423.465898450126, 26617.217256691132, -8349.65060349114, -1730.1814830519538, -0.07975, 0.9784999999999999, 0.294, 192.0, 0.0, 0.0, 0.0, 0.0, 0.0, 0.0, 0.0, 0.0, 0.0, 1.7068831187904325E9, 0.0, 2024-02-02 15:11:58.790
50.0, 62846.93632685379, 65523.513021887906, -31634.2674653849, -3435.5972332474275, 16801.22516169848, 6432.206205392624, 25135.8330411712, 5943.775885555254, 40396.844195943384, 46947.08996380448, 37382.06325555602, 48350.511294664306, 23427.48921245208, 26619.02774799201, -8347.907167423626, -1736.3282127771633, -0.07975, 0.9784999999999999, 0.294, 192.0, 0.0, 0.0, 0.0, 0.0, 0.0, 0.0, 0.0, 0.0, 0.0, 1.7068831187994592E9, 0.0, 2024-02-02 15:11:58.799
52.0, 62822.23764923068, 65505.51986760138, -31658.9214395191, -3454.037422423056, 16775.65476604161, 6406.658161480208, 25106.485200701383, 5918.183138153928, 40391.07744587391, 46941.256158501645, 37373.480185685185, 48343.98458528335, 23417.83325884739, 26600.364041371828, -8357.138437883668, -1742.787866924747, -0.07975, 0.9784999999999999, 0.294, 192.0, 0.0, 0.0, 0.0, 0.0, 0.0, 0.0, 0.0, 0.0, 0.0, 1.7068831188064797E9, 0.0, 2024-02-02 15:11:58.806
54.0, 62853.35127751247, 65533.03486502587, -31631.004110694423, -3424.644878464327, 16800.353443664724, 6436.721257772596, 25128.702834689957, 5941.250138431805, 40392.88793717479, 46940.60795791244, 37371.71439787321, 48343.716364349886, 23430.506697953548, 26615.27265492352, -8360.2229786185, -1742.787866924747, -0.077875, 0.98225, 0.29100000000000004, 192.0, 126.5, 80.0, 15.0, 104.0, 4.5, 0.0, 0.0, 0.0, 0.0, 1.7068831188144484E9, 0.0, 2024-02-02 15:11:58.814
56.0, 62826.35037021046, 65503.083527455754, -31643.342273633752, -3443.8450269514356, 16783.097896945226, 6420.806815720417, 25111.49199145937, 5926.632097558034, 40383.47785275911, 46941.882007346394, 37380.78920612207, 48348.79021034124, 23426.148107784764, 26617.55253285796, -8358.41248731762, -1733.5118929757946, -0.077875, 0.98225, 0.29100000000000004, 192.0, 0.0, 0.0, 0.0, 0.0, 0.0, 0.0, 0.0, 0.0, 0.0, 1.7068831188238225E9, 0.0, 2024-02-02 15:11:58.823
58.0, 62803.23866644367, 65496.91444598609, -31640.41419511011, -3429.450503522218, 16789.55755109281, 6427.020600678993, 25113.034261826786, 5929.6495830595, 40376.079425344404, 46943.513684691636, 37376.45296769774, 48347.67262311848, 23428.092709552373, 26618.290140424986, -8359.798295473849, -1737.4457999999286, -0.077875, 0.98225, 0.29100000000000004, 192.0, 0.0, 0.0, 0.0, 0.0, 0.0, 0.0, 0.0, 0.0, 0.0, 1.7068831188304806E9, 0.0, 2024-02-02 15:11:58.830
60.0, 62773.197921895735, 65470.8523119512, -31657.49092787396, -3441.5427972725392, 16776.727649775465, 6418.526937785976, 25099.176180264498, 5918.764283509766, 40337.61207313682, 46939.42331545631, 37368.29458097155, 48346.26446321779, 23414.413441945726, 26611.875189766313, -8358.233673361978, -1729.0191923402779, -0.077875, 0.98225, 0.29100000000000004, 192.0, 0.0, 0.0, 0.0, 0.0, 0.0, 0.0, 0.0, 0.0, 0.0, 1.7068831188385124E9, 0.0, 2024-02-02 15:11:58.838
62.0, 62792.39807038285, 65485.64916678062, -31637.374357864188, -3424.734285442148, 16792.731498805464, 6434.642545538252, 25114.15184904955, 5934.008173228285, 40320.13300897277, 46930.974356052204, 37368.76396760511, 48338.977794525366, 23418.079128036396, 26617.37371890232, -8360.334737340778, -1730.3155935186855, -0.077875, 0.98225, 0.29100000000000004, 192.0, 0.0, 0.0, 0.0, 0.0, 0.0, 0.0, 0.0, 0.0, 0.0, 1.7068831188464985E9, 0.0, 2024-02-02 15:11:58.846
64.0, 62767.051192170526, 65457.62007923366, -31625.282064113864, -3419.1016458394106, 16796.061908729305, 6438.397638606744, 25120.72326191941, 5937.852673274598, 40278.53641254144, 46936.69640263276, 37386.623011424905, 48346.08564926215, 23430.9313810982, 26615.473820623618, -8337.401847529633, -1707.2932967297193, -0.0799375, 0.9901249999999999, 0.28750000000000003, 192.0, 126.5, 56.0, 15.5, 24.0, 4.0, 112.0, 0.0, 0.0, 0.0, 1.7068831188555179E9, 0.0, 2024-02-02 15:11:58.855
66.0, 62720.31369451448, 65391.302453434764, -31622.39868907913, -3414.653648692805, 16786.674176058077, 6432.9885164485595, 25102.975976821897, 5919.837167243621, 40175.1819461801, 46918.63619311288, 37382.04090381157, 48341.19061722644, 23441.548459714468, 26620.36885265933, -8324.571946212285, -1693.6140291230715, -0.0799375, 0.9901249999999999, 0.28750000000000003, 192.0, 0.0, 0.0, 0.0, 0.0, 0.0, 0.0, 0.0, 0.0, 0.0, 1.706883118862533E9, 0.0, 2024-02-02 15:11:58.862
68.0, 62706.92499958575, 65319.28513279976, -31615.894331442636, -3416.195919060221, 16784.975443479474, 6427.221766379091, 25108.63096816909, 5907.811928726665, 40048.2016859295, 46913.584698865976, 37365.74648210365, 48332.741657822335, 23422.795346116465, 26616.770221802024, -8325.577774712774, -1690.6412471105157, -0.0799375, 0.9901249999999999, 0.28750000000000003, 192.0, 0.0, 0.0, 0.0, 0.0, 0.0, 0.0, 0.0, 0.0, 0.0, 1.706883118870535E9, 0.0, 2024-02-02 15:11:58.870
70.0, 62733.94825863222, 65230.63811429001, -31591.888557897637, -3403.902459609802, 16799.90640877562, 6434.329621115879, 25125.126555577106, 5908.54953629369, 39927.77048680431, 46907.147396462846, 37381.68327590028, 48344.498675405826, 23436.809889889944, 26620.74883231507, -8302.890754090638, -1670.1223457005437, -0.0799375, 0.9901249999999999, 0.28750000000000003, 192.0, 0.0, 0.0, 0.0, 0.0, 0.0, 0.0, 0.0, 0.0, 0.0, 1.706883118879801E9, 0.0, 2024-02-02 15:11:58.879
72.0, 62693.40219419029, 65027.03607404663, -31576.175281545555, -3407.7246079116594, 16798.341786663746, 6430.552176302931, 25114.82240138321, 5890.1987540958835, 39722.02267909321, 46911.64009709837, 37389.08170331499, 48352.50059992082, 23444.92357312722, 26630.158916730754, -8293.21244874149, -1648.8658367235466, -0.0799375, 0.9901249999999999, 0.28750000000000003, 192.0, 0.0, 0.0, 0.0, 0.0, 0.0, 0.0, 0.0, 0.0, 0.0, 1.7068831188866012E9, 0.0, 2024-02-02 15:11:58.886
74.0, 62671.40807764627, 64794.10854507787, -31559.210307503978, -3403.589535187428, 16806.455469901022, 6443.18091192018, 25125.0818520882, 5895.764338465255, 39511.91628121332, 46891.41176836631, 37372.78728160707, 48343.89517830553, 23442.330770770404, 26607.985986231088, -8295.425271442566, -1651.8609704805579, -0.08296875000000001, 0.9920625, 0.28775000000000006, 192.0, 126.5, 40.0, 15.5, 8.0, 4.5, 0.0, 0.0, 0.0, 0.0, 1.706883118894692E9, 0.0, 2024-02-02 15:11:58.894
76.0, 62686.00376677558, 64521.55137318985, -31551.968342300457, -3405.4447299772182, 16804.354405922222, 6442.108028186325, 25112.944854848964, 5884.0967278595845, 39338.7349651736, 46878.60421879342, 37385.88540385788, 48364.257617504314, 23439.380340502303, 26609.68471880969, -8286.953960294004, -1645.8930547109908, -0.08296875000000001, 0.9920625, 0.28775000000000006, 192.0, 0.0, 0.0, 0.0, 0.0, 0.0, 0.0, 0.0, 0.0, 0.0, 1.7068831189026692E9, 0.0, 2024-02-02 15:11:58.902
78.0, 62628.22450735862, 64238.511233152305, -31552.72830161194, -3405.556488699495, 16813.116289748705, 6456.547255104453, 25119.404508996548, 5894.937323920408, 39028.42569690057, 46866.109593642905, 37380.945668333254, 48369.04089081775, 23443.157785315252, 26612.098707210866, -8291.223143484967, -1645.758944244259, -0.08296875000000001, 0.9920625, 0.28775000000000006, 192.0, 0.0, 0.0, 0.0, 0.0, 0.0, 0.0, 0.0, 0.0, 0.0, 1.7068831189106731E9, 0.0, 2024-02-02 15:11:58.910
80.0, 62621.720149722125, 63993.73727962223, -31556.505746424886, -3410.898555624313, 16802.543914621343, 6455.384964392778, 25101.120782032107, 5889.617608740045, 38761.76938554876, 46839.42161076327, 37372.072025784495, 48368.92913209547, 23430.707863653646, 26606.488419352583, -8293.123041763669, -1649.9163687129462, -0.08296875000000001, 0.9920625, 0.28775000000000006, 192.0, 0.0, 0.0, 0.0, 0.0, 0.0, 0.0, 0.0, 0.0, 0.0, 1.706883118918661E9, 0.0, 2024-02-02 15:11:58.918
82.0, 62603.41407101323, 63864.7230106262, -31553.175336501045, -3409.356285256897, 16810.255266458425, 6458.760077805528, 25101.947796576955, 5889.505850017768, 38594.15365387841, 46832.96195661568, 37376.29650548655, 48382.943675868955, 23435.87111662282, 26617.30666366895, -8289.278541717356, -1645.3789645885188, -0.08296875000000001, 0.9920625, 0.28775000000000006, 192.0, 0.0, 0.0, 0.0, 0.0, 0.0, 0.0, 0.0, 0.0, 0.0, 1.7068831189267015E9, 0.0, 2024-02-02 15:11:58.926
84.0, 62553.10029424433, 63710.5853808624, -31566.027589562847, -3410.451520735207, 16804.220295455492, 6458.84948478335, 25083.52995914578, 5880.676910957923, 38423.18516053977, 46807.3468574699, 37361.1196710014, 48378.22745778888, 23433.412424732738, 26605.21436991863, -8294.285332475345, -1652.5762263031277, -0.082484375, 0.9900312499999999, 0.28587500000000005, 192.0, 126.5, 56.0, 15.0, 112.0, 4.0, 112.0, 0.0, 0.0, 0.0, 1.7068831189356883E9, 0.0, 2024-02-02 15:11:58.935
86.0, 62537.47642487007, 63595.473896917574, -31567.748673885904, -3412.127901569355, 16798.5653041083, 6459.475333628098, 25071.68353458447, 5876.273617300227, 38304.83267364892, 46791.83474681792, 37356.78343257707, 48385.514126481314, 23433.501831710557, 26605.437887363183, -8293.815945841783, -1650.497514068784, -0.082484375, 0.9900312499999999, 0.28587500000000005, 192.0, 0.0, 0.0, 0.0, 0.0, 0.0, 0.0, 0.0, 0.0, 0.0, 1.706883118941681E9, 0.0, 2024-02-02 15:11:58.941
88.0, 62513.202430391604, 63477.45668619355, -31573.82834837775, -3418.229927805654, 16794.65374882862, 6458.000118494048, 25063.86042402511, 5876.139506833495, 38260.30799869395, 46777.50727862207, 37351.039034252055, 48382.7201584244, 23428.472689208116, 26595.200788402653, -8301.750815123418, -1662.3439386300968, -0.082484375, 0.9900312499999999, 0.28587500000000005, 192.0, 0.0, 0.0, 0.0, 0.0, 0.0, 0.0, 0.0, 0.0, 0.0, 1.7068831189506664E9, 0.0, 2024-02-02 15:11:58.950
90.0, 62522.67957004066, 63385.30044380432, -31565.737016884927, -3416.195919060221, 16803.50503963292, 6464.124496474802, 25075.14805497504, 5891.919838418942, 38241.28666416248, 46760.81052551395, 37348.312121428506, 48380.46263223441, 23422.527125183, 26598.866474493323, -8298.822736599772, -1673.6539213244823, -0.082484375, 0.9900312499999999, 0.28587500000000005, 192.0, 0.0, 0.0, 0.0, 0.0, 0.0, 0.0, 0.0, 0.0, 0.0, 1.7068831189590516E9, 0.0, 2024-02-02 15:11:58.959
92.0, 62486.04506087841, 63281.05190766477, -31584.758351416393, -3428.1093988548996, 16788.976405736972, 6442.711525286619, 25058.42895012247, 5878.218219067839, 38221.86299823082, 46754.70849927765, 37347.95449351722, 48378.5180304668, 23433.16655554373, 26588.91994821071, -8293.346559208221, -1670.725842800837, -0.082484375, 0.9900312499999999, 0.28587500000000005, 192.0, 0.0, 0.0, 0.0, 0.0, 0.0, 0.0, 0.0, 0.0, 0.0, 1.706883118966724E9, 0.0, 2024-02-02 15:11:58.966
94.0, 62461.72636291103, 63247.50193923735, -31593.430828265053, -3427.9082331548016, 16779.342803876734, 6439.850501996339, 25046.738987772347, 5876.005396366763, 38222.55590230893, 46716.375257536805, 37321.22180714867, 48355.49573367784, 23404.19869472965, 26565.808244443924, -8312.859632117705, -1686.2603051972753, -0.0802421875, 0.981015625, 0.28593750000000007, 192.0, 126.5, 72.0, 15.0, 48.0, 4.0, 120.0, 0.0, 0.0, 0.0, 1.7068831189747963E9, 0.0, 2024-02-02 15:11:58.974
96.0, 62456.47370296404, 63278.83908496369, -31586.77000841737, -3420.6662679512824, 16790.697490060033, 6448.947661989649, 25047.856574995112, 5885.2143150823495, 38328.59257800491, 46713.15660633524, 37331.48125785366, 48362.62594015908, 23421.54364842697, 26579.040477161467, -8299.672102889073, -1673.2515899242867, -0.0802421875, 0.981015625, 0.28593750000000007, 192.0, 0.0, 0.0, 0.0, 0.0, 0.0, 0.0, 0.0, 0.0, 0.0, 1.706883118983094E9, 0.0, 2024-02-02 15:11:58.983
98.0, 62450.32697323883, 63292.09366942569, -31594.570767232275, -3424.376657530863, 16781.913254489096, 6444.879644498783, 25047.76716801729, 5887.3824342945145, 38428.974262353695, 46718.185748837685, 37317.9584524582, 48351.91945456499, 23414.011110545533, 26578.68284925018, -8310.557402438808, -1683.0193022512558, -0.0802421875, 0.981015625, 0.28593750000000007, 192.0, 0.0, 0.0, 0.0, 0.0, 0.0, 0.0, 0.0, 0.0, 0.0, 1.706883118990726E9, 0.0, 2024-02-02 15:11:58.990
100.0, 62457.993621587, 63292.85362873717, -31593.274366053865, -3426.030686620556, 16780.236873654947, 6439.626984551786, 25049.57765931817, 5892.702149474878, 38479.26568737813, 46689.91079210172, 37319.38896410334, 48346.510332406804, 23409.652520376745, 26566.881128177778, -8312.725521650973, -1686.148546474999, -0.0802421875, 0.981015625, 0.28593750000000007, 192.0, 0.0, 0.0, 0.0, 0.0, 0.0, 0.0, 0.0, 0.0, 0.0, 1.706883118997759E9, 0.0, 2024-02-02 15:11:58.997
102.0, 62446.21425225905, 63241.82459614571, -31597.744714944925, -3428.444675021729, 16776.6605945421, 6437.838844995362, 25039.877002224566, 5892.478632030325, 38493.79432127409, 46694.91758285971, 37324.30634788351, 48350.01955628629, 23411.82063958891, 26571.753808469035, -8303.516602935386, -1677.8336975376246, -0.0802421875, 0.981015625, 0.28593750000000007, 192.0, 0.0, 0.0, 0.0, 0.0, 0.0, 0.0, 0.0, 0.0, 0.0, 1.7068831190067608E9, 0.0, 2024-02-02 15:11:59.006
104.0, 62451.24339476149, 63246.54081422577, -31585.808883405793, -3420.5992127179165, 16783.79080102334, 6449.886435256772, 25047.901278484023, 5901.620495512545, 38526.137295500914, 46690.62604792429, 37326.13919092884, 48346.82325682918, 23412.334729711383, 26575.575956770892, -8305.081225047257, -1679.823002794147, -0.07812109375000001, 0.9775078125, 0.28596875000000005, 192.0, 126.5, 80.0, 15.0, 56.0, 4.0, 120.0, 0.0, 0.0, 0.0, 1.7068831190150683E9, 0.0, 2024-02-02 15:11:59.015
106.0, 62430.94801079608, 63247.63604970409, -31598.750543445414, -3436.379544303363, 16776.392373608636, 6442.0856764418695, 25045.017903449287, 5896.390187310003, 38575.60170598051, 46679.20430650763, 37325.7592112731, 48339.04484975873, 23415.53102916849, 26578.347573083352, -8303.002512812915, -1677.3866626485185, -0.07812109375000001, 0.9775078125, 0.28596875000000005, 192.0, 0.0, 0.0, 0.0, 0.0, 0.0, 0.0, 0.0, 0.0, 0.0, 1.7068831190227792E9, 0.0, 2024-02-02 15:11:59.022
108.0, 62428.15404273916, 63264.15398885656, -31603.153837103113, -3432.669154723782, 16771.89967297312, 6440.498702585543, 25038.37943534606, 5894.557344264668, 38620.394601868946, 46673.25874248252, 37309.84476922092, 48328.56188160919, 23405.718613352612, 26566.21057584412, -8313.798405384829, -1686.1038429860882, -0.07812109375000001, 0.9775078125, 0.28596875000000005, 192.0, 0.0, 0.0, 0.0, 0.0, 0.0, 0.0, 0.0, 0.0, 0.0, 1.7068831190298023E9, 0.0, 2024-02-02 15:11:59.029
110.0, 62445.27547899193, 63317.55230636029, -31603.26559582539, -3438.480608282162, 16780.438039355045, 6429.7028100136295, 25056.64081056605, 5901.844012957098, 38699.98916387429, 46661.03233826546, 37314.3598216009, 48331.266442688284, 23407.216180231117, 26574.659535248225, -8313.284315262355, -1689.6577703544822, -0.07812109375000001, 0.9775078125, 0.28596875000000005, 192.0, 0.0, 0.0, 0.0, 0.0, 0.0, 0.0, 0.0, 0.0, 0.0, 1.70688311903881E9, 0.0, 2024-02-02 15:11:59.038
112.0, 62441.989772557, 63368.626042440665, -31606.17132260458, -3435.8878059253466, 16775.766524763887, 6429.41223733571, 25056.551403588226, 5908.191908382405, 38769.704254830394, 46653.90213178422, 37303.45217030671, 48320.82817802765, 23399.840104560866, 26549.02208435799, -8325.443664246042, -1702.2865059717305, -0.07812109375000001, 0.9775078125, 0.28596875000000005, 192.0, 0.0, 0.0, 0.0, 0.0, 0.0, 0.0, 0.0, 0.0, 0.0, 1.7068831190468454E9, 0.0, 2024-02-02 15:11:59.046
114.0, 62455.669040163644, 63428.61812455871, -31598.68348821205, -3430.0092971336007, 16781.667385300087, 6438.889376984761, 25057.400769877528, 5916.059722430673, 38855.26673260531, 46666.933198801664, 37309.59890003192, 48331.557015366205, 23405.29393020796, 26562.187261842166, -8323.633172945163, -1698.7772820922473, -0.07812109375000001, 0.9775078125, 0.28596875000000005, 192.0, 0.0, 0.0, 0.0, 0.0, 0.0, 0.0, 0.0, 0.0, 0.0, 1.7068831190541015E9, 0.0, 2024-02-02 15:11:59.054
116.0, 62466.308470524375, 63484.49748569697, -31604.383183048154, -3437.407724548307, 16777.286443386845, 6435.626022294286, 25060.686476312458, 5915.411521841469, 38954.37436752014, 46658.685405097654, 37310.18004538775, 48332.182864210954, 23404.10928775183, 26563.573069998394, -8320.973315354982, -1697.4585291693843, -0.074, 0.98, 0.28800000000000003, 192.0, 126.5, 88.0, 15.0, 80.0, 4.5, 0.0, 0.0, 0.0, 0.0, 1.7068831190628283E9, 0.0, 2024-02-02 15:11:59.062
118.0, 62459.75940939897, 63547.52940506094, -31619.895293700138, -3455.512637557106, 16768.256338626903, 6420.605650020319, 25045.464938338395, 5900.726425734333, 39074.023255589396, 46655.1091259848, 37297.46190279268, 48317.72128554837, 23397.42611615969, 26564.623601987794, -8338.02769637438, -1721.173730036465, -0.074, 0.98, 0.28800000000000003, 192.0, 0.0, 0.0, 0.0, 0.0, 0.0, 0.0, 0.0, 0.0, 0.0, 1.7068831190708299E9, 0.0, 2024-02-02 15:11:59.070
120.0, 62484.65925272218, 63670.08401990939, -31613.48034304146, -3445.6555182523157, 16780.54979807732, 6432.429722837177, 25056.19377567694, 5914.36098985207, 39266.73999628305, 46642.34627990083, 37302.021658661564, 48321.14110245003, 23399.884808049777, 26547.05513084592, -8343.883853421672, -1724.7947126382248, -0.074, 0.98, 0.28800000000000003, 192.0, 0.0, 0.0, 0.0, 0.0, 0.0, 0.0, 0.0, 0.0, 0.0, 1.7068831190778537E9, 0.0, 2024-02-02 15:11:59.077
122.0, 62490.001319646995, 63811.88348673386, -31634.89331422965, -3471.248265653642, 16764.858873469697, 6419.3092488419115, 25041.128699914065, 5911.634077028522, 39562.006540537666, 46651.44343989414, 37297.46190279268, 48318.7047623044, 23390.228854445086, 26545.11052907831, -8356.89256869466, -1744.6654134589928, -0.074, 0.98, 0.28800000000000003, 192.0, 0.0, 0.0, 0.0, 0.0, 0.0, 0.0, 0.0, 0.0, 0.0, 1.706883119085889E9, 0.0, 2024-02-02 15:11:59.085
124.0, 62517.203392649106, 63995.145439522916, -31627.1149071592, -3462.1734574047873, 16773.665460785087, 6439.17994966268, 25059.188909433953, 5944.8487692891085, 39933.984271762885, 46665.32387320088, 37300.367629571876, 48318.5035966043, 23383.72449680859, 26566.59055549986, -8366.012080432425, -1760.11046887761, -0.074, 0.98, 0.28800000000000003, 192.0, 0.0, 0.0, 0.0, 0.0, 0.0, 0.0, 0.0, 0.0, 0.0, 1.706883119095084E9, 0.0, 2024-02-02 15:11:59.095
126.0, 62528.04398870993, 64139.157729048464, -31634.2674653849, -3460.54178005955, 16767.518731059878, 6437.436513595166, 25057.62428732208, 5963.780696842754, 40255.53646749693, 46671.515306415, 37304.56975752947, 48314.927317491456, 23381.176397940686, 26554.07357860489, -8371.13062991269, -1773.2532946173305, -0.084, 0.972, 0.292, 192.0, 126.5, 48.0, 15.0, 48.0, 4.5, 16.0, 0.0, 0.0, 0.0, 1.706883119101895E9, 0.0, 2024-02-02 15:11:59.101
128.0, 62555.82720706788, 64266.38385848807, -31630.98175894997, -3453.2327596226646, 16772.212597395494, 6443.7844090204735, 25074.321040430194, 5985.998330831329, 40488.91103135479, 46708.14981557725, 37311.14117039933, 48322.37044839507, 23379.052982217432, 26570.971497413102, -8370.460077579031, -1767.1959718699422, -0.084, 0.972, 0.292, 192.0, 0.0, 0.0, 0.0, 0.0, 0.0, 0.0, 0.0, 0.0, 0.0, 1.7068831191098917E9, 0.0, 2024-02-02 15:11:59.109
130.0, 62580.9729195801, 64364.39625792459, -31625.483229813963, -3438.2794425820643, 16773.821922996274, 6441.996269464049, 25083.328793445682, 5995.162546058005, 40642.020480873645, 46721.96319365063, 37321.62413854887, 48324.918547262976, 23383.50097936404, 26573.988982914565, -8368.336661855777, -1764.3796520685737, -0.084, 0.972, 0.292, 192.0, 0.0, 0.0, 0.0, 0.0, 0.0, 0.0, 0.0, 0.0, 0.0, 1.7068831191188955E9, 0.0, 2024-02-02 15:11:59.118
132.0, 62595.30038777595, 64428.031674388854, -31626.243189125442, -3443.8003234625253, 16771.296175872823, 6433.882586226772, 25071.951755517934, 5992.4579849789125, 40776.15329934994, 46748.40530734126, 37334.27522591058, 48330.81940779918, 23391.324089923393, 26576.559433526927, -8368.157847900135, -1753.784925196758, -0.084, 0.972, 0.292, 192.0, 0.0, 0.0, 0.0, 0.0, 0.0, 0.0, 0.0, 0.0, 0.0, 1.7068831191272364E9, 0.0, 2024-02-02 15:11:59.127
134.0, 62615.148736852265, 64492.94114028706, -31632.188753150556, -3436.6254134923715, 16780.92977773306, 6439.828150251884, 25089.63198538208, 6003.879726395575, 40861.35814921357, 46760.5870080694, 37341.13721145835, 48323.80096004021, 23385.892616020756, 26568.110474122823, -8367.174371144101, -1751.7062129624146, -0.084, 0.972, 0.292, 192.0, 0.0, 0.0, 0.0, 0.0, 0.0, 0.0, 0.0, 0.0, 0.0, 1.7068831191339467E9, 0.0, 2024-02-02 15:11:59.133
136.0, 62623.86591718983, 64540.97503912152, -31650.74070104846, -3443.308585084508, 16785.28836790185, 6430.663935025208, 25107.692194901967, 6004.304409540226, 40945.40070836553, 46780.189487956704, 37349.00502550662, 48317.09543670362, 23391.748773068044, 26590.88690172278, -8359.664185007117, -1741.4244105129733, -0.088, 0.976, 0.28400000000000003, 192.0, 126.5, 32.0, 15.0, 64.0, 4.0, 112.0, 0.0, 0.0, 0.0, 1.7068831191422465E9, 0.0, 2024-02-02 15:11:59.142
138.0, 62638.19338538568, 64580.31410936286, -31652.3723783937, -3440.5593205165055, 16796.531295362867, 6431.088618169859, 25124.813631154735, 6002.6056769616225, 41001.59299392617, 46791.231249717624, 37341.36072890291, 48304.44434934192, 23384.193883442153, 26590.462218578126, -8360.312385596322, -1742.497294246828, -0.088, 0.976, 0.28400000000000003, 192.0, 0.0, 0.0, 0.0, 0.0, 0.0, 0.0, 0.0, 0.0, 0.0, 1.706883119150972E9, 0.0, 2024-02-02 15:11:59.150
140.0, 62640.74148425359, 64605.07984221934, -31660.35195116424, -3445.7449252301367, 16796.218370940493, 6425.992420434049, 25120.633854941592, 5992.480336723368, 41065.69779702399, 46800.99896204459, 37347.08277548347, 48306.76893076527, 23387.680755577177, 26598.26297739303, -8354.232711104478, -1739.5245122342722, -0.088, 0.976, 0.28400000000000003, 192.0, 0.0, 0.0, 0.0, 0.0, 0.0, 0.0, 0.0, 0.0, 0.0, 1.706883119157965E9, 0.0, 2024-02-02 15:11:59.157
142.0, 62637.656943518756, 64625.7552058405, -31680.51322466293, -3461.838181237958, 16778.672251543077, 6413.050760394426, 25099.8243808537, 5969.346281212125, 41111.22830047945, 46813.94062208422, 37347.50745862812, 48309.18291916644, 23384.573863097892, 26597.614776803828, -8360.602958274241, -1740.887968646046, -0.088, 0.976, 0.28400000000000003, 192.0, 0.0, 0.0, 0.0, 0.0, 0.0, 0.0, 0.0, 0.0, 0.0, 1.706883119165985E9, 0.0, 2024-02-02 15:11:59.165
144.0, 62644.854205233365, 64660.89214812424, -31687.84459684427, -3459.245378881142, 16782.42734461157, 6416.314115084901, 25115.180029294497, 5972.207304502404, 41140.5090857159, 46803.50235742359, 37333.20234217672, 48297.023570182755, 23366.044266944442, 26598.687660537682, -8378.3278916273, -1753.8743321745792, -0.088, 0.976, 0.28400000000000003, 192.0, 0.0, 0.0, 0.0, 0.0, 0.0, 0.0, 0.0, 0.0, 0.0, 1.706883119174019E9, 0.0, 2024-02-02 15:11:59.174
146.0, 62661.349792641384, 64707.98727369157, -31690.325640478808, -3449.097686898433, 16780.773315521874, 6422.818472721395, 25110.620273425615, 5968.407507945002, 41200.63527830068, 46827.1505030573, 37350.50259238513, 48312.84860525711, 23381.690488063155, 26591.624509289803, -8366.682632766084, -1742.7431634358363, -0.092, 0.984, 0.28200000000000003, 192.0, 126.5, 16.0, 15.0, 96.0, 4.0, 104.0, 0.0, 0.0, 0.0, 1.7068831191830645E9, 0.0, 2024-02-02 15:11:59.183
148.0, 62672.659775335764, 64748.39922766677, -31687.665782888627, -3440.447561794229, 16783.679042301064, 6429.769865246995, 25115.984692094888, 5970.530923668257, 41220.662441332635, 46840.71801194167, 37343.350034159426, 48314.10030294661, 23368.704124534623, 26606.756640286047, -8377.411470104631, -1740.753858179314, -0.092, 0.984, 0.28200000000000003, 192.0, 0.0, 0.0, 0.0, 0.0, 0.0, 0.0, 0.0, 0.0, 0.0, 1.7068831191900365E9, 0.0, 2024-02-02 15:11:59.190
150.0, 62682.40513591828, 64787.559483952464, -31681.921384563615, -3436.2454338366315, 16792.552684849823, 6433.212033893113, 25123.852506143154, 5974.80010685922, 41258.10161329527, 46841.12034334187, 37359.73386284517, 48325.43263738545, 23380.259976418016, 26608.790649031478, -8362.70402225304, -1728.303936517708, -0.092, 0.984, 0.28200000000000003, 192.0, 0.0, 0.0, 0.0, 0.0, 0.0, 0.0, 0.0, 0.0, 0.0, 1.7068831191980343E9, 0.0, 2024-02-02 15:11:59.198
152.0, 62681.891045795805, 64807.63135047333, -31694.84069285878, -3447.153085130821, 16785.17660917957, 6421.499719798532, 25122.936084620487, 5965.725298610366, 41269.255133778475, 46859.26995983958, 37356.53756338806, 48324.493864118325, 23375.09672344884, 26606.868399008323, -8364.089830409268, -1731.1873115524427, -0.092, 0.984, 0.28200000000000003, 192.0, 0.0, 0.0, 0.0, 0.0, 0.0, 0.0, 0.0, 0.0, 0.0, 1.7068831192075098E9, 0.0, 2024-02-02 15:11:59.207
154.0, 62687.769554587554, 64834.0511124195, -31682.636640386183, -3453.0092421781114, 16793.93849300605, 6426.908841956716, 25130.468622501925, 5969.078060278662, 41281.772110673446, 46853.27969232556, 37358.43746166676, 48321.409323383494, 23373.710915292613, 26616.70316656866, -8359.351260584745, -1732.751933664314, -0.092, 0.984, 0.28200000000000003, 192.0, 0.0, 0.0, 0.0, 0.0, 0.0, 0.0, 0.0, 0.0, 0.0, 1.7068831192140503E9, 0.0, 2024-02-02 15:11:59.214
156.0, 62680.66169985077, 64839.01319968858, -31692.51611143543, -3447.801285720025, 16780.37098412168, 6413.609554005809, 25112.16254379303, 5953.722411837865, 41301.88868068322, 46866.243704109635, 37361.72316810169, 48325.76791355228, 23374.80615077092, 26611.226989177107, -8356.065554149813, -1732.7072301754035, -0.088, 0.98, 0.28400000000000003, 192.0, 126.5, 32.0, 15.0, 80.0, 4.0, 112.0, 0.0, 0.0, 0.0, 1.706883119222082E9, 0.0, 2024-02-02 15:11:59.222
158.0, 62671.542188113, 64840.287249122535, -31704.094315063277, -3465.213294650709, 16781.80149576682, 6409.206260348113, 25110.128535047596, 5947.329812923648, 41293.97616314604, 46849.23402657915, 37343.08181322597, 48307.26066914328, 23367.38537161176, 26580.73920974007, -8369.811876989826, -1742.9443291359341, -0.088, 0.98, 0.28400000000000003, 192.0, 0.0, 0.0, 0.0, 0.0, 0.0, 0.0, 0.0, 0.0, 0.0, 1.7068831192301931E9, 0.0, 2024-02-02 15:11:59.230
160.0, 62704.42160420676, 64883.89550255484, -31680.35676245174, -3444.739096729648, 16799.6158360977, 6430.730990258574, 25135.095433604176, 5968.832191089653, 41288.90231715469, 46852.340919058435, 37348.69210108425, 48313.094474446116, 23370.33580187986, 26601.9286634837, -8360.424144318598, -1733.8248173981688, -0.088, 0.98, 0.28400000000000003, 192.0, 0.0, 0.0, 0.0, 0.0, 0.0, 0.0, 0.0, 0.0, 0.0, 1.7068831192390845E9, 0.0, 2024-02-02 15:11:59.239
162.0, 62696.03970003602, 64899.58642716247, -31684.067152031323, -3449.187093876254, 16800.576961109276, 6425.210109378113, 25134.335474292693, 5964.853580576609, 41319.27833786945, 46863.82971570847, 37361.29848495704, 48326.438465885934, 23382.942185752654, 26613.64097757828, -8353.025716903892, -1725.5993754386159, -0.088, 0.98, 0.28400000000000003, 192.0, 0.0, 0.0, 0.0, 0.0, 0.0, 0.0, 0.0, 0.0, 0.0, 1.7068831192461123E9, 0.0, 2024-02-02 15:11:59.246
164.0, 62685.93671154222, 64901.93336033027, -31685.207090998545, -3455.0432509235443, 16795.436059884556, 6425.724199500585, 25127.629950956103, 5960.271472963271, 41301.17342486065, 46867.07071865448, 37361.09731925694, 48323.1080559621, 23386.853741032333, 26613.50686711155, -8348.018926145904, -1723.3194975041745, -0.088, 0.98, 0.28400000000000003, 192.0, 0.0, 0.0, 0.0, 0.0, 0.0, 0.0, 0.0, 0.0, 0.0, 1.7068831192541685E9, 0.0, 2024-02-02 15:11:59.254
166.0, 62676.05724049297, 64908.68358715578, -31688.850425344757, -3456.607873035416, 16791.23393192696, 6422.907879699216, 25118.555142707246, 5956.404621172503, 41296.3454480583, 46858.13002087236, 37354.07887149798, 48316.33547739214, 23371.408685613715, 26603.78385827349, -8361.2735106079, -1730.114427818588, -0.082, 0.982, 0.28800000000000003, 192.0, 126.5, 56.0, 15.0, 88.0, 4.5, 0.0, 0.0, 0.0, 0.0, 1.7068831192623632E9, 0.0, 2024-02-02 15:11:59.262
168.0, 62666.46834212165, 64916.12671805939, -31685.430608443097, -3446.3931258193406, 16797.35830990771, 6426.640621023253, 25134.424881270515, 5961.3443566971255, 41272.13850881321, 46865.75196573162, 37345.83107779397, 48314.30146864671, 23368.43590360116, 26603.202712917653, -8362.458153064032, -1729.0862475736437, -0.082, 0.982, 0.28800000000000003, 192.0, 0.0, 0.0, 0.0, 0.0, 0.0, 0.0, 0.0, 0.0, 0.0, 1.7068831192701275E9, 0.0, 2024-02-02 15:11:59.270
170.0, 62630.32557133742, 64898.446488195244, -31688.202224755554, -3453.6127392784047, 16794.765507550896, 6423.220804121591, 25133.910791148042, 5958.684499106944, 41248.266845734935, 46849.815171934984, 37352.67071159729, 48313.38504712404, 23384.05977297542, 26601.369869872316, -8349.203568602034, -1724.5488434492165, -0.082, 0.982, 0.28800000000000003, 192.0, 0.0, 0.0, 0.0, 0.0, 0.0, 0.0, 0.0, 0.0, 0.0, 1.7068831192781973E9, 0.0, 2024-02-02 15:11:59.278
172.0, 62645.748275011574, 64917.06549132652, -31676.512262405427, -3442.0121839061003, 16805.673158845086, 6431.960336203616, 25136.950628393966, 5964.026566031763, 41192.3204293633, 46858.04061389454, 37352.60365636393, 48312.51332909028, 23367.698296034134, 26608.231855420097, -8347.214263345511, -1723.922994604468, -0.082, 0.982, 0.28800000000000003, 192.0, 0.0, 0.0, 0.0, 0.0, 0.0, 0.0, 0.0, 0.0, 0.0, 1.7068831192862E9, 0.0, 2024-02-02 15:11:59.286
174.0, 62644.54128081099, 64945.362799806935, -31668.756207079437, -3436.2677855810866, 16807.729519334975, 6434.6872490271635, 25132.167355080528, 5959.80208632971, 41061.22744813293, 46866.243704109635, 37372.854336840435, 48326.32670716366, 23384.596214842346, 26619.519486370027, -8325.980106112971, -1708.3885322080293, -0.082, 0.982, 0.28800000000000003, 192.0, 0.0, 0.0, 0.0, 0.0, 0.0, 0.0, 0.0, 0.0, 0.0, 1.7068831192951984E9, 0.0, 2024-02-02 15:11:59.295
176.0, 62606.99035012607, 64920.552363461546, -31660.620172097704, -3431.2386430786423, 16799.79465005334, 6435.469560083099, 25122.936084620487, 5945.944004767419, 40742.200999522334, 46851.916235913784, 37361.790223335054, 48313.94384073542, 23377.264842661007, 26614.065660722932, -8329.444626503542, -1700.0289797817445, -0.08, 0.992, 0.28600000000000003, 192.0, 126.5, 64.0, 15.5, 0.0, 4.0, 120.0, 0.0, 0.0, 0.0, 1.7068831193022113E9, 0.0, 2024-02-02 15:11:59.302
178.0, 62599.01077735553, 64862.81780753349, -31647.566753335806, -3427.7964744325254, 16799.638187842153, 6438.46469384011, 25123.807802654246, 5938.232652930338, 40449.61666460236, 46869.01532042209, 37361.87963031288, 48326.304355419205, 23374.38146762627, 26613.79743978947, -8318.3134577648, -1679.1971539493984, -0.08, 0.992, 0.28600000000000003, 192.0, 0.0, 0.0, 0.0, 0.0, 0.0, 0.0, 0.0, 0.0, 0.0, 1.7068831193101876E9, 0.0, 2024-02-02 15:11:59.310
180.0, 62562.6668408712, 64769.67808838822, -31618.554189032817, -3427.729419199159, 16802.09687973224, 6439.247004896046, 25112.319006004218, 5925.738027779821, 40230.033127073424, 46834.52657872756, 37352.73776683066, 48318.66005881549, 23399.72834583859, 26606.26490190803, -8312.88198386216, -1675.7102818143705, -0.08, 0.992, 0.28600000000000003, 192.0, 0.0, 0.0, 0.0, 0.0, 0.0, 0.0, 0.0, 0.0, 0.0, 1.7068831193194337E9, 0.0, 2024-02-02 15:11:59.319
182.0, 62579.765925379514, 64684.20501759113, -31620.141162889144, -3431.4621605231955, 16792.820905783286, 6435.782484505473, 25100.696098887456, 5922.966411467363, 40019.59145302671, 46835.57711071696, 37355.799955821036, 48337.61433811359, 23395.101534736343, 26614.333881656396, -8317.285277519855, -1675.4867643698174, -0.08, 0.992, 0.28600000000000003, 192.0, 0.0, 0.0, 0.0, 0.0, 0.0, 0.0, 0.0, 0.0, 0.0, 1.7068831193252244E9, 0.0, 2024-02-02 15:11:59.325
184.0, 62549.6134221093, 64557.96236490755, -31607.53477901635, -3426.611831976394, 16809.629417613676, 6454.222673681102, 25122.5784567092, 5945.69813557841, 39782.282982144716, 46824.110665811386, 37353.38596741986, 48345.258634717306, 23395.950901025644, 26608.142448442275, -8316.346504252733, -1673.4751073688399, -0.08, 0.992, 0.28600000000000003, 192.0, 0.0, 0.0, 0.0, 0.0, 0.0, 0.0, 0.0, 0.0, 0.0, 1.7068831193342638E9, 0.0, 2024-02-02 15:11:59.334
186.0, 62486.35798530078, 64450.048142677326, -31612.67568024107, -3450.215274121198, 16795.972501751483, 6435.380153105278, 25098.125648275098, 5927.302649891692, 39601.211500312274, 46787.85613630487, 37345.98754000515, 48335.42386715697, 23396.308528936926, 26600.296986138463, -8306.60114367022, -1673.3857003910186, -0.084, 0.982, 0.28800000000000003, 192.0, 126.5, 48.0, 15.0, 88.0, 4.5, 0.0, 0.0, 0.0, 0.0, 1.7068831193422563E9, 0.0, 2024-02-02 15:11:59.342
188.0, 62539.219860937585, 64420.18621208504, -31608.3617935612, -3443.5544542735165, 16801.672196587588, 6443.985574720571, 25096.225749996396, 5937.204472685394, 39528.568330832524, 46790.337179939415, 37344.758194060116, 48338.396649169525, 23396.375584170295, 26593.792628501968, -8315.273620518878, -1680.7841278057251, -0.084, 0.982, 0.28800000000000003, 192.0, 0.0, 0.0, 0.0, 0.0, 0.0, 0.0, 0.0, 0.0, 0.0, 1.7068831193502636E9, 0.0, 2024-02-02 15:11:59.350
190.0, 62509.22381987856, 64289.09323085466, -31618.30831984381, -3448.740058987148, 16794.810211039807, 6441.660993297219, 25090.34724120465, 5940.668993075967, 39369.826241710936, 46777.70844432217, 37343.81942079299, 48336.027364257265, 23395.861494047822, 26587.98117494359, -8318.872251376182, -1682.3934534065072, -0.084, 0.982, 0.28800000000000003, 192.0, 0.0, 0.0, 0.0, 0.0, 0.0, 0.0, 0.0, 0.0, 0.0, 1.7068831193582869E9, 0.0, 2024-02-02 15:11:59.358
192.0, 62497.1538778727, 64184.62117727056, -31620.29762510033, -3452.1375241443548, 16791.479801115966, 6438.688211284663, 25080.177197477486, 5933.561138339179, 39178.65177138469, 46774.936828009704, 37336.80097303402, 48339.581291625655, 23392.665194590714, 26592.943262212666, -8318.246402531435, -1679.4430231384067, -0.084, 0.982, 0.28800000000000003, 192.0, 0.0, 0.0, 0.0, 0.0, 0.0, 0.0, 0.0, 0.0, 0.0, 1.7068831193663447E9, 0.0, 2024-02-02 15:11:59.366
194.0, 62482.446430021104, 64160.72716244783, -31621.392860578642, -3455.423230579285, 16787.12121094718, 6437.481217084077, 25073.136397974064, 5925.335696379626, 39122.41478233514, 46753.18858065469, 37333.1129351989, 48336.8096753132, 23395.63797660327, 26582.63910801877, -8317.285277519855, -1684.338055174119, -0.084, 0.982, 0.28800000000000003, 192.0, 0.0, 0.0, 0.0, 0.0, 0.0, 0.0, 0.0, 0.0, 0.0, 1.7068831193743165E9, 0.0, 2024-02-02 15:11:59.374
196.0, 62463.849778634285, 64169.645508485504, -31626.757279247915, -3461.7934777490473, 16788.663481314597, 6435.782484505473, 25081.831226567178, 5927.906146991986, 39165.15131773369, 46740.693955504175, 37321.467676337685, 48330.84175954363, 23389.647709089248, 26579.88984345077, -8326.091864835247, -1692.7423110893144, -0.08600000000000001, 0.976, 0.28800000000000003, 192.0, 126.5, 40.0, 15.0, 64.0, 4.5, 0.0, 0.0, 0.0, 0.0, 1.7068831193814888E9, 0.0, 2024-02-02 15:11:59.381
198.0, 62503.72529074256, 64216.89709626402, -31612.586273263252, -3444.1803031182653, 16805.248475700435, 6448.8359032673725, 25110.955549592443, 5951.621347859067, 39257.77694675648, 46755.13318242231, 37331.54831308703, 48342.57642538267, 23397.940206282165, 26578.01229691652, -8310.535050694352, -1684.181592962932, -0.08600000000000001, 0.976, 0.28800000000000003, 192.0, 0.0, 0.0, 0.0, 0.0, 0.0, 0.0, 0.0, 0.0, 0.0, 1.7068831193903143E9, 0.0, 2024-02-02 15:11:59.390
200.0, 62493.421136548655, 64209.073985704665, -31616.698994243026, -3445.1190763853883, 16798.699414575032, 6447.271281155501, 25097.58920640817, 5951.017850758773, 39307.956613058646, 46747.332423607404, 37339.03614747956, 48349.48311441936, 23395.079182991885, 26596.899520981257, -8306.019998314381, -1677.5878283486163, -0.08600000000000001, 0.976, 0.28800000000000003, 192.0, 0.0, 0.0, 0.0, 0.0, 0.0, 0.0, 0.0, 0.0, 0.0, 1.706883119398383E9, 0.0, 2024-02-02 15:11:59.398
202.0, 62490.11307836927, 64192.10901166309, -31622.331633845766, -3458.865399225402, 16788.17174293658, 6438.777618262484, 25082.457075411927, 5944.200568699905, 39312.471665438614, 46752.92035972123, 37333.7611357881, 48345.14687599503, 23401.672947606203, 26599.425268104707, -8315.74300715244, -1686.3273604306414, -0.08600000000000001, 0.976, 0.28800000000000003, 192.0, 0.0, 0.0, 0.0, 0.0, 0.0, 0.0, 0.0, 0.0, 0.0, 1.7068831194063668E9, 0.0, 2024-02-02 15:11:59.406
204.0, 62487.050889378894, 64207.12938393705, -31621.281101856366, -3453.8809602118686, 16788.41761212559, 6439.269356640501, 25079.216072465908, 5942.770057054765, 39332.16355230374, 46736.44712405767, 37324.66397579479, 48331.24409094383, 23389.603005600336, 26576.82765446039, -8326.851824146726, -1697.2797152137418, -0.08600000000000001, 0.976, 0.28800000000000003, 192.0, 0.0, 0.0, 0.0, 0.0, 0.0, 0.0, 0.0, 0.0, 0.0, 1.706883119413458E9, 0.0, 2024-02-02 15:11:59.413
206.0, 62498.42792730665, 64262.04762006374, -31615.73786923145, -3454.640919523349, 16792.105649960715, 6445.237272410068, 25080.803046322235, 5948.983842013341, 39399.41995136976, 46740.31397584844, 37331.50360959811, 48338.84368405863, 23402.38820342877, 26584.851930719848, -8319.252231031924, -1684.181592962932, -0.082, 0.974, 0.29, 192.0, 126.5, 56.0, 15.0, 56.0, 4.5, 8.0, 0.0, 0.0, 0.0, 1.7068831194223473E9, 0.0, 2024-02-02 15:11:59.422
208.0, 62517.44926183811, 64339.33995239019, -31613.390936063643, -3450.5281985435727, 16791.680966816064, 6439.314060129412, 25080.62423236659, 5948.626214102056, 39466.78810915806, 46751.042813186985, 37323.74755427212, 48338.195483469426, 23399.638938860768, 26572.267898591508, -8328.59526021424, -1694.3963401790072, -0.082, 0.974, 0.29, 192.0, 0.0, 0.0, 0.0, 0.0, 0.0, 0.0, 0.0, 0.0, 0.0, 1.7068831194303606E9, 0.0, 2024-02-02 15:11:59.430
210.0, 62508.46386056708, 64400.919008364566, -31618.129505888166, -3453.9033119563237, 16794.385527895156, 6439.135246173769, 25087.217996980908, 5954.348260682615, 39576.84809885599, 46742.4820950606, 37329.69311829723, 48335.602681112614, 23405.606854630336, 26591.065715678422, -8335.3678387842, -1706.5109856737836, -0.082, 0.974, 0.29, 192.0, 0.0, 0.0, 0.0, 0.0, 0.0, 0.0, 0.0, 0.0, 0.0, 1.7068831194373968E9, 0.0, 2024-02-02 15:11:59.437
212.0, 62539.488081871044, 64485.006271005426, -31626.44435482554, -3460.295910870542, 16787.210617925004, 6432.496778070543, 25078.657278854524, 5957.499856650813, 39688.65152462143, 46754.4849818331, 37317.08673442444, 48335.602681112614, 23391.234682945575, 26583.35436384134, -8354.679745993584, -1726.9404801059343, -0.082, 0.974, 0.29, 192.0, 0.0, 0.0, 0.0, 0.0, 0.0, 0.0, 0.0, 0.0, 0.0, 1.706883119446496E9, 0.0, 2024-02-02 15:11:59.446
214.0, 62542.70673307261, 64531.699065172565, -31625.237360624953, -3458.1054399139216, 16794.452583128525, 6442.532711330976, 25088.313232459215, 5974.442478947935, 39798.53270036372, 46760.43054585822, 37323.59109206094, 48339.26836720328, 23394.833313802876, 26589.36698309982, -8357.36195532822, -1736.0376400992443, -0.082, 0.974, 0.29, 192.0, 0.0, 0.0, 0.0, 0.0, 0.0, 0.0, 0.0, 0.0, 0.0, 1.7068831194544163E9, 0.0, 2024-02-02 15:11:59.454
216.0, 62554.08377100036, 64585.36560360976, -31626.176133892077, -3460.16180040381, 16794.407879639613, 6442.890339242261, 25094.01292729532, 5981.349167984626, 39868.91834365349, 46771.02527273003, 37324.52986532806, 48343.358736438604, 23392.173456212695, 26600.45344834965, -8358.300728595344, -1735.4341429989508, -0.082, 0.977, 0.292, 192.0, 126.5, 56.0, 15.0, 80.0, 4.5, 24.0, 0.0, 0.0, 0.0, 1.7068831194624171E9, 0.0, 2024-02-02 15:11:59.462
218.0, 62564.65614612772, 64639.07684553586, -31626.511410058905, -3455.8255619794804, 16796.106612218216, 6442.152731675235, 25093.476485428393, 5984.858391864109, 39976.51964146133, 46777.79785129998, 37329.53665608605, 48342.598777127125, 23395.81679055891, 26590.059887177933, -8360.2229786185, -1739.2562913008085, -0.082, 0.977, 0.292, 192.0, 0.0, 0.0, 0.0, 0.0, 0.0, 0.0, 0.0, 0.0, 0.0, 1.7068831194694412E9, 0.0, 2024-02-02 15:11:59.469
220.0, 62589.89126561776, 64706.73557600207, -31620.632901267163, -3456.898445713335, 16802.342748921248, 6451.138132946269, 25094.01292729532, 5994.939028613452, 40105.64566917964, 46774.109813464864, 37334.65520556631, 48347.80673358521, 23397.00143301504, 26579.956898684133, -8357.585472772775, -1741.4467622574286, -0.082, 0.977, 0.292, 192.0, 0.0, 0.0, 0.0, 0.0, 0.0, 0.0, 0.0, 0.0, 0.0, 1.7068831194784498E9, 0.0, 2024-02-02 15:11:59.478
222.0, 62596.86500988782, 64752.80252132446, -31625.997319936436, -3462.575788804983, 16794.832562784264, 6445.75136253254, 25093.87881682859, 5996.011912347307, 40272.121461882765, 46793.131147996326, 37341.29367366954, 48354.89223657754, 23402.34349993986, 26600.565207071926, -8356.400830316643, -1746.8111809267023, -0.082, 0.977, 0.292, 192.0, 0.0, 0.0, 0.0, 0.0, 0.0, 0.0, 0.0, 0.0, 0.0, 1.7068831194868507E9, 0.0, 2024-02-02 15:11:59.486
224.0, 62612.44417577317, 64801.57402772594, -31618.35302333272, -3460.0723934259886, 16804.04148149985, 6450.445228868155, 25110.039128069777, 6007.970095630896, 40434.752754539586, 46790.471290406145, 37334.69990905523, 48350.153666753016, 23395.325052180895, 26588.74113425507, -8361.98876643047, -1751.236826328853, -0.082, 0.977, 0.292, 192.0, 0.0, 0.0, 0.0, 0.0, 0.0, 0.0, 0.0, 0.0, 0.0, 1.7068831194937124E9, 0.0, 2024-02-02 15:11:59.493
226.0, 62618.54620200947, 64832.71000775218, -31633.93218921807, -3469.996567964145, 16793.178533694572, 6438.867025240305, 25098.72914537539, 6003.656208951022, 40607.57644266802, 46805.82693884694, 37349.34030167345, 48351.85239933162, 23399.326014438393, 26594.93256746919, -8353.18217911508, -1743.0784396026659, -0.084, 0.9804999999999999, 0.292, 192.0, 126.5, 40.0, 15.0, 96.0, 4.5, 16.0, 0.0, 0.0, 0.0, 1.7068831195024607E9, 0.0, 2024-02-02 15:11:59.502
228.0, 62626.23520210209, 64854.99469697413, -31649.55605859233, -3473.7293092881814, 16796.911275018607, 6438.531749073476, 25108.474505957904, 6007.1877845749605, 40716.76471433219, 46809.26910749306, 37336.711566056205, 48331.28879443274, 23388.708935822124, 26589.188169144174, -8367.84492347776, -1753.2931868187413, -0.084, 0.9804999999999999, 0.292, 192.0, 0.0, 0.0, 0.0, 0.0, 0.0, 0.0, 0.0, 0.0, 0.0, 1.7068831195104947E9, 0.0, 2024-02-02 15:11:59.510
230.0, 62643.02136218803, 64893.12677301488, -31659.480233130485, -3466.509695829117, 16802.09687973224, 6441.03514445247, 25119.806840396745, 6013.826252678186, 40817.839302759094, 46814.946450584706, 37348.75915631761, 48327.69016357543, 23397.06848824841, 26602.75567802855, -8354.903263438138, -1737.3563930221073, -0.084, 0.9804999999999999, 0.292, 192.0, 0.0, 0.0, 0.0, 0.0, 0.0, 0.0, 0.0, 0.0, 0.0, 1.706883119517524E9, 0.0, 2024-02-02 15:11:59.517
232.0, 62645.99414420059, 64918.786575649574, -31684.514186920427, -3474.802193022036, 16776.28061488636, 6426.551214045431, 25093.409430195028, 5991.049825078228, 40886.45915823688, 46830.0562298365, 37342.523019614586, 48320.69406756092, 23391.68171783468, 26603.06860245092, -8365.721507754506, -1740.82091341268, -0.084, 0.9804999999999999, 0.292, 192.0, 0.0, 0.0, 0.0, 0.0, 0.0, 0.0, 0.0, 0.0, 0.0, 1.7068831195256405E9, 0.0, 2024-02-02 15:11:59.525
234.0, 62655.627746060825, 64955.82341621201, -31681.519053163418, -3461.0111666931116, 16793.69262381704, 6433.703772271129, 25123.696043931966, 6005.71256944091, 40940.8633042411, 46835.66651769478, 37350.3684819184, 48317.34130589262, 23379.76823804, 26590.35045985585, -8371.242388634968, -1745.5818349816604, -0.084, 0.9804999999999999, 0.292, 192.0, 0.0, 0.0, 0.0, 0.0, 0.0, 0.0, 0.0, 0.0, 0.0, 1.7068831195345416E9, 0.0, 2024-02-02 15:11:59.534
236.0, 62651.850301247876, 64975.269433888134, -31696.11474229273, -3465.6826812842705, 16786.048327213328, 6430.619231536297, 25127.272323044817, 5998.604714704123, 40971.6193046116, 46839.86864565237, 37354.34709243144, 48325.79026529673, 23384.171531697695, 26613.328053155907, -8359.75359198494, -1735.9705848658784, -0.089, 0.98025, 0.29000000000000004, 192.0, 126.5, 8.0, 15.0, 80.0, 4.5, 0.0, 0.0, 0.0, 0.0, 1.706883119542559E9, 0.0, 2024-02-02 15:11:59.542
238.0, 62662.02034497504, 65000.795126056095, -31693.07490504681, -3466.1967714067428, 16798.85587678622, 6429.546347802442, 25127.29467478927, 5992.860316379109, 41005.59395618367, 46850.865703924384, 37349.854391795925, 48329.254785687306, 23385.177360198184, 26619.1842102032, -8364.13453389818, -1743.3243087916744, -0.089, 0.98025, 0.29000000000000004, 192.0, 0.0, 0.0, 0.0, 0.0, 0.0, 0.0, 0.0, 0.0, 0.0, 1.7068831195496943E9, 0.0, 2024-02-02 15:11:59.549
240.0, 62665.6413275768, 65016.77662334164, -31697.500550448964, -3472.54466683205, 16793.312644161302, 6424.204280877624, 25124.0313200988, 5988.747595399332, 41042.384927557105, 46844.450753265715, 37354.52590638708, 48331.91464327749, 23391.569959112403, 26605.21436991863, -8360.312385596322, -1738.8539599006128, -0.089, 0.98025, 0.29000000000000004, 192.0, 0.0, 0.0, 0.0, 0.0, 0.0, 0.0, 0.0, 0.0, 0.0, 1.7068831195575671E9, 0.0, 2024-02-02 15:11:59.557
242.0, 62665.52956885452, 65029.941800825814, -31710.598672699773, -3480.6359983248713, 16783.477876600966, 6414.660085995208, 25112.25195077085, 5980.142173784038, 41061.339206855206, 46851.580959746956, 37354.36944417589, 48332.115808977585, 23383.657441575222, 26598.933529726688, -8365.207417632035, -1741.3126517906967, -0.089, 0.98025, 0.29000000000000004, 192.0, 0.0, 0.0, 0.0, 0.0, 0.0, 0.0, 0.0, 0.0, 0.0, 1.7068831195665922E9, 0.0, 2024-02-02 15:11:59.566
244.0, 62669.55288285648, 65039.64245791942, -31708.139980809687, -3481.9100477588236, 16793.46910637249, 6416.939963929649, 25124.478354987903, 5986.534772698256, 41076.76191052937, 46843.48962825414, 37347.887438283855, 48322.459855372894, 23386.183188698673, 26589.858721477834, -8367.308481610833, -1745.6712419594817, -0.089, 0.98025, 0.29000000000000004, 192.0, 0.0, 0.0, 0.0, 0.0, 0.0, 0.0, 0.0, 0.0, 0.0, 1.706883119573691E9, 0.0, 2024-02-02 15:11:59.573
246.0, 62667.20594968867, 65037.67550440735, -31717.862989647747, -3484.7934227935584, 16792.306815660813, 6412.491966783044, 25115.425898483503, 5978.689310394444, 41102.08643699723, 46836.806456661994, 37344.177048704274, 48316.91662274797, 23385.512636365016, 26593.345593612863, -8362.547560041852, -1743.9278058919676, -0.0925, 0.979125, 0.28900000000000003, 192.0, 126.5, 0.0, 15.0, 72.0, 4.5, 0.0, 0.0, 0.0, 0.0, 1.706883119581683E9, 0.0, 2024-02-02 15:11:59.581
248.0, 62681.39930741779, 65049.2537080352, -31711.671556433626, -3481.64182682536, 16796.821868040784, 6419.979801175571, 25123.20430555395, 5983.18201102996, 41100.678277096544, 46855.04548013753, 37341.85246728092, 48314.145006435516, 23376.594290327346, 26601.392221616774, -8367.263778121922, -1750.1639425949984, -0.0925, 0.979125, 0.28900000000000003, 192.0, 0.0, 0.0, 0.0, 0.0, 0.0, 0.0, 0.0, 0.0, 0.0, 1.7068831195896792E9, 0.0, 2024-02-02 15:11:59.589
250.0, 62691.56935114496, 65064.31878379808, -31708.56466395434, -3481.64182682536, 16798.3641384082, 6421.455016309621, 25124.657168943548, 5985.886572109052, 41128.64030941013, 46856.49834352712, 37360.44911866774, 48332.51814037778, 23399.370717927304, 26603.336823384387, -8358.837170462271, -1737.1552273220095, -0.0925, 0.979125, 0.28900000000000003, 192.0, 0.0, 0.0, 0.0, 0.0, 0.0, 0.0, 0.0, 0.0, 0.0, 1.706883119597813E9, 0.0, 2024-02-02 15:11:59.597
252.0, 62702.0523192945, 65073.79592344713, -31709.0340505879, -3472.4329081097735, 16795.12313546218, 6423.377266332778, 25121.438517741983, 5986.646531420533, 41124.41582970808, 46869.86468671139, 37359.39858667834, 48334.686259589944, 23387.121961965797, 26605.12496294081, -8360.13357164068, -1735.6129569545935, -0.0925, 0.979125, 0.28900000000000003, 192.0, 0.0, 0.0, 0.0, 0.0, 0.0, 0.0, 0.0, 0.0, 0.0, 1.7068831196056674E9, 0.0, 2024-02-02 15:11:59.605
254.0, 62699.30305472649, 65069.92907165636, -31714.867855890738, -3489.6213995959047, 16785.757754535407, 6413.006056905515, 25119.896247374567, 5977.929351082963, 41116.52566391536, 46870.49053555614, 37362.4160721798, 48336.38499216855, 23396.085011492374, 26599.78289601599, -8361.921711197105, -1739.882140145557, -0.0925, 0.979125, 0.28900000000000003, 192.0, 0.0, 0.0, 0.0, 0.0, 0.0, 0.0, 0.0, 0.0, 0.0, 1.706883119613691E9, 0.0, 2024-02-02 15:11:59.613
