%OpenBCI Raw EXG Data
%Number of channels = 16
%Sample Rate = 125 Hz
%Board = OpenBCI_GUI$BoardCytonSerialDaisy
Sample Index, EXG Channel 0, EXG Channel 1, EXG Channel 2, EXG Channel 3, EXG Channel 4, EXG Channel 5, EXG Channel 6, EXG Channel 7, EXG Channel 8, EXG Channel 9, EXG Channel 10, EXG Channel 11, EXG Channel 12, EXG Channel 13, EXG Channel 14, EXG Channel 15, Accel Channel 0, Accel Channel 1, Accel Channel 2, Other, Other, Other, Other, Other, Other, Other, Analog Channel 0, Analog Channel 1, Analog Channel 2, Timestamp, Other, Timestamp (Formatted)
0.0, -10694.236838130575, -17157.221395638157, 18154.69034370069, -1179.8368310733833, 46842.59555847592, 18589.856456501064, 35162.6467898663, 10186.695776783918, 0.0, 0.0, 0.0, 0.0, 0.0, 0.0, 0.0, 0.0, 0.0, 0.0, 0.0, 192.0, 0.0, 0.0, 0.0, 0.0, 0.0, 0.0, 0.0, 0.0, 0.0, 1.7074744496305275E9, 0.0, 2024-02-09 11:27:29.630
240.0, -10642.581956694361, -17136.52368027254, 18196.97984421013, -1178.5627816394308, 47132.2741666167, 18674.726030197864, 35313.878692850914, 10341.079275736724, 31983.71463819917, 3959.9691581689312, 39113.16116013064, 28274.867328985612, 40316.869654282295, 35069.41766374322, 29932.629160002372, 24832.944552057335, 0.0, 0.0, 0.0, 192.0, 0.0, 0.0, 0.0, 0.0, 0.0, 0.0, 0.0, 0.0, 0.0, 1.7074744496306138E9, 0.0, 2024-02-09 11:27:29.630
0.0, -5080.082128057734, -8404.188859962089, 9225.794282650266, -438.9435576133201, 23657.7345320862, 9424.925974002597, 17716.864373310134, 5264.506371558473, 15877.896949994201, 1946.7698868238792, 19441.457920248264, 14095.188867472276, 20063.90929983965, 17454.633707360474, 14917.733063427577, 12384.162829418521, 0.132, 1.038, 0.11800000000000001, 192.0, 2.0, 16.0, 16.0, 56.0, 1.5, 88.0, 0.0, 0.0, 0.0, 1.7074744497339487E9, 0.0, 2024-02-09 11:27:29.733
2.0, -10251.761704893315, -16884.32894758331, 18539.833252410084, -828.8920913806071, 47140.61136729853, 18841.268878134357, 35367.81345222157, 10488.578437397295, 32437.61151285309, 3115.1626247361455, 39347.720366444635, 28595.27958575244, 40999.58133692519, 35578.9480303464, 30054.580277750527, 25060.57471759018, 0.132, 1.038, 0.11800000000000001, 192.0, 0.0, 0.0, 0.0, 0.0, 0.0, 0.0, 0.0, 0.0, 0.0, 1.7074744497399175E9, 0.0, 2024-02-09 11:27:29.739
4.0, -10351.204615974977, -17061.779446813995, 18421.704282963787, -1093.983780620549, 47140.72312602081, 18730.873612269595, 35319.51133245365, 10393.449412995507, 32084.02926731459, 2331.6445745998117, 38977.37431256465, 28363.8943271511, 40451.516562881065, 35116.26692012155, 29915.753592938614, 24837.236086992754, 0.132, 1.038, 0.11800000000000001, 192.0, 0.0, 0.0, 0.0, 0.0, 0.0, 0.0, 0.0, 0.0, 0.0, 1.7074744497469563E9, 0.0, 2024-02-09 11:27:29.746
6.0, -10441.282146129864, -17114.57426721743, 18233.256725461095, -1186.0282642875034, 47130.12839914899, 18686.818323948184, 35309.408343959854, 10395.48342174094, 32024.95360671921, 2141.0065461404974, 39144.36419539025, 28202.179456016955, 40618.28292826211, 35311.308242238556, 29903.706002677205, 24844.165127773897, 0.132, 1.038, 0.11800000000000001, 192.0, 0.0, 0.0, 0.0, 0.0, 0.0, 0.0, 0.0, 0.0, 0.0, 1.7074744497549956E9, 0.0, 2024-02-09 11:27:29.754
8.0, -10298.543906038274, -16906.948912972082, 18395.55274195108, -929.1620170071146, 46977.44363277479, 18780.159208793546, 35270.40454988534, 10381.692395412016, 31949.337655226907, 2254.8439806513766, 38911.01198327685, 28328.176239511522, 40467.85568807789, 35269.08579696248, 29832.42628960923, 24826.37313918747, 0.11, 1.028, 0.11, 192.0, 1.5, 56.0, 16.0, 16.0, 1.5, 56.0, 0.0, 0.0, 0.0, 1.7074744497629628E9, 0.0, 2024-02-09 11:27:29.762
10.0, -10159.58311075963, -16881.82555220432, 18588.7388692783, -930.6595838856201, 47432.41339116256, 18872.82954130525, 35508.093000423076, 10534.757141441958, 32392.036305908718, 2677.8283927236075, 39277.69235106616, 28587.590585659815, 40857.71481486736, 35489.25047984725, 30051.51808876015, 24986.14340855401, 0.11, 1.028, 0.11, 192.0, 0.0, 0.0, 0.0, 0.0, 0.0, 0.0, 0.0, 0.0, 0.0, 1.7074744497719867E9, 0.0, 2024-02-09 11:27:29.771
12.0, -10560.774571987937, -17204.338872949946, 18112.803174591445, -1215.1749390572238, 46860.11932612888, 18584.737907020797, 35175.00730455009, 10240.205853009922, 32066.460796172716, 2108.2388887690176, 39152.43317513862, 28313.669957360027, 40777.94143890637, 35280.35107616795, 29948.45419507673, 24907.375861093507, 0.11, 1.028, 0.11, 192.0, 0.0, 0.0, 0.0, 0.0, 0.0, 0.0, 0.0, 0.0, 0.0, 1.7074744497792068E9, 0.0, 2024-02-09 11:27:29.779
14.0, -10317.967571969935, -16981.11200107479, 18322.998979449152, -1042.5971201177979, 47031.11017121198, 18746.966868277417, 35308.44721894828, 10363.833351592226, 31726.647225218683, 1905.4415113260166, 38714.1378181145, 28197.262072236786, 40120.420172264596, 35112.31066135295, 29684.01070642599, 24672.21315767922, 0.11, 1.028, 0.11, 192.0, 0.0, 0.0, 0.0, 0.0, 0.0, 0.0, 0.0, 0.0, 0.0, 1.7074744497870092E9, 0.0, 2024-02-09 11:27:29.787
16.0, -10266.402097511542, -16943.650477367697, 18437.46226280478, -1025.498035609488, 47256.974548932856, 18762.322516718214, 35416.361441178495, 10455.184931181066, 32294.29212740566, 2270.9372366591974, 39319.24424400857, 28406.094420682723, 40965.49492663085, 35426.12915350546, 30002.61247189194, 24968.865510090058, 0.11, 1.028, 0.11, 192.0, 0.0, 0.0, 0.0, 0.0, 0.0, 0.0, 0.0, 0.0, 0.0, 1.7074744497950149E9, 0.0, 2024-02-09 11:27:29.795
18.0, -10358.826560834237, -17001.183867595657, 18347.854119283453, -1002.7886632428961, 46935.28824273208, 18725.79976627824, 35250.80206999803, 10339.447598391485, 32093.349944752452, 2314.1878621802166, 39029.990319012446, 28421.13714470114, 40641.32757679553, 35344.52293449914, 29929.723433223182, 24883.16892184841, 0.096, 1.028, 0.108, 192.0, 1.5, 0.0, 16.0, 16.0, 1.5, 48.0, 0.0, 0.0, 0.0, 1.7074744498032732E9, 0.0, 2024-02-09 11:27:29.803
20.0, -10256.254405528833, -16980.866131885785, 18402.750003665686, -1068.0557570523927, 47246.58098776114, 18766.94932782046, 35410.080600986556, 10444.769018264893, 32087.8737673609, 2127.729609934045, 39072.279819521886, 28354.79716715779, 40638.01951861614, 35270.13632895188, 29898.341584007932, 24852.949363344833, 0.096, 1.028, 0.108, 192.0, 0.0, 0.0, 0.0, 0.0, 0.0, 0.0, 0.0, 0.0, 0.0, 1.7074744498100624E9, 0.0, 2024-02-09 11:27:29.810
22.0, -10300.980246183903, -16963.543529932922, 18390.814172126553, -987.8800496912063, 47007.886708722916, 18714.4674318394, 35295.68437286429, 10352.232796219922, 32355.290038024195, 2157.032746914953, 39259.833307246365, 28368.923469653546, 40884.93923961392, 35351.16140260237, 29981.55712861504, 24938.087157975096, 0.096, 1.028, 0.108, 192.0, 0.0, 0.0, 0.0, 0.0, 0.0, 0.0, 0.0, 0.0, 0.0, 1.7074744498191068E9, 0.0, 2024-02-09 11:27:29.819
24.0, -10245.793789123749, -16942.801111078395, 18460.484559593744, -997.1560236401587, 47168.95337926786, 18779.66747041553, 35372.06028366808, 10407.195735835521, 32116.97573864171, 2203.211450959617, 38976.346132319704, 28411.302377140808, 40583.10128248946, 35313.34225098399, 29890.697287404215, 24832.117537512488, 0.096, 1.028, 0.108, 192.0, 0.0, 0.0, 0.0, 0.0, 0.0, 0.0, 0.0, 0.0, 0.0, 1.7074744498270683E9, 0.0, 2024-02-09 11:27:29.827
26.0, -10246.911376346514, -16939.58245987683, 18472.710963810798, -972.7255669505081, 47284.936581246446, 18802.309787548755, 35427.85023782853, 10472.30636743383, 32425.630977825047, 2141.18536009614, 39398.72704729164, 28453.30130497233, 41089.68121882453, 35491.93268918189, 30088.867853744967, 25013.300778067205, 0.096, 1.028, 0.108, 192.0, 0.0, 0.0, 0.0, 0.0, 0.0, 0.0, 0.0, 0.0, 0.0, 1.7074744498340704E9, 0.0, 2024-02-09 11:27:29.834
28.0, -10314.346589368175, -16973.087724815337, 18387.86374185845, -1002.5874975427982, 46958.69051917679, 18719.42951910848, 35258.93810497977, 10330.864528520648, 32095.54041570907, 2165.57111329688, 39010.14196993613, 28366.66594346356, 40597.205233240755, 35247.24814262964, 29893.357144994396, 24854.73750290126, 0.092, 1.028, 0.108, 192.0, 1.0, 112.0, 16.0, 16.0, 1.5, 48.0, 0.0, 0.0, 0.0, 1.707474449843074E9, 0.0, 2024-02-09 11:27:29.843
30.0, -10243.960946078414, -16952.390009449722, 18443.40782682989, -1021.9217564966389, 47289.18341269295, 18798.107659591158, 35452.504211962725, 10479.324815192796, 32236.89284764443, 2157.703299248612, 39171.23099222553, 28415.2586359094, 40694.301211154605, 35354.067129381554, 29958.73599752617, 24889.382706806984, 0.092, 1.028, 0.108, 192.0, 0.0, 0.0, 0.0, 0.0, 0.0, 0.0, 0.0, 0.0, 0.0, 1.7074744498511372E9, 0.0, 2024-02-09 11:27:29.851
32.0, -10348.880034551625, -16996.17707683767, 18365.02025902513, -1011.5058435804658, 46999.370694085446, 18712.679292282974, 35285.04494250357, 10365.174456259545, 32216.41864972337, 2117.8277871403443, 39242.711870993604, 28383.362696571672, 40898.3502862871, 35379.43635933833, 29992.822407820513, 24950.045341258687, 0.092, 1.028, 0.108, 192.0, 0.0, 0.0, 0.0, 0.0, 0.0, 0.0, 0.0, 0.0, 0.0, 1.707474449859232E9, 0.0, 2024-02-09 11:27:29.859
34.0, -10278.94142615097, -16973.713573660087, 18433.193079613815, -1017.6525733056752, 47099.4171022674, 18775.688859902486, 35326.529780212615, 10430.083922157755, 32021.19851365072, 2099.0746735423418, 38935.44243996649, 28351.8914403786, 40420.02295494353, 35219.88960741635, 29847.603124094385, 24792.264377148676, 0.092, 1.028, 0.108, 192.0, 0.0, 0.0, 0.0, 0.0, 0.0, 0.0, 0.0, 0.0, 0.0, 1.7074744498662071E9, 0.0, 2024-02-09 11:27:29.866
36.0, -10313.720740523428, -17000.558018750908, 18407.421518256848, -1016.244413404991, 47198.882365093516, 18784.13781930659, 35381.537423317124, 10480.97884428249, 32304.328060666096, 2128.8919006457213, 39345.55224723247, 28420.041909222833, 40980.11296750462, 35437.84146760005, 30041.90683864437, 24989.719687666857, 0.092, 1.028, 0.108, 192.0, 0.0, 0.0, 0.0, 0.0, 0.0, 0.0, 0.0, 0.0, 0.0, 1.707474449875145E9, 0.0, 2024-02-09 11:27:29.875
38.0, -10351.226967719433, -17018.37235908179, 18377.49253243119, -1018.9042709951724, 46918.7256000907, 18720.52475458679, 35229.12087787639, 10356.949014299991, 31987.961469645677, 2073.5713331188363, 38960.968132134454, 28329.94202732349, 40530.32881383048, 35226.81864819749, 29869.53018540504, 24839.20304050482, 0.07200000000000001, 1.036, 0.12, 192.0, 1.0, 32.0, 16.0, 48.0, 1.5, 96.0, 0.0, 0.0, 0.0, 1.7074744498831308E9, 0.0, 2024-02-09 11:27:29.883
40.0, -10273.46524875942, -16984.88944588774, 18446.380608842446, -1014.4115703596557, 47276.97936022036, 18812.502183020377, 35407.19722595182, 10481.895265805158, 32175.917288770353, 2129.4953977460145, 39138.485686598506, 28399.746525257415, 40668.037911419626, 35339.2926262966, 29950.085872421965, 24887.527512017194, 0.07200000000000001, 1.036, 0.12, 192.0, 0.0, 0.0, 0.0, 0.0, 0.0, 0.0, 0.0, 0.0, 0.0, 1.7074744498901765E9, 0.0, 2024-02-09 11:27:29.890
42.0, -10385.24632278041, -17043.4733681051, 18349.843424539977, -1028.0014309884825, 46996.86729870645, 18705.772603246285, 35249.30450311953, 10337.927679768525, 32163.80264327558, 2113.2903830159166, 39216.8061991699, 28375.204309845485, 40875.95383834289, 35356.07878638253, 29990.676640352805, 24956.572050639636, 0.07200000000000001, 1.036, 0.12, 192.0, 0.0, 0.0, 0.0, 0.0, 0.0, 0.0, 0.0, 0.0, 0.0, 1.7074744498991568E9, 0.0, 2024-02-09 11:27:29.899
44.0, -10311.440862588986, -17007.867039187793, 18413.635303215422, -1036.7633148149628, 47116.82911119809, 18758.030981782795, 35322.8864458664, 10362.805171347281, 31967.397864746796, 2109.200013780596, 38897.51152962584, 28333.004216313868, 40388.0823121169, 35183.053932554, 29840.942304246702, 24770.29261234911, 0.07200000000000001, 1.036, 0.12, 192.0, 0.0, 0.0, 0.0, 0.0, 0.0, 0.0, 0.0, 0.0, 0.0, 1.7074744499071586E9, 0.0, 2024-02-09 11:27:29.907
46.0, -10346.466046150452, -17033.19156565566, 18381.29232898859, -1046.7321928420297, 47221.56938571565, 18761.070819028715, 35377.0000191927, 10404.893506156624, 32262.15031887893, 2174.1988866566285, 39313.92452882821, 28402.786362503335, 40949.31226364521, 35400.13407470394, 30041.973893877734, 24960.37184719704, 0.07200000000000001, 1.036, 0.12, 192.0, 0.0, 0.0, 0.0, 0.0, 0.0, 0.0, 0.0, 0.0, 0.0, 1.7074744499151976E9, 0.0, 2024-02-09 11:27:29.915
48.0, -10380.552456444795, -17031.023446443494, 18355.610174609446, -1037.1879979596135, 46944.139533536385, 18714.355673117123, 35255.2724188891, 10305.919981708525, 31948.667102893247, 2150.5283892784582, 38938.526980701325, 28307.433820656996, 40506.613612963396, 35176.41546445077, 29871.608897639384, 24815.15256347091, 0.056, 1.01, 0.12, 192.0, 0.5, 96.0, 15.5, 72.0, 1.5, 96.0, 0.0, 0.0, 0.0, 1.707474449922185E9, 0.0, 2024-02-09 11:27:29.922
50.0, -10291.100775134657, -16991.237341313048, 18425.97346615475, -1042.9100445401723, 47294.03374123976, 18796.878313646117, 35424.25160697122, 10425.054779655311, 32136.46645980674, 2319.440522127214, 39119.75492474496, 28387.967155929466, 40647.116678609455, 35295.147930997366, 29952.611619545416, 24863.477034983283, 0.056, 1.01, 0.12, 192.0, 0.0, 0.0, 0.0, 0.0, 0.0, 0.0, 0.0, 0.0, 0.0, 1.707474449931386E9, 0.0, 2024-02-09 11:27:29.931
52.0, -10409.073282369767, -17063.969917770617, 18315.220572378705, -1087.7029404286077, 46981.310484565554, 18671.21680631838, 35266.4259393723, 10279.164943595522, 32138.388709829895, 2372.928246608764, 39210.480655489046, 28354.685408435515, 40861.045224791196, 35272.03622723058, 29985.78160831709, 24920.07165194412, 0.056, 1.01, 0.12, 192.0, 0.0, 0.0, 0.0, 0.0, 0.0, 0.0, 0.0, 0.0, 0.0, 1.7074744499392996E9, 0.0, 2024-02-09 11:27:29.939
54.0, -10381.826505878747, -17036.745493024053, 18292.53355175657, -1119.911804188705, 47044.11888648497, 18707.94072245845, 35320.7853818876, 10328.584650586206, 31895.246433645065, 2442.2857096535813, 38853.21037211542, 28270.55344230574, 40279.944572442124, 35048.96581756661, 29798.80926594845, 24708.333576718996, 0.056, 1.01, 0.12, 192.0, 0.0, 0.0, 0.0, 0.0, 0.0, 0.0, 0.0, 0.0, 0.0, 1.7074744499462137E9, 0.0, 2024-02-09 11:27:29.946
56.0, -10348.164778729055, -16991.55026573542, 18370.675250372322, -1009.6730005351307, 47233.482865510334, 18772.179636023004, 35410.0582492421, 10413.409520794097, 32132.10786963795, 2672.8886571989847, 39235.760478468, 28351.75732991187, 40785.876308188, 35374.27310636915, 29973.957535500234, 24911.823858240114, 0.056, 1.01, 0.12, 192.0, 0.0, 0.0, 0.0, 0.0, 0.0, 0.0, 0.0, 0.0, 0.0, 1.7074744499552457E9, 0.0, 2024-02-09 11:27:29.955
58.0, -10358.781857345326, -16984.353004020813, 18373.44686668478, -986.7177589795302, 46979.14236535339, 18736.640362339065, 35284.93318378129, 10328.76346454185, 32001.216054107674, 2884.3808632350997, 38992.215870882974, 28366.353019041184, 40509.63109846486, 35207.01500261009, 29897.87219737437, 24847.942572586846, 0.062, 1.026, 0.116, 192.0, 0.5, 120.0, 16.0, 8.0, 1.5, 80.0, 0.0, 0.0, 0.0, 1.7074744499632971E9, 0.0, 2024-02-09 11:27:29.963
60.0, -10264.658661444028, -16954.044038539414, 18463.79261777313, -1009.2036139015692, 47326.957860822426, 18808.747089951885, 35428.14081050644, 10462.985689995969, 32179.515919627658, 2911.985267637404, 39152.50023037198, 28409.380127117653, 40573.69119807377, 35293.538605396585, 29960.948820227248, 24894.00951790923, 0.062, 1.026, 0.116, 192.0, 0.0, 0.0, 0.0, 0.0, 0.0, 0.0, 0.0, 0.0, 0.0, 1.707474449970307E9, 0.0, 2024-02-09 11:27:29.970
62.0, -10395.461069996485, -17026.776614996983, 18339.651029068355, -1028.0684862218484, 47002.18701388681, 18707.583094547164, 35274.07023597601, 10357.396049189098, 32149.944561713288, 2858.6763571114966, 39222.12591435026, 28352.718454923448, 40735.003737807725, 35276.126596465896, 29971.856471521434, 24940.545849865182, 0.062, 1.026, 0.116, 192.0, 0.0, 0.0, 0.0, 0.0, 0.0, 0.0, 0.0, 0.0, 0.0, 1.7074744499783175E9, 0.0, 2024-02-09 11:27:29.978
64.0, -10301.382577584098, -16970.69608815862, 18433.37189356946, -1016.3785238717228, 47149.21678891382, 18768.5810051657, 35344.925265899335, 10412.649561482616, 31945.493155180593, 2870.0533950392482, 38899.456131393454, 28321.31425396374, 40248.87564764925, 35130.68379529522, 29831.219295408642, 24764.10117913499, 0.062, 1.026, 0.116, 192.0, 0.0, 0.0, 0.0, 0.0, 0.0, 0.0, 0.0, 0.0, 0.0, 1.707474449987321E9, 0.0, 2024-02-09 11:27:29.987
66.0, -10349.57293862974, -17006.727100220574, 18396.31270126256, -1040.1607799721694, 47248.68205173994, 18754.94644104796, 35381.04568493911, 10403.798270678315, 32258.015246154697, 2950.989061711915, 39339.07024134043, 28416.19740917652, 40833.32906166662, 35365.57827777604, 30050.08757711501, 24959.41072218546, 0.062, 1.026, 0.116, 192.0, 0.0, 0.0, 0.0, 0.0, 0.0, 0.0, 0.0, 0.0, 0.0, 1.7074744499943497E9, 0.0, 2024-02-09 11:27:29.994
68.0, -10471.41229765562, -17125.034883622513, 18207.015777470562, -1190.0515782894586, 46841.41091601979, 18621.528878394234, 35177.063665039976, 10224.090245257647, 31830.314616002397, 2706.997419237783, 38869.41538684552, 28215.545799201227, 40210.251833230475, 35030.3691661798, 29791.634355978294, 24751.315981306554, 0.054, 1.022, 0.11, 192.0, 0.5, 88.0, 15.5, 120.0, 1.5, 56.0, 0.0, 0.0, 0.0, 1.7074744500042975E9, 0.0, 2024-02-09 11:27:30.004
70.0, -10285.55754250974, -16938.286058698424, 18427.69455047781, -1088.9322863736495, 47310.30581120322, 18728.638437824065, 35438.89199958945, 10398.143279331121, 31915.519465866026, 2596.4009876729237, 38965.55023974779, 28200.994813560825, 40324.491599141555, 34964.09624386981, 29809.582806775907, 24741.99530386869, 0.054, 1.022, 0.11, 192.0, 0.0, 0.0, 0.0, 0.0, 0.0, 0.0, 0.0, 0.0, 0.0, 1.7074744500114222E9, 0.0, 2024-02-09 11:27:30.011
72.0, -10338.777046057827, -16948.947840803605, 18499.063670523607, -899.1436242036372, 47133.74938175075, 18806.847191673183, 35341.773669931135, 10361.128790513134, 32305.19977869985, 3131.971136566536, 39356.32578805993, 28480.995116352457, 41126.22632100896, 35489.51870078072, 30101.92127250687, 25015.89358042402, 0.054, 1.022, 0.11, 192.0, 0.0, 0.0, 0.0, 0.0, 0.0, 0.0, 0.0, 0.0, 0.0, 1.7074744500193813E9, 0.0, 2024-02-09 11:27:30.019
74.0, -10334.843139033692, -17023.110928906313, 18395.30687276207, -1077.1305653012473, 47099.66297145641, 18738.964943762418, 35296.667849620324, 10343.180339715522, 32008.10039139991, 2881.8774678561053, 38925.808838106255, 28336.200515770975, 40342.46240168362, 35209.33958403344, 29858.667237599762, 24804.42372613236, 0.054, 1.022, 0.11, 192.0, 0.0, 0.0, 0.0, 0.0, 0.0, 0.0, 0.0, 0.0, 0.0, 1.7074744500263693E9, 0.0, 2024-02-09 11:27:30.026
76.0, -10363.05104053629, -16986.25290229951, 18360.59461362298, -1039.2220067050466, 47170.11566997954, 18741.37893216359, 35327.80382964657, 10377.95965408798, 32156.40421586087, 2870.276912483801, 39269.51161259552, 28342.213135029455, 40735.16020001891, 35340.70078619728, 29967.564936586015, 24917.12122167602, 0.054, 1.022, 0.11, 192.0, 0.0, 0.0, 0.0, 0.0, 0.0, 0.0, 0.0, 0.0, 0.0, 1.707474450034586E9, 0.0, 2024-02-09 11:27:30.034
78.0, -10304.914153208036, -16919.979979989526, 18489.18419947436, -931.6207088971984, 47011.57474655804, 18751.124292746103, 35286.45310240425, 10342.509787381863, 31947.907143581768, 2922.57999450922, 38989.779530737345, 28378.512368024873, 40501.51741522759, 35179.522356930065, 29875.2522319856, 24833.59275264654, 0.07, 1.024, 0.114, 192.0, 1.0, 24.0, 16.0, 0.0, 1.5, 72.0, 0.0, 0.0, 0.0, 1.7074744500434134E9, 0.0, 2024-02-09 11:27:30.043
80.0, -10368.1472382721, -17128.074720868437, 18343.763750048132, -1222.0816280939137, 47215.95909785737, 18697.480106053365, 35358.559830017075, 10405.564058490285, 32233.6071412095, 2736.099390518593, 39186.31841973286, 28406.474400338462, 40609.81161711355, 35300.04296303308, 29983.479378638196, 24888.846264940057, 0.07, 1.024, 0.114, 192.0, 0.0, 0.0, 0.0, 0.0, 0.0, 0.0, 0.0, 0.0, 0.0, 1.7074744500504465E9, 0.0, 2024-02-09 11:27:30.050
82.0, -10622.934773318146, -17298.57382757352, 18046.373790070273, -1352.6381674573622, 46785.62096185934, 18462.65267880591, 35117.27274862203, 10167.227407363345, 31837.668339928194, 1705.1922327509205, 38961.66103621257, 27919.966330524247, 40444.92279826675, 34877.86321376124, 29780.592594217374, 24726.75141415017, 0.07, 1.024, 0.114, 192.0, 0.0, 0.0, 0.0, 0.0, 0.0, 0.0, 0.0, 0.0, 0.0, 1.707474450058437E9, 0.0, 2024-02-09 11:27:30.058
84.0, -10338.888804780103, -16952.188843749624, 18390.97063433774, -1035.8692450367505, 47079.76991889119, 18741.89302228606, 35297.517215909626, 10324.606040073162, 31391.10283745561, 2457.663709838833, 38658.01258778723, 28139.125184908535, 40110.40659074862, 35028.73748883456, 29651.466566499064, 24613.740994184136, 0.07, 1.024, 0.114, 192.0, 0.0, 0.0, 0.0, 0.0, 0.0, 0.0, 0.0, 0.0, 0.0, 1.7074744500664198E9, 0.0, 2024-02-09 11:27:30.066
86.0, -10192.864858253582, -16871.119066610227, 18551.05382812665, -858.5528562727995, 47345.196884297955, 18873.813018061282, 35452.615970685, 10462.762172551415, 32520.40237431555, 2921.373000308633, 39426.04087901603, 28571.65379186318, 41086.23905017842, 35672.445377402946, 30090.521882834662, 25026.018920662274, 0.07, 1.024, 0.114, 192.0, 0.0, 0.0, 0.0, 0.0, 0.0, 0.0, 0.0, 0.0, 0.0, 1.707474450075746E9, 0.0, 2024-02-09 11:27:30.075
88.0, -10392.845915895214, -17072.57533938591, 18403.442907743804, -1143.6717085446965, 46956.45534473126, 18645.959335083884, 35209.58545322245, 10244.497387945341, 32191.787027333623, 2480.8871723278967, 39099.727761713, 28385.150836128098, 40762.69754918785, 35200.711810673696, 29960.390026615863, 24876.888081656467, 0.07500000000000001, 1.022, 0.118, 192.0, 1.0, 64.0, 15.5, 112.0, 1.5, 104.0, 0.0, 0.0, 0.0, 1.707474450082441E9, 0.0, 2024-02-09 11:27:30.082
90.0, -10402.814793922282, -17050.715333308617, 18325.14474691686, -1125.0527054134257, 47228.185502074426, 18684.09141112464, 35336.43160300632, 10322.974362727924, 32109.55495948255, 2178.3563111253156, 39089.960049386034, 28298.917806019523, 40593.94187855028, 35319.71249815375, 29890.87610135986, 24779.680345020337, 0.07500000000000001, 1.022, 0.118, 192.0, 0.0, 0.0, 0.0, 0.0, 0.0, 0.0, 0.0, 0.0, 0.0, 1.7074744500905414E9, 0.0, 2024-02-09 11:27:30.090
92.0, -10489.427803686596, -17136.322514572443, 18182.428858569725, -1142.174141666191, 46885.08622468546, 18604.20627644137, 35167.94415330221, 10193.356596631598, 31812.455572182607, 2137.765543194478, 39011.28190890335, 28234.388319777052, 40646.4461262758, 35127.28633013801, 29821.876266226325, 24794.298385894108, 0.07500000000000001, 1.022, 0.118, 192.0, 0.0, 0.0, 0.0, 0.0, 0.0, 0.0, 0.0, 0.0, 0.0, 1.7074744500984423E9, 0.0, 2024-02-09 11:27:30.098
94.0, -10425.30064884432, -17097.028147820016, 18230.619219615368, -1171.0749472469029, 46963.47379249022, 18636.951582068396, 35227.176276108774, 10218.859937055104, 31849.760633678514, 1914.002229452399, 38730.65575726697, 28128.50810629226, 40180.76988229393, 35059.2252682716, 29655.556935734385, 24618.881895408857, 0.07500000000000001, 1.022, 0.118, 192.0, 0.0, 0.0, 0.0, 0.0, 0.0, 0.0, 0.0, 0.0, 0.0, 1.707474450106633E9, 0.0, 2024-02-09 11:27:30.106
96.0, -10235.109655274113, -16900.265741379946, 18491.173504730883, -1027.1967681880915, 47278.92396198797, 18769.229205754902, 35404.604423595, 10375.568017431262, 32146.524744811624, 2319.3734668938478, 39302.3239734559, 28408.798981761815, 41091.536413614325, 35471.86082266102, 30008.379221961408, 24946.379655168017, 0.07500000000000001, 1.022, 0.118, 192.0, 0.0, 0.0, 0.0, 0.0, 0.0, 0.0, 0.0, 0.0, 0.0, 1.707474450114569E9, 0.0, 2024-02-09 11:27:30.114
98.0, -10390.051947838301, -16997.5628849939, 18299.686109982267, -1044.6087771187756, 46879.07360542698, 18646.160500783983, 35196.286165271544, 10200.68796881294, 32160.718102540744, 2386.585162470956, 39033.34308068074, 28388.548301285304, 40621.43452423031, 35284.03911400308, 29867.898508059803, 24818.840601306034, 0.08050000000000002, 1.014, 0.11399999999999999, 192.0, 1.0, 88.0, 15.5, 56.0, 1.5, 56.0, 0.0, 0.0, 0.0, 1.7074744501225357E9, 0.0, 2024-02-09 11:27:30.122
100.0, -10245.458512956919, -16958.648497897208, 18398.883151874918, -1055.3823179462336, 47268.35158686061, 18753.113598002627, 35413.34395567703, 10401.786613677337, 32053.988522766656, 2089.351664704283, 39050.889200078156, 28324.734070865405, 40557.6202938104, 35250.55620080903, 29880.415484954774, 24812.760926814193, 0.08050000000000002, 1.014, 0.11399999999999999, 192.0, 0.0, 0.0, 0.0, 0.0, 0.0, 0.0, 0.0, 0.0, 0.0, 1.707474450131537E9, 0.0, 2024-02-09 11:27:30.131
102.0, -10296.08521414819, -16957.776779863452, 18401.051271087083, -974.469003018022, 47027.042153721115, 18707.292521869247, 35303.239262490184, 10323.913135995048, 32338.369767471526, 2348.6766038747555, 39259.90036247973, 28443.041854267343, 40948.32878688917, 35441.08247054607, 29962.379331872387, 24955.119187250042, 0.08050000000000002, 1.014, 0.11399999999999999, 192.0, 0.0, 0.0, 0.0, 0.0, 0.0, 0.0, 0.0, 0.0, 0.0, 1.707474450137575E9, 0.0, 2024-02-09 11:27:30.137
104.0, -10338.307659424265, -17049.933022252684, 18381.985233066705, -1158.781487796484, 47065.353043717514, 18665.807684160198, 35313.02932656161, 10308.110452665145, 32053.921467533288, 2026.4091523181382, 38934.12368704363, 28301.622367098615, 40592.55607039405, 35112.2883096085, 29854.778034064537, 24778.786275242124, 0.08050000000000002, 1.014, 0.11399999999999999, 192.0, 0.0, 0.0, 0.0, 0.0, 0.0, 0.0, 0.0, 0.0, 0.0, 1.7074744501467328E9, 0.0, 2024-02-09 11:27:30.146
106.0, -10232.986239550859, -16892.39792733168, 18433.036617402628, -941.9472148355502, 47226.53147298473, 18807.18246784001, 35413.81334231059, 10427.20054712302, 32307.85963629003, 2031.1477221426635, 39290.34343842786, 28345.498841464385, 40899.93726014343, 35452.70537766282, 29960.635895804873, 24922.530343834205, 0.08050000000000002, 1.014, 0.11399999999999999, 192.0, 0.0, 0.0, 0.0, 0.0, 0.0, 0.0, 0.0, 0.0, 0.0, 1.7074744501546547E9, 0.0, 2024-02-09 11:27:30.154
108.0, -10251.873463615593, -16876.617595746233, 18509.39017646196, -921.2718512143912, 47032.40657239039, 18786.462400729943, 35305.11680902443, 10362.112267269167, 32241.452603513317, 2489.425538709824, 39104.48868328198, 28511.505247533947, 40780.69070347437, 35385.49368208572, 29954.846793990946, 24940.232925442808, 0.08525, 1.0110000000000001, 0.109, 192.0, 1.0, 104.0, 15.5, 64.0, 1.5, 32.0, 0.0, 0.0, 0.0, 1.7074744501625519E9, 0.0, 2024-02-09 11:27:30.162
110.0, -10277.443859272464, -16959.296698486414, 18415.26698056066, -1084.6631031826857, 47259.38853733403, 18748.33032468919, 35425.12332500498, 10410.459090525996, 32263.178499123875, 2207.8159103174103, 39164.68193110012, 28414.230455664452, 40705.45473163781, 35249.39391009735, 29969.12955869789, 24891.30495683014, 0.08525, 1.0110000000000001, 0.109, 192.0, 0.0, 0.0, 0.0, 0.0, 0.0, 0.0, 0.0, 0.0, 0.0, 1.7074744501705751E9, 0.0, 2024-02-09 11:27:30.170
112.0, -10317.408778358553, -16956.100399029303, 18406.326282778537, -986.8742211907174, 47028.2491479217, 18739.166109462512, 35299.17124499932, 10351.606947375172, 32212.685908399333, 2166.1075551638073, 39213.766361923976, 28365.90598415208, 40877.20553603239, 35461.310799278115, 29972.281154666085, 24954.716855849845, 0.08525, 1.0110000000000001, 0.109, 192.0, 0.0, 0.0, 0.0, 0.0, 0.0, 0.0, 0.0, 0.0, 0.0, 1.707474450178579E9, 0.0, 2024-02-09 11:27:30.178
114.0, -10279.634330229084, -16934.463910396567, 18411.60129446999, -1021.050038462882, 47077.82531712357, 18757.740409104874, 35328.51908546914, 10367.163761516067, 32063.6668281158, 2149.209636355595, 38926.32292822873, 28361.010952116365, 40424.67211779024, 35202.74581941913, 29852.18523170772, 24801.89797900891, 0.08525, 1.0110000000000001, 0.109, 192.0, 0.0, 0.0, 0.0, 0.0, 0.0, 0.0, 0.0, 0.0, 0.0, 1.7074744501866288E9, 0.0, 2024-02-09 11:27:30.186
116.0, -10263.831646899182, -16944.388084934722, 18467.6594695639, -980.8616019322399, 47246.58098776114, 18800.72281369243, 35405.029106739654, 10463.16450395161, 32393.31035534267, 2199.411654402215, 39351.02842462402, 28456.475252684984, 40993.05462754424, 35490.59158451457, 30045.03608286811, 25010.14918209901, 0.08525, 1.0110000000000001, 0.109, 192.0, 0.0, 0.0, 0.0, 0.0, 0.0, 0.0, 0.0, 0.0, 0.0, 1.7074744501936104E9, 0.0, 2024-02-09 11:27:30.193
118.0, -10316.715874280439, -16952.501768172, 18393.362270994458, -991.568087526332, 46933.41069619783, 18721.150603431535, 35246.19761064024, 10331.557432598762, 32089.483092961684, 2156.8762847037656, 38995.725094762456, 28360.452158504984, 40567.47741311519, 35264.63779981587, 29884.90818559029, 24873.535319988172, 0.080625, 1.0155, 0.10350000000000001, 192.0, 1.0, 48.0, 15.5, 112.0, 1.5, 8.0, 0.0, 0.0, 0.0, 1.707474450202644E9, 0.0, 2024-02-09 11:27:30.202
120.0, -10228.35942844861, -16920.87404976774, 18479.818818547585, -1013.2716313924351, 47291.64210458304, 18800.231075314412, 35430.51009541871, 10458.560044593816, 32240.17855407936, 2190.4486048756366, 39141.74904128898, 28419.013728977887, 40668.797870731105, 35342.31011179806, 29951.203459644734, 24896.535265032682, 0.080625, 1.0155, 0.10350000000000001, 192.0, 0.0, 0.0, 0.0, 0.0, 0.0, 0.0, 0.0, 0.0, 0.0, 1.707474450210626E9, 0.0, 2024-02-09 11:27:30.210
122.0, -10333.81495878875, -16969.757314891496, 18400.738346664708, -996.2172503730358, 47028.62912757744, 18730.404225636034, 35303.44042819028, 10382.608816934684, 32236.13288833295, 2144.8063426978997, 39253.91009496571, 28393.957423443488, 40898.931431642945, 35373.75901624668, 30012.08961154099, 24980.957803840378, 0.080625, 1.0155, 0.10350000000000001, 192.0, 0.0, 0.0, 0.0, 0.0, 0.0, 0.0, 0.0, 0.0, 0.0, 1.7074744502179003E9, 0.0, 2024-02-09 11:27:30.217
124.0, -10258.400172996542, -16928.138366715713, 18466.4077718744, -1000.6205440307313, 47111.352933806535, 18775.890025602585, 35337.10215533998, 10403.86532591168, 32030.742708533136, 2128.2660518009725, 38926.65820439556, 28355.646533447092, 40390.85392842936, 35204.01986885308, 29862.154109734787, 24815.130211726453, 0.080625, 1.0155, 0.10350000000000001, 192.0, 0.0, 0.0, 0.0, 0.0, 0.0, 0.0, 0.0, 0.0, 0.0, 1.7074744502266884E9, 0.0, 2024-02-09 11:27:30.226
126.0, -10270.626577213596, -16935.93912553062, 18449.621611788465, -1001.0675789198374, 47242.647080737006, 18781.29914776077, 35386.87949024195, 10449.351125878231, 32328.982034800298, 2175.4729360905812, 39347.65331121127, 28441.05254901082, 40948.373490378086, 35427.9619965508, 30054.937905661813, 25000.984966872333, 0.080625, 1.0155, 0.10350000000000001, 192.0, 0.0, 0.0, 0.0, 0.0, 0.0, 0.0, 0.0, 0.0, 0.0, 1.707474450234974E9, 0.0, 2024-02-09 11:27:30.234
128.0, -10319.979228970913, -16956.59213740732, 18416.228105572238, -999.6817707636084, 46948.96751033873, 18714.601542306133, 35231.13253487737, 10313.586630056696, 32035.414223124295, 2122.7228191760564, 38996.90973721859, 28347.644608932093, 40544.36570934841, 35223.77881095157, 29889.758514137095, 24860.660715181915, 0.0713125, 1.02075, 0.10075, 192.0, 0.5, 120.0, 16.0, 8.0, 1.5, 8.0, 0.0, 0.0, 0.0, 1.7074744502426927E9, 0.0, 2024-02-09 11:27:30.242
130.0, -10240.094094287646, -16928.58540160482, 18483.03746974915, -1012.8022447588736, 47294.74899706233, 18803.96381663845, 35398.189472936334, 10453.396791624642, 32191.719972100258, 2175.38352911276, 39138.53039008741, 28406.04971719381, 40628.90000687838, 35313.543416684086, 29952.1198811674, 24883.615956737514, 0.0713125, 1.02075, 0.10075, 192.0, 0.0, 0.0, 0.0, 0.0, 0.0, 0.0, 0.0, 0.0, 0.0, 1.707474450249728E9, 0.0, 2024-02-09 11:27:30.249
132.0, -10345.214348460955, -16979.234454540547, 18402.034747843118, -1010.6117738022535, 47031.847778779, 18717.015530707304, 35250.69031127576, 10322.460272605453, 32207.52265543016, 2164.47587781857, 39247.07046116239, 28378.28885058032, 40884.49220472482, 35353.91066717037, 30004.601777148462, 24964.663382132458, 0.0713125, 1.02075, 0.10075, 192.0, 0.0, 0.0, 0.0, 0.0, 0.0, 0.0, 0.0, 0.0, 0.0, 1.7074744502587283E9, 0.0, 2024-02-09 11:27:30.258
134.0, -10278.047356372757, -16945.72918960204, 18464.41846661788, -1011.8634714917507, 47118.10316063204, 18766.614051653632, 35317.52202719713, 10362.38048820263, 31995.47165578266, 2181.217334415595, 38909.89439605408, 28344.0906815637, 40384.751902193064, 35184.81972036597, 29856.186193965223, 24791.012679459178, 0.0713125, 1.02075, 0.10075, 192.0, 0.0, 0.0, 0.0, 0.0, 0.0, 0.0, 0.0, 0.0, 0.0, 1.7074744502667863E9, 0.0, 2024-02-09 11:27:30.266
136.0, -10305.919981708525, -16968.03623056844, 18441.440873317824, -1020.3794861292228, 47245.999842405305, 18779.175732037515, 35370.96504818977, 10422.998419165424, 32289.240633158763, 2248.0043468480526, 39319.11013354184, 28409.84951375121, 40934.69422277144, 35395.90959500189, 30047.785347436115, 24980.17549278444, 0.0713125, 1.02075, 0.10075, 192.0, 0.0, 0.0, 0.0, 0.0, 0.0, 0.0, 0.0, 0.0, 0.0, 1.7074744502737648E9, 0.0, 2024-02-09 11:27:30.273
138.0, -10354.400915432087, -16977.133390561747, 18402.705300176778, -1014.5233290819323, 46958.601112198965, 18726.067987211703, 35235.871104701895, 10332.47385412143, 31989.727257457645, 2222.3892477022705, 38966.73488220393, 28310.496009647373, 40524.94204341675, 35173.80031034951, 29889.57970018145, 24839.985351560754, 0.06265625, 1.0273750000000001, 0.103375, 192.0, 0.5, 88.0, 16.0, 40.0, 1.5, 40.0, 0.0, 0.0, 0.0, 1.7074744502817628E9, 0.0, 2024-02-09 11:27:30.281
140.0, -10276.639196472073, -16953.686410628132, 18459.23286190425, -1060.7690883599626, 47294.525479617776, 18778.773400637318, 35395.954298490804, 10429.167500635089, 32138.098137151974, 2338.730077592144, 39109.40606706215, 28379.451141291996, 40594.835948328495, 35258.60282881294, 29960.054750449035, 24871.613069965017, 0.06265625, 1.0273750000000001, 0.103375, 192.0, 0.0, 0.0, 0.0, 0.0, 0.0, 0.0, 0.0, 0.0, 0.0, 1.70747445029098E9, 0.0, 2024-02-09 11:27:30.290
142.0, -10369.309528983777, -16989.963291879092, 18380.599424910477, -1056.9022365691944, 47041.727249828255, 18692.965053673393, 35265.643628316364, 10315.352417868664, 32152.559715814557, 2329.7670280655657, 39208.46899848807, 28313.08881200419, 40821.259119660754, 35171.2522114816, 29984.820483305513, 24905.40890758144, 0.06265625, 1.0273750000000001, 0.103375, 192.0, 0.0, 0.0, 0.0, 0.0, 0.0, 0.0, 0.0, 0.0, 0.0, 1.7074744502977924E9, 0.0, 2024-02-09 11:27:30.297
144.0, -10287.010405899335, -16938.844852309805, 18456.818873503074, -981.4650990325331, 47120.40539031093, 18805.260217816856, 35306.0332305471, 10349.505883396374, 31969.633039192326, 2540.611033512477, 38906.116951241136, 28351.533812467318, 40355.47111695661, 35265.911849249824, 29867.987915037625, 24795.61713881697, 0.06265625, 1.0273750000000001, 0.103375, 192.0, 0.0, 0.0, 0.0, 0.0, 0.0, 0.0, 0.0, 0.0, 0.0, 1.7074744503058069E9, 0.0, 2024-02-09 11:27:30.305
146.0, -10373.399898219097, -17051.005905986538, 18336.29826740006, -1202.9485348401709, 47191.97567605683, 18659.437436990433, 35318.147876041876, 10333.747903555382, 32225.158181805396, 2554.0220801856617, 39286.25306919254, 28345.9905798424, 40817.772247525725, 35240.22969487068, 30018.728079644214, 24936.32137016313, 0.06265625, 1.0273750000000001, 0.103375, 192.0, 0.0, 0.0, 0.0, 0.0, 0.0, 0.0, 0.0, 0.0, 0.0, 1.707474450314832E9, 0.0, 2024-02-09 11:27:30.314
148.0, -10325.298944151276, -16922.17045094615, 18430.242649345713, -956.1182208202149, 46986.87606893493, 18749.04558051176, 35249.282151375075, 10287.32333032171, 31895.49230283407, 2595.9539527838174, 38911.973108288425, 28218.630339936062, 40369.306846774445, 35001.35660187681, 29826.27955988402, 24738.0390451001, 0.057328125, 1.0296875, 0.10768749999999999, 192.0, 0.5, 80.0, 16.0, 32.0, 1.5, 64.0, 0.0, 0.0, 0.0, 1.707474450322822E9, 0.0, 2024-02-09 11:27:30.322
150.0, -10226.303067958721, -16898.164677401146, 18538.916830887418, -932.7829996088743, 47360.731346694396, 18883.424268177067, 35430.64420588544, 10479.771850081903, 32240.37971977946, 3071.397909092654, 39202.0540478294, 28519.708337749045, 40659.834821204524, 35542.31352118415, 30021.857323867956, 24940.791719054192, 0.057328125, 1.0296875, 0.10768749999999999, 192.0, 0.0, 0.0, 0.0, 0.0, 0.0, 0.0, 0.0, 0.0, 0.0, 1.7074744503298311E9, 0.0, 2024-02-09 11:27:30.329
152.0, -10348.678868851528, -16980.88848363024, 18409.83550665802, -1002.274573120424, 47059.22866573676, 18729.063120968716, 35249.79624149755, 10345.057886249768, 32203.23112049474, 2843.9465575154495, 39268.1705079282, 28400.640595035627, 40833.150247710975, 35340.20904781926, 30038.576428720527, 24981.76246664077, 0.057328125, 1.0296875, 0.10768749999999999, 192.0, 0.0, 0.0, 0.0, 0.0, 0.0, 0.0, 0.0, 0.0, 0.0, 1.7074744503378627E9, 0.0, 2024-02-09 11:27:30.337
154.0, -10289.267932089322, -16967.432733468144, 18458.070571192573, -1030.3483641562896, 47133.3246986061, 18762.098999273658, 35298.83596883249, 10379.211351777478, 31972.091731082408, 2777.4277660164557, 38905.468750651926, 28327.84096334469, 40283.67731376616, 35161.81977532146, 29856.633228854327, 24780.060324676077, 0.057328125, 1.0296875, 0.10768749999999999, 192.0, 0.0, 0.0, 0.0, 0.0, 0.0, 0.0, 0.0, 0.0, 0.0, 1.7074744503471525E9, 0.0, 2024-02-09 11:27:30.347
156.0, -10309.093929421178, -16972.350117248312, 18429.79561445661, -1029.342535655801, 47268.932732216446, 18764.021249296817, 35349.90970491287, 10394.67875894055, 32283.67504878939, 2779.998216628816, 39321.2335492651, 28391.52108329786, 40825.72946855181, 35353.35187355898, 30050.08757711501, 24937.0366259857, 0.057328125, 1.0296875, 0.10768749999999999, 192.0, 0.0, 0.0, 0.0, 0.0, 0.0, 0.0, 0.0, 0.0, 0.0, 1.707474450353915E9, 0.0, 2024-02-09 11:27:30.353
158.0, -10398.612665964683, -17039.89708899225, 18354.02320075312, -1092.2179928085795, 46942.82078061352, 18668.40048651701, 35213.25113931312, 10244.966774578903, 31987.98382139013, 2731.3608206940676, 38974.446234041, 28314.161695738043, 40435.53506559552, 35172.48155742664, 29890.987860082136, 24800.04278421912, 0.0566640625, 1.0238437500000002, 0.11084374999999999, 192.0, 0.5, 96.0, 15.5, 104.0, 1.5, 72.0, 0.0, 0.0, 0.0, 1.707474450361882E9, 0.0, 2024-02-09 11:27:30.361
160.0, -10315.933563224502, -17008.671701988187, 18395.30687276207, -1135.8709497297943, 47273.78306076325, 18734.740464060364, 35378.51993781566, 10368.370755716653, 32068.226583984684, 2503.596544694489, 39024.29062417634, 28228.57686621867, 40399.99579191158, 34997.601508808315, 29893.379496738853, 24740.162460823354, 0.0566640625, 1.0238437500000002, 0.11084374999999999, 192.0, 0.0, 0.0, 0.0, 0.0, 0.0, 0.0, 0.0, 0.0, 0.0, 1.7074744503698995E9, 0.0, 2024-02-09 11:27:30.369
162.0, -10375.389203475619, -16982.698974931118, 18381.046459799585, -974.7819274403963, 47063.27433148317, 18762.344868462667, 35273.77966329809, 10301.60609502865, 32165.344913642995, 2812.6988187669303, 39221.72358295007, 28405.28975788233, 40781.96475290832, 35450.82783112858, 29996.51044565564, 24944.926791778424, 0.0566640625, 1.0238437500000002, 0.11084374999999999, 192.0, 0.0, 0.0, 0.0, 0.0, 0.0, 0.0, 0.0, 0.0, 0.0, 1.707474450378955E9, 0.0, 2024-02-09 11:27:30.378
164.0, -10294.766461225327, -16960.59309966482, 18467.972393986274, -1021.6982390520858, 47151.13903893698, 18773.967775579426, 35338.46561175175, 10348.030668262323, 31971.912917126767, 2604.782891843664, 38896.68451508099, 28317.045070772776, 40284.39256958873, 35118.055059677965, 29854.71097883117, 24780.32854560954, 0.0566640625, 1.0238437500000002, 0.11084374999999999, 192.0, 0.0, 0.0, 0.0, 0.0, 0.0, 0.0, 0.0, 0.0, 0.0, 1.7074744503859615E9, 0.0, 2024-02-09 11:27:30.385
166.0, -10350.399953174587, -16999.373376294778, 18404.940474622308, -1056.8128295913732, 47239.58489174663, 18770.36914472212, 35366.53940278762, 10390.498982727408, 32262.19502236784, 2692.8934684864844, 39328.96725284663, 28417.739679543934, 40843.007367015765, 35410.88526378694, 30067.36547557896, 24975.503978193283, 0.0566640625, 1.0238437500000002, 0.11084374999999999, 192.0, 0.0, 0.0, 0.0, 0.0, 0.0, 0.0, 0.0, 0.0, 0.0, 1.707474450393989E9, 0.0, 2024-02-09 11:27:30.393
168.0, -10427.02173316738, -17048.74837979655, 18255.027324560564, -1098.9011644007164, 46848.09408761193, 18674.726030197864, 35172.325095215456, 10265.753896922339, 31781.900737512202, 2504.423559239335, 38861.74873849735, 28206.20277001891, 40239.33145276683, 35116.4904375661, 29802.676117739218, 24765.107007635477, 0.06333203125, 1.020921875, 0.113421875, 192.0, 1.0, 24.0, 15.5, 104.0, 1.5, 80.0, 0.0, 0.0, 0.0, 1.7074744504029677E9, 0.0, 2024-02-09 11:27:30.402
170.0, -10273.80052492625, -16949.394875692713, 18512.832345108076, -997.2454306179799, 47353.578788468694, 18818.380691812123, 35436.433307699364, 10446.803027010326, 32158.505279839672, 2668.2171426078253, 39095.25741282194, 28387.877748951647, 40480.86440335088, 35248.991578697154, 29936.853639704426, 24838.15250851542, 0.06333203125, 1.020921875, 0.113421875, 192.0, 0.0, 0.0, 0.0, 0.0, 0.0, 0.0, 0.0, 0.0, 0.0, 1.7074744504099774E9, 0.0, 2024-02-09 11:27:30.409
172.0, -10440.656297285115, -17139.071779140446, 18332.38671212038, -1113.8321296968616, 47044.43181090734, 18697.83773396465, 35267.65528531734, 10310.256220132855, 32048.19942095273, 2354.398650455314, 39212.6040712123, 28302.896416532567, 40724.94545280284, 35311.017669560635, 30030.75331816117, 24949.598306369582, 0.06333203125, 1.020921875, 0.113421875, 192.0, 0.0, 0.0, 0.0, 0.0, 0.0, 0.0, 0.0, 0.0, 0.0, 1.7074744504181676E9, 0.0, 2024-02-09 11:27:30.418
174.0, -10416.739930717937, -17091.99900531757, 18282.944653385242, -1233.4363142772097, 47009.496034323696, 18606.01676774225, 35242.82249722749, 10269.821914413204, 31748.104899895778, 1960.225636985974, 38735.68489976942, 28063.397474693953, 40067.24537220543, 34866.3297136223, 29737.543134396452, 24651.180166146776, 0.06333203125, 1.020921875, 0.113421875, 192.0, 0.0, 0.0, 0.0, 0.0, 0.0, 0.0, 0.0, 0.0, 0.0, 1.707474450426046E9, 0.0, 2024-02-09 11:27:30.426
176.0, -10357.23958697791, -17035.493795334554, 18359.16410197784, -1079.8798298692502, 47249.151438373505, 18770.61501391113, 35350.0438153796, 10371.410592962575, 32085.705648148734, 2372.1906390417385, 39230.59722549882, 28311.16656198103, 40784.915183176425, 35341.483097253215, 29986.966250773225, 24896.11058188803, 0.06333203125, 1.020921875, 0.113421875, 192.0, 0.0, 0.0, 0.0, 0.0, 0.0, 0.0, 0.0, 0.0, 0.0, 1.7074744504341877E9, 0.0, 2024-02-09 11:27:30.434
178.0, -10406.01109337939, -16991.371451779778, 18340.455691868745, -954.6877091750753, 46905.71688481771, 18739.076702484694, 35202.38819150784, 10274.292263304265, 31943.74971911308, 2594.5010893942226, 38942.12561155863, 28333.741823880893, 40447.895580279306, 35406.57137710707, 29870.11133076088, 24826.64136012094, 0.066666015625, 1.0244609375, 0.1157109375, 192.0, 1.0, 24.0, 16.0, 16.0, 1.5, 88.0, 0.0, 0.0, 0.0, 1.7074744504420185E9, 0.0, 2024-02-09 11:27:30.442
180.0, -10339.38054315812, -17090.792011116984, 18469.067629464582, -1144.2528539005345, 47327.31548873371, 18751.213699723925, 35381.202147150296, 10413.789500449837, 32160.002846718176, 2396.8446131759424, 39118.190302633084, 28392.549263542805, 40704.11362697049, 35239.38032858138, 29944.006197930124, 24855.475110468284, 0.066666015625, 1.0244609375, 0.1157109375, 192.0, 0.0, 0.0, 0.0, 0.0, 0.0, 0.0, 0.0, 0.0, 0.0, 1.7074744504500146E9, 0.0, 2024-02-09 11:27:30.450
182.0, -10430.530957046862, -17054.202205443646, 18292.265330823106, -1073.1519547882026, 47005.517423810656, 18673.340222041636, 35226.773944708584, 10296.018158914823, 32049.585229108958, 2007.611335231225, 39136.36227087525, 28178.553662127695, 40828.255215675264, 35194.900357115315, 29943.425052574286, 24860.370142503994, 0.066666015625, 1.0244609375, 0.1157109375, 192.0, 0.0, 0.0, 0.0, 0.0, 0.0, 0.0, 0.0, 0.0, 0.0, 1.7074744504590518E9, 0.0, 2024-02-09 11:27:30.459
184.0, -10259.0707253302, -16917.610695077266, 18463.658507306398, -959.4486307440557, 47126.64152701396, 18789.166961809035, 35335.64929195038, 10376.05975580928, 31885.434017829186, 2452.9251400143075, 38831.10449684912, 28341.69904490698, 40281.37508408727, 35136.607007575876, 29808.62168176433, 24740.542440479094, 0.066666015625, 1.0244609375, 0.1157109375, 192.0, 0.0, 0.0, 0.0, 0.0, 0.0, 0.0, 0.0, 0.0, 0.0, 1.7074744504661598E9, 0.0, 2024-02-09 11:27:30.466
186.0, -10405.698168957017, -17023.803832984428, 18313.90181945584, -1126.170292636191, 47174.47426014832, 18706.21963813539, 35310.95061432727, 10345.504921138874, 32423.97694873535, 2394.2965143080373, 39372.77667197903, 28470.579203436282, 40999.938964836474, 35428.811362840104, 30065.554984278082, 24979.50494045078, 0.066666015625, 1.0244609375, 0.1157109375, 192.0, 0.0, 0.0, 0.0, 0.0, 0.0, 0.0, 0.0, 0.0, 0.0, 1.7074744504740531E9, 0.0, 2024-02-09 11:27:30.474
188.0, -10398.143279331121, -17021.948638194637, 18280.553016728525, -1093.3132282868896, 46866.98131167666, 18666.03120160475, 35185.3561622329, 10234.260288984811, 31681.675515374605, 2053.0524317088643, 38800.817883112184, 28192.456447178894, 40336.427430680684, 35180.52818543055, 29744.114547266312, 24724.9856263382, 0.066666015625, 1.0244609375, 0.1157109375, 192.0, 0.0, 0.0, 0.0, 0.0, 0.0, 0.0, 0.0, 0.0, 0.0, 1.707474450482139E9, 0.0, 2024-02-09 11:27:30.482
190.0, -10215.64128585354, -16945.97505879105, 18470.76636204319, -1048.565035887365, 47306.90834604602, 18768.066915043226, 35410.88526378694, 10403.507698000396, 32196.83852158052, 2240.315346755427, 39085.95908712853, 28337.496916949385, 40619.17699804032, 35149.81688854896, 29909.74097368014, 24802.43442087584, 0.074, 1.022, 0.116, 192.0, 1.0, 40.0, 15.5, 120.0, 1.5, 80.0, 0.0, 0.0, 0.0, 1.7074744504901063E9, 0.0, 2024-02-09 11:27:30.490
192.0, -10322.99671447238, -16996.847629171327, 18401.900637376384, -970.4680407605221, 47078.987607835246, 18753.76179859183, 35285.156701225846, 10321.007409215857, 32320.331909696095, 2260.1413440872843, 39302.45808392264, 28413.224627163963, 41052.666730006546, 35535.65270133647, 30044.38788227891, 24981.047210818197, 0.074, 1.022, 0.116, 192.0, 0.0, 0.0, 0.0, 0.0, 0.0, 0.0, 0.0, 0.0, 0.0, 1.707474450498314E9, 0.0, 2024-02-09 11:27:30.498
194.0, -10315.75474926886, -17029.257658631523, 18424.431195787336, -1081.176231047658, 47107.575488993585, 18733.153490204037, 35303.663945634835, 10333.502034366375, 32129.805639959057, 2153.2329503575506, 38918.76803860284, 28335.46290820395, 40491.68264766725, 35116.177513143724, 29869.44077842722, 24784.776542756146, 0.074, 1.022, 0.116, 192.0, 0.0, 0.0, 0.0, 0.0, 0.0, 0.0, 0.0, 0.0, 0.0, 1.7074744505061033E9, 0.0, 2024-02-09 11:27:30.506
196.0, -10265.060992844225, -16956.234509496036, 18506.842077594054, -965.8412296582735, 47300.26987794279, 18813.99974989888, 35397.80949328059, 10436.632983283162, 32345.522325697224, 2025.2692133509177, 39297.98773503157, 28323.12474526462, 41030.60555822916, 35343.450050765285, 30036.095385085988, 24936.477832374316, 0.074, 1.022, 0.116, 192.0, 0.0, 0.0, 0.0, 0.0, 0.0, 0.0, 0.0, 0.0, 0.0, 1.7074744505141473E9, 0.0, 2024-02-09 11:27:30.514
198.0, -10394.812869407282, -17033.593897055853, 18328.49750858516, -1044.3629079297673, 46898.13964344736, 18673.496684252823, 35181.62342090886, 10233.925012817981, 32161.098082196488, 2330.303469932493, 39063.62969441768, 28411.592949818725, 40637.99716687169, 35270.15868069633, 29933.1656018693, 24870.517834486705, 0.074, 1.022, 0.116, 192.0, 0.0, 0.0, 0.0, 0.0, 0.0, 0.0, 0.0, 0.0, 0.0, 1.7074744505211773E9, 0.0, 2024-02-09 11:27:30.521
200.0, -10280.215475584922, -17028.967085953605, 18431.136719123926, -1114.7709029639846, 47281.717930044884, 18727.83377502367, 35363.9466004308, 10371.075316795745, 32019.969167705676, 1918.8525579992008, 38980.72707423295, 28247.93347691697, 40567.18684043728, 35157.46118515267, 29848.363083405864, 24759.787292455112, 0.07200000000000001, 1.022, 0.114, 192.0, 1.0, 32.0, 15.5, 120.0, 1.5, 72.0, 0.0, 0.0, 0.0, 1.7074744505301747E9, 0.0, 2024-02-09 11:27:30.530
202.0, -10272.235902814378, -16921.835174779317, 18481.40579240391, -949.8597323727289, 47123.020544412204, 18747.36919967761, 35311.75527712766, 10341.168682714544, 32441.590123366135, 2338.730077592144, 39323.111095799344, 28392.035173420332, 41007.292688762274, 35357.44224279431, 30058.961219663768, 24946.290248190195, 0.07200000000000001, 1.022, 0.114, 192.0, 0.0, 0.0, 0.0, 0.0, 0.0, 0.0, 0.0, 0.0, 0.0, 1.7074744505382018E9, 0.0, 2024-02-09 11:27:30.538
204.0, -10273.1746760815, -16970.62903292525, 18459.009344459697, -1005.8061487443625, 47135.09048641807, 18774.213644768435, 35278.853509289445, 10316.559412069251, 32155.97953271622, 2254.955739373653, 38984.57157427926, 28407.882560239144, 40530.95466267523, 35274.74078830967, 29907.841075401437, 24813.207961703298, 0.07200000000000001, 1.022, 0.114, 192.0, 0.0, 0.0, 0.0, 0.0, 0.0, 0.0, 0.0, 0.0, 0.0, 1.7074744505461946E9, 0.0, 2024-02-09 11:27:30.546
206.0, -10271.610053969629, -16983.436582498143, 18470.408734131903, -998.2065556295581, 47289.78690979325, 18811.04931963078, 35420.45181041382, 10454.804951525326, 32386.962459917366, 2128.154293078696, 39334.06345058244, 28392.23633912043, 40957.7165195604, 35381.87269948396, 30071.008809925177, 24973.291155492207, 0.07200000000000001, 1.022, 0.114, 192.0, 0.0, 0.0, 0.0, 0.0, 0.0, 0.0, 0.0, 0.0, 0.0, 1.7074744505541885E9, 0.0, 2024-02-09 11:27:30.554
208.0, -10335.312525667254, -17003.419042041187, 18414.730538693733, -1007.2590121339575, 46967.22888555872, 18729.75602504683, 35265.30835214953, 10321.074464449222, 32093.148779052353, 2079.9862837775095, 38991.83589122724, 28293.195759438964, 40587.638686613886, 35195.81677863798, 29891.39019148233, 24836.029092792167, 0.07200000000000001, 1.022, 0.114, 192.0, 0.0, 0.0, 0.0, 0.0, 0.0, 0.0, 0.0, 0.0, 0.0, 1.7074744505624716E9, 0.0, 2024-02-09 11:27:30.562
210.0, -10206.54412586023, -16930.909983028174, 18545.75646469074, -976.5924187412762, 47351.500076234355, 18844.755750269385, 35439.24962750073, 10461.331660906275, 32337.87802909351, 2231.1287797842956, 39181.244573741504, 28422.18767669054, 40794.638192014485, 35331.58127445952, 30019.420983722328, 24894.568311520616, 0.07, 1.014, 0.11800000000000001, 192.0, 1.0, 24.0, 15.5, 88.0, 1.5, 88.0, 0.0, 0.0, 0.0, 1.7074744505702555E9, 0.0, 2024-02-09 11:27:30.570
212.0, -10348.500054895885, -17012.247981101034, 18396.960901851762, -1010.0082767019602, 47056.59115989103, 18731.678275069986, 35288.084779749486, 10330.596307587184, 32331.7312993683, 2161.860723717299, 39300.69229611067, 28387.028382662345, 40998.57550842471, 35372.9990569352, 30053.820318439048, 24974.36403922606, 0.07, 1.014, 0.11800000000000001, 192.0, 0.0, 0.0, 0.0, 0.0, 0.0, 0.0, 0.0, 0.0, 0.0, 1.7074744505772471E9, 0.0, 2024-02-09 11:27:30.577
214.0, -10294.341778080676, -16991.326748290867, 18442.267887862672, -1028.2473001774908, 47093.78446266466, 18749.537318889776, 35300.28883222209, 10322.572031327729, 32063.644476371348, 2097.286533985917, 38915.10235251216, 28308.12672473511, 40425.76735326855, 35153.996664762104, 29852.922839274746, 24763.788254712614, 0.07, 1.014, 0.11800000000000001, 192.0, 0.0, 0.0, 0.0, 0.0, 0.0, 0.0, 0.0, 0.0, 0.0, 1.707474450586283E9, 0.0, 2024-02-09 11:27:30.586
216.0, -10313.65368529006, -17016.47246080309, 18418.865611417965, -1043.9158730406612, 47248.83851395113, 18761.271984728814, 35359.677417239836, 10379.412517477575, 32356.273514780227, 2154.864627702788, 39327.80496213496, 28384.79320821681, 40945.62422581008, 35368.08167315503, 30036.721233930737, 24939.920001020433, 0.07, 1.014, 0.11800000000000001, 192.0, 0.0, 0.0, 0.0, 0.0, 0.0, 0.0, 0.0, 0.0, 0.0, 1.7074744505942807E9, 0.0, 2024-02-09 11:27:30.594
218.0, -10360.212368990466, -17032.252792388535, 18384.64509065689, -1034.7069543250745, 46933.8800828314, 18694.730841485365, 35206.63502295435, 10251.98522233787, 32074.73094162118, 2087.1611937476628, 39002.67648728806, 28286.825512269203, 40607.57644266802, 35164.14435674481, 29877.10742677539, 24800.981557486244, 0.07, 1.014, 0.11800000000000001, 192.0, 0.0, 0.0, 0.0, 0.0, 0.0, 0.0, 0.0, 0.0, 0.0, 1.7074744506022696E9, 0.0, 2024-02-09 11:27:30.602
220.0, -10271.475943502897, -16997.205257082613, 18451.27564087816, -1045.1005154967922, 47277.82872650966, 18779.95804309345, 35372.01558017917, 10376.819715120759, 32205.622757151457, 2142.6158717412795, 39103.594613503774, 28350.617390944648, 40640.27704480613, 35246.57759029599, 29935.333721081464, 24815.19726695982, 0.066, 1.018, 0.11800000000000001, 192.0, 1.0, 8.0, 15.5, 104.0, 1.5, 88.0, 0.0, 0.0, 0.0, 1.7074744506102753E9, 0.0, 2024-02-09 11:27:30.610
222.0, -10371.00826156238, -17040.411179114722, 18376.687869630798, -1038.9761375160383, 47040.43084864984, 18707.47133582489, 35247.046976929545, 10282.137725608078, 32252.42731004087, 2139.6207379842685, 39256.704063022626, 28340.84967861768, 40946.80886826621, 35310.861207349444, 30002.41130619184, 24914.59547455257, 0.066, 1.018, 0.11800000000000001, 192.0, 0.0, 0.0, 0.0, 0.0, 0.0, 0.0, 0.0, 0.0, 0.0, 1.7074744506182535E9, 0.0, 2024-02-09 11:27:30.618
224.0, -10305.56235379724, -17007.71057697661, 18443.02784717415, -1041.1666084726583, 47092.21984055279, 18743.435292653478, 35280.17226221231, 10298.543906038274, 32011.274339112562, 2134.6810024596457, 38891.11893071162, 28288.12191344761, 40412.40101008428, 35120.13377191231, 29837.790708278502, 24730.148879307377, 0.066, 1.018, 0.11800000000000001, 192.0, 0.0, 0.0, 0.0, 0.0, 0.0, 0.0, 0.0, 0.0, 0.0, 1.707474450626423E9, 0.0, 2024-02-09 11:27:30.626
226.0, -10318.99575221488, -17026.55309755243, 18433.729521480742, -1052.633053378231, 47262.920112957974, 18764.24476674137, 35354.782385204126, 10381.535933200828, 32323.48350566429, 2210.5204713965027, 39313.388086961284, 28375.114902867666, 40957.56005734921, 35349.70853921277, 30036.095385085988, 24925.07844270211, 0.066, 1.018, 0.11800000000000001, 192.0, 0.0, 0.0, 0.0, 0.0, 0.0, 0.0, 0.0, 0.0, 0.0, 1.707474450633304E9, 0.0, 2024-02-09 11:27:30.633
228.0, -10371.991738318413, -17042.244022160055, 18390.12126804844, -1043.7370590850187, 46949.4816004612, 18700.31877759919, 35199.21424379519, 10261.194141053456, 32030.09450794393, 2175.7411570240447, 38981.531737033336, 28277.013096453324, 40601.474416431716, 35149.794536804504, 29885.91401409078, 24798.9028452519, 0.066, 1.018, 0.11800000000000001, 192.0, 0.0, 0.0, 0.0, 0.0, 0.0, 0.0, 0.0, 0.0, 0.0, 1.7074744506423995E9, 0.0, 2024-02-09 11:27:30.642
230.0, -10282.65181573055, -17007.107079876314, 18471.168693443382, -1049.7496783434963, 47288.80343303722, 18796.185409568003, 35357.71046372777, 10389.739023415927, 32160.919268240843, 2268.9702831471304, 39082.338104526774, 28340.626161173128, 40613.87963460441, 35228.42797379827, 29941.25693336212, 24818.86295305049, 0.064, 1.024, 0.116, 192.0, 1.0, 0.0, 16.0, 0.0, 1.5, 80.0, 0.0, 0.0, 0.0, 1.7074744506503153E9, 0.0, 2024-02-09 11:27:30.650
232.0, -10391.214238549977, -17049.530690852487, 18388.958977336762, -1038.5738061158427, 47051.33849994403, 18721.821155765196, 35247.337549607466, 10301.650798517561, 32214.831675867044, 2310.7456935340992, 39238.800315713925, 28327.818611600236, 40911.53781551574, 35301.24995723367, 30012.1343150299, 24923.290303145684, 0.064, 1.024, 0.116, 192.0, 0.0, 0.0, 0.0, 0.0, 0.0, 0.0, 0.0, 0.0, 0.0, 1.7074744506583526E9, 0.0, 2024-02-09 11:27:30.658
234.0, -10329.925755253525, -17010.661007244707, 18449.107521665996, -1027.6885065661081, 47100.69115170135, 18783.400211739565, 35307.95548057026, 10367.320223727254, 31971.55528921548, 2385.8028514150205, 38868.94600021196, 28282.22105291141, 40370.15621306375, 35113.96469044265, 29853.66044684177, 24752.321809807043, 0.064, 1.024, 0.116, 192.0, 0.0, 0.0, 0.0, 0.0, 0.0, 0.0, 0.0, 0.0, 0.0, 1.7074744506653469E9, 0.0, 2024-02-09 11:27:30.665
236.0, -10330.730418053916, -17017.254771859025, 18440.591507028523, -1028.7390385555075, 47270.29618862822, 18807.87537191813, 35383.437321595826, 10446.73597177696, 32285.01615345671, 2569.713004793287, 39299.64176412127, 28380.926356426044, 40914.041210894735, 35356.50346952718, 30059.721178975247, 24965.199823999385, 0.064, 1.024, 0.116, 192.0, 0.0, 0.0, 0.0, 0.0, 0.0, 0.0, 0.0, 0.0, 0.0, 1.70747445067438E9, 0.0, 2024-02-09 11:27:30.674
238.0, -10392.510639728385, -17045.194452428157, 18378.25249174267, -1038.9761375160383, 46946.57587368201, 18710.488821326355, 35206.32209853198, 10276.639196472073, 31995.873987182855, 2619.646801906443, 38972.859260184676, 28284.232709912387, 40558.760232777626, 35156.32124618546, 29896.508740962596, 24819.354691428507, 0.064, 1.024, 0.116, 192.0, 0.0, 0.0, 0.0, 0.0, 0.0, 0.0, 0.0, 0.0, 0.0, 1.7074744506824503E9, 0.0, 2024-02-09 11:27:30.682
240.0, -10317.85581324766, -17032.99039995556, 18422.41953878636, -1091.4580334970992, 47275.79471776423, 18774.72773489091, 35366.65116150989, 10377.154991287589, 32113.622976973413, 2745.1741987674477, 39052.207953001016, 28326.499858677373, 40558.55906707753, 35196.68849667174, 29930.751613468125, 24808.58115060105, 0.06, 1.012, 0.112, 192.0, 0.5, 112.0, 15.5, 80.0, 1.5, 64.0, 0.0, 0.0, 0.0, 1.707474450689402E9, 0.0, 2024-02-09 11:27:30.689
242.0, -10461.331660906275, -17149.510043801074, 18294.969891902198, -1151.718336548607, 47009.87601397944, 18664.667745192975, 35245.90703796232, 10277.645024972562, 32141.875581964923, 2742.1343615215255, 39192.28633550243, 28271.380456850584, 40801.38841883998, 35208.601976466416, 29983.188805960275, 24880.68787821387, 0.06, 1.012, 0.112, 192.0, 0.0, 0.0, 0.0, 0.0, 0.0, 0.0, 0.0, 0.0, 0.0, 1.7074744506983857E9, 0.0, 2024-02-09 11:27:30.698
244.0, -10361.486418424418, -17018.618228270796, 18382.074640044528, -1041.9042160396834, 47087.63773293945, 18738.719074573408, 35304.289794479584, 10328.338781397199, 31820.77042111998, 2880.1116800441364, 38792.95006906391, 28220.239665536843, 40226.9932898275, 34992.9076424727, 29805.224216607123, 24690.98862302168, 0.06, 1.012, 0.112, 192.0, 0.0, 0.0, 0.0, 0.0, 0.0, 0.0, 0.0, 0.0, 0.0, 1.7074744507064931E9, 0.0, 2024-02-09 11:27:30.706
246.0, -10326.371827885132, -17025.435510329666, 18428.722730722755, -1014.5903843152981, 47260.461421067885, 18790.865694387638, 35376.932963959334, 10427.357009334208, 32211.747135132213, 3131.4793981885196, 39246.66812976219, 28382.13335062663, 40742.17864777787, 35341.080765853025, 30006.79224810508, 24934.332064906608, 0.06, 1.012, 0.112, 192.0, 0.0, 0.0, 0.0, 0.0, 0.0, 0.0, 0.0, 0.0, 0.0, 1.707474450713719E9, 0.0, 2024-02-09 11:27:30.713
248.0, -10363.408668447575, -17031.17990865468, 18437.305800593593, -1005.8955557221838, 46986.429034045825, 18720.32358888669, 35225.14226736334, 10316.1347289246, 32092.746447652156, 3237.225501206577, 39040.85326681772, 28353.903097379578, 40601.89909957637, 35168.257077724586, 29944.229715374677, 24871.59071822056, 0.06, 1.012, 0.112, 192.0, 0.0, 0.0, 0.0, 0.0, 0.0, 0.0, 0.0, 0.0, 0.0, 1.707474450721489E9, 0.0, 2024-02-09 11:27:30.721
250.0, -10279.23199882889, -17004.491925775044, 18488.200722718328, -1017.3620006277563, 47289.272819670776, 18812.256313831367, 35369.98157143373, 10456.973070737491, 32143.730776754714, 3189.236305861033, 39093.89395641017, 28375.360772056672, 40512.402714777316, 35216.290976559045, 29955.182070157778, 24851.429444721874, 0.058, 1.024, 0.116, 192.0, 0.5, 104.0, 16.0, 0.0, 1.5, 80.0, 0.0, 0.0, 0.0, 1.7074744507305465E9, 0.0, 2024-02-09 11:27:30.730
252.0, -10402.457166010996, -17071.99419403007, 18366.853102070465, -1052.6107016337755, 47036.58634860353, 18710.13119341507, 35223.86821792939, 10331.602136087673, 32188.210748220772, 3127.2549184864665, 39250.557333297416, 28355.065388091254, 40790.63722975698, 35265.68833180527, 30014.16832377533, 24925.860753758046, 0.058, 1.024, 0.116, 192.0, 0.0, 0.0, 0.0, 0.0, 0.0, 0.0, 0.0, 0.0, 0.0, 1.7074744507374885E9, 0.0, 2024-02-09 11:27:30.737
254.0, -10351.00345027488, -17036.85725174633, 18374.92208181883, -1063.4289459501442, 47073.533782188155, 18737.445025139456, 35275.009009243135, 10308.065749176234, 31875.59925026885, 3076.6729207841067, 38834.94899689544, 28288.59130008117, 40160.16157390614, 35060.29815200545, 29817.18239989071, 24710.07701278651, 0.058, 1.024, 0.116, 192.0, 0.0, 0.0, 0.0, 0.0, 0.0, 0.0, 0.0, 0.0, 0.0, 1.7074744507455463E9, 0.0, 2024-02-09 11:27:30.745
0.0, -10314.301885879266, -17010.12456537778, 18474.99084174524, -1025.3639251427562, 47327.96368932292, 18802.309787548755, 35432.789973353145, 10399.86436365418, 32300.72942980879, 3158.1226775792456, 39318.05960155244, 28412.9564062305, 40874.36686448656, 35333.168248315844, 30063.610382510473, 24940.88112603201, 0.058, 1.024, 0.116, 192.0, 0.0, 0.0, 0.0, 0.0, 0.0, 0.0, 0.0, 0.0, 0.0, 1.7074744507535348E9, 0.0, 2024-02-09 11:27:30.753
2.0, -10463.455076629529, -17126.06306386746, 18251.071065791974, -1124.0245251684817, 46872.613951279396, 18665.338297526636, 35203.10344733041, 10209.82983229516, 31925.957730526658, 3011.629344419163, 38951.58039946323, 28281.304631388743, 40458.780879829035, 35126.92870222672, 29891.144322293323, 24814.392604159428, 0.058, 1.024, 0.116, 192.0, 0.0, 0.0, 0.0, 0.0, 0.0, 0.0, 0.0, 0.0, 0.0, 1.7074744507625403E9, 0.0, 2024-02-09 11:27:30.762
4.0, -10268.570216723707, -16999.306321061413, 18477.874216779976, -1025.6992013095858, 47318.06186652921, 18823.92392443704, 35443.429403713875, 10427.155843634111, 32100.815427400525, 3020.279469523367, 39023.53066486486, 28321.493067919382, 40443.42523138824, 35194.475673970665, 29900.375592753364, 24808.67055757887, 0.064, 1.014, 0.12, 192.0, 1.0, 0.0, 15.5, 88.0, 1.5, 96.0, 0.0, 0.0, 0.0, 1.707474450769554E9, 0.0, 2024-02-09 11:27:30.769
6.0, -10438.063494928301, -17135.54020351651, 18312.270142110603, -1152.2771301599896, 47016.492130338214, 18655.212957288382, 35270.27043941861, 10308.781004998804, 32158.393521117396, 2897.501337230365, 39226.75272545251, 28291.340564649174, 40829.75278255377, 35176.72838887315, 30009.943844073277, 24927.760652036748, 0.064, 1.014, 0.12, 192.0, 0.0, 0.0, 0.0, 0.0, 0.0, 0.0, 0.0, 0.0, 0.0, 1.7074744507776856E9, 0.0, 2024-02-09 11:27:30.777
8.0, -10375.031575564335, -17040.880565748284, 18347.652953583354, -1044.3852596742224, 47007.30556336708, 18728.370216890602, 35264.28017190459, 10332.56326109925, 31816.478886184563, 3110.3122961893437, 38796.2581272433, 28271.06753242821, 40187.56481260834, 35051.24569550106, 29775.675210437206, 24704.779649350603, 0.064, 1.014, 0.12, 192.0, 0.0, 0.0, 0.0, 0.0, 0.0, 0.0, 0.0, 0.0, 0.0, 1.7074744507867382E9, 0.0, 2024-02-09 11:27:30.786
10.0, -10369.533046428329, -17148.794787978506, 18371.05523002806, -1134.1275136622803, 47243.80937144868, 18763.99889755236, 35371.277972612144, 10421.992590664935, 32110.001994371654, 3074.884781227682, 39209.38542001074, 28361.502690494384, 40724.11843825799, 35359.07392013954, 29971.45414012124, 24915.802468753158, 0.064, 1.014, 0.12, 192.0, 0.0, 0.0, 0.0, 0.0, 0.0, 0.0, 0.0, 0.0, 0.0, 1.7074744507935936E9, 0.0, 2024-02-09 11:27:30.793
12.0, -10440.835111240758, -17121.10097659838, 18295.104002368927, -1117.0954843873365, 46891.61293406641, 18623.428776672936, 35190.89939485781, 10234.908489574014, 32052.446252399237, 2417.587032030467, 38949.83696339571, 28119.27683583222, 40505.428970507266, 34982.75995048999, 29886.875139102358, 24778.406295586385, 0.064, 1.014, 0.12, 192.0, 0.0, 0.0, 0.0, 0.0, 0.0, 0.0, 0.0, 0.0, 0.0, 1.7074744508016293E9, 0.0, 2024-02-09 11:27:30.801
14.0, -10362.648709136094, -17033.862117989316, 18362.069828757027, -1099.1246818452696, 47187.2371062323, 18746.586888621678, 35343.092422854, 10365.710898126472, 31842.54102021945, 3153.473514732542, 38919.170370003034, 28347.152870554077, 40294.22733714907, 35169.95581030319, 29814.969577189637, 24751.293629562097, 0.066, 1.026, 0.124, 192.0, 1.0, 8.0, 16.0, 8.0, 1.5, 112.0, 0.0, 0.0, 0.0, 1.7074744508096216E9, 0.0, 2024-02-09 11:27:30.809
16.0, -10446.333640376764, -17164.48571258613, 18305.497563540648, -1203.037941817992, 47044.43181090734, 18599.802982783673, 35252.299636876545, 10285.982225654392, 32150.704521024767, 2776.511344493788, 39191.749893635504, 28262.372703835095, 40883.10639656859, 35120.17847540122, 29970.82829127649, 24873.468264754807, 0.066, 1.026, 0.124, 192.0, 0.0, 0.0, 0.0, 0.0, 0.0, 0.0, 0.0, 0.0, 0.0, 1.707474450818614E9, 0.0, 2024-02-09 11:27:30.818
18.0, -10392.890619384125, -17101.945531600184, 18388.31077674756, -1065.1500302732027, 47064.995415806225, 18743.792920564763, 35286.92248903781, 10323.399045872575, 31780.80550203389, 2436.1836834172827, 38727.95119618788, 28151.373940870042, 40278.02232241897, 35108.26499560654, 29764.164062042724, 24665.753503531636, 0.066, 1.026, 0.124, 192.0, 0.0, 0.0, 0.0, 0.0, 0.0, 0.0, 0.0, 0.0, 0.0, 1.707474450825648E9, 0.0, 2024-02-09 11:27:30.825
20.0, -10270.134838835578, -17000.870943173282, 18468.397077130925, -1043.2900241959126, 47306.70718034592, 18802.62271197113, 35417.16610397889, 10467.076059231289, 32341.856639606554, 2855.189484976469, 39353.50946825856, 28459.090406786254, 41075.04082620631, 35440.18840076785, 30098.00971722719, 24996.224045303352, 0.066, 1.026, 0.124, 192.0, 0.0, 0.0, 0.0, 0.0, 0.0, 0.0, 0.0, 0.0, 0.0, 1.7074744508336096E9, 0.0, 2024-02-09 11:27:30.833
22.0, -10636.725799647069, -17294.595217060472, 18114.144279258762, -1258.3808610893323, 46755.46845858914, 18532.23365929528, 35083.119283094326, 10158.107895625579, 31900.8790732478, 2461.7987825630644, 38883.094654452165, 28209.48847645384, 40501.919746627784, 35058.86764036032, 29803.301966583964, 24742.285876546608, 0.066, 1.026, 0.124, 192.0, 0.0, 0.0, 0.0, 0.0, 0.0, 0.0, 0.0, 0.0, 0.0, 1.7074744508426273E9, 0.0, 2024-02-09 11:27:30.842
24.0, -10427.580526778762, -17123.00087487708, 18282.00588011812, -1219.1088460813578, 47145.59580631206, 18633.844689589107, 35315.353907984965, 10345.817845561249, 31802.665508111182, 2044.5587688158475, 38799.34266797813, 28117.086364875602, 40357.214553024125, 35020.400288152734, 29745.45565193363, 24650.800186491037, 0.06, 1.018, 0.122, 192.0, 0.5, 112.0, 15.5, 104.0, 1.5, 104.0, 0.0, 0.0, 0.0, 1.7074744508499231E9, 0.0, 2024-02-09 11:27:30.849
26.0, -10273.308786548232, -16958.98377406404, 18440.03271341714, -998.1395003961921, 47109.833015183576, 18752.018362524315, 35337.52683848463, 10384.419308235563, 32094.758104653134, 2387.2557148046153, 39140.720861044036, 28284.769151779314, 40854.9431985549, 35257.820517757005, 29905.44943874472, 24844.410996962906, 0.06, 1.018, 0.122, 192.0, 0.0, 0.0, 0.0, 0.0, 0.0, 0.0, 0.0, 0.0, 0.0, 1.707474450857685E9, 0.0, 2024-02-09 11:27:30.857
28.0, -10321.968534227435, -17019.646408515742, 18393.943416350296, -1016.3114686383568, 47041.21315970578, 18728.437272123967, 35292.59983212946, 10316.693522535983, 32127.257541091152, 2534.2854898316255, 38942.01385283635, 28387.944804185012, 40481.44554870672, 35307.53079742561, 29886.271642002066, 24800.758040041692, 0.06, 1.018, 0.122, 192.0, 0.0, 0.0, 0.0, 0.0, 0.0, 0.0, 0.0, 0.0, 0.0, 1.7074744508656788E9, 0.0, 2024-02-09 11:27:30.865
30.0, -10336.877147779125, -17053.062266476427, 18358.381790921903, -1108.043027882937, 47244.390516804524, 18745.402246165544, 35378.0505511821, 10394.544648473817, 32232.42249875337, 2388.9991508721296, 39237.28039709096, 28356.831175903226, 40849.310558952166, 35353.173059603345, 29964.346285384454, 24906.191218637374, 0.06, 1.018, 0.122, 192.0, 0.0, 0.0, 0.0, 0.0, 0.0, 0.0, 0.0, 0.0, 0.0, 1.7074744508747144E9, 0.0, 2024-02-09 11:27:30.874
32.0, -10351.629299119628, -17038.958315725125, 18418.776204440142, -999.1676806411364, 46980.10349036497, 18721.910562743018, 35254.57951481098, 10305.495298563874, 32042.29856041653, 2373.0623570754956, 39002.05063844331, 28338.94978033898, 40746.179610035375, 35294.92441355281, 29919.173409840278, 24839.493613182738, 0.06, 1.018, 0.122, 192.0, 0.0, 0.0, 0.0, 0.0, 0.0, 0.0, 0.0, 0.0, 0.0, 1.7074744508817475E9, 0.0, 2024-02-09 11:27:30.881
34.0, -10194.675349554462, -16904.892552482193, 18522.443595223856, -987.7459392244745, 47356.05983210324, 18801.68393870401, 35459.16503181041, 10460.884626017169, 32238.882152900955, 2301.335609118415, 39086.473177251006, 28386.760161728882, 40619.80284688507, 35353.12835611443, 29927.421203544287, 24829.591790389037, 0.064, 1.02, 0.122, 192.0, 1.0, 16.0, 15.5, 120.0, 1.5, 104.0, 0.0, 0.0, 0.0, 1.7074744508897235E9, 0.0, 2024-02-09 11:27:30.889
36.0, -10359.675927123539, -17020.585181782866, 18399.933683864318, -1065.1276785287475, 47091.45988124131, 18683.532617513254, 35309.38599221539, 10333.09970296618, 32442.84182105563, 2396.308171309015, 39353.15184034727, 28440.694921099537, 41143.16894330608, 35461.89194463396, 30078.85427222899, 24993.51948422426, 0.064, 1.02, 0.122, 192.0, 0.0, 0.0, 0.0, 0.0, 0.0, 0.0, 0.0, 0.0, 0.0, 1.7074744508977816E9, 0.0, 2024-02-09 11:27:30.897
38.0, -10221.184518478456, -16910.033453706917, 18512.832345108076, -936.4486856995447, 47149.50736159174, 18788.96579610894, 35360.23621085122, 10371.365889473664, 32002.959490175188, 2258.01792836403, 38886.04508472027, 28307.165599723532, 40421.18524565521, 35207.43968575474, 29833.365062876353, 24736.9885131107, 0.064, 1.02, 0.122, 192.0, 0.0, 0.0, 0.0, 0.0, 0.0, 0.0, 0.0, 0.0, 0.0, 1.7074744509057808E9, 0.0, 2024-02-09 11:27:30.905
40.0, -10254.712135161417, -16969.44439046912, 18482.83630404905, -983.4991077779661, 47309.188223980454, 18812.546886509288, 35425.90563606091, 10428.049913412324, 32526.34793834066, 2454.6015208484555, 39414.216806199176, 28523.239913372985, 41080.65111406459, 35606.37362079306, 30117.656900603404, 25023.67198749447, 0.064, 1.02, 0.122, 192.0, 0.0, 0.0, 0.0, 0.0, 0.0, 0.0, 0.0, 0.0, 0.0, 1.7074744509148016E9, 0.0, 2024-02-09 11:27:30.914
42.0, -10336.430112890019, -17004.98366415306, 18405.141640322407, -1039.3337654273232, 46966.62538845842, 18674.904844153505, 35236.899284946834, 10270.537170235773, 32126.139953868387, 2185.7770902844777, 39031.89021729115, 28317.93914055099, 40666.272123607654, 35217.900302159826, 29913.339604537443, 24841.549973672627, 0.064, 1.02, 0.122, 192.0, 0.0, 0.0, 0.0, 0.0, 0.0, 0.0, 0.0, 0.0, 0.0, 1.7074744509217634E9, 0.0, 2024-02-09 11:27:30.921
44.0, -10249.12419904759, -16965.666945656176, 18478.455362135814, -998.497128307477, 47294.0113894953, 18800.365185781146, 35425.43624942735, 10420.383265064153, 32217.782106135146, 2295.3006381154823, 39089.825938919304, 28398.226606634453, 40640.45585876177, 35327.289739524094, 29940.049939161534, 24832.050482279123, 0.07, 1.021, 0.122, 192.0, 1.0, 48.0, 15.5, 120.0, 1.5, 104.0, 0.0, 0.0, 0.0, 1.707474450929773E9, 0.0, 2024-02-09 11:27:30.929
46.0, -10337.011258245857, -16998.926341405673, 18406.92977987883, -997.0219131734268, 47072.349139732025, 18735.03103673828, 35318.72902139772, 10361.464066679962, 32266.128929391973, 2274.267646583038, 39275.34541789835, 28402.227568891954, 40992.6746478885, 35481.78499719918, 30029.211047793753, 24966.22800424433, 0.07, 1.021, 0.122, 192.0, 0.0, 0.0, 0.0, 0.0, 0.0, 0.0, 0.0, 0.0, 0.0, 1.707474450937817E9, 0.0, 2024-02-09 11:27:30.937
48.0, -10293.201839113455, -16987.68341394465, 18437.08228314904, -1026.6826780656193, 47066.31416872909, 18749.60437412314, 35323.55699820006, 10369.890674339615, 32032.106164944908, 2235.8449978643653, 38900.61842210513, 28337.228696015918, 40431.89173124931, 35252.83607874347, 29858.555478877486, 24783.90482472239, 0.07, 1.021, 0.122, 192.0, 0.0, 0.0, 0.0, 0.0, 0.0, 0.0, 0.0, 0.0, 0.0, 1.7074744509458215E9, 0.0, 2024-02-09 11:27:30.945
50.0, -10292.17365886851, -16994.299530303422, 18441.105597150996, -1038.3726404157449, 47261.936636201935, 18765.205891752947, 35402.77158054967, 10434.30840185981, 32325.49516266527, 2267.5621232464464, 39306.459046180134, 28403.166342159075, 40961.96335100691, 35442.69179614685, 30037.905876386867, 24949.531251136217, 0.07, 1.021, 0.122, 192.0, 0.0, 0.0, 0.0, 0.0, 0.0, 0.0, 0.0, 0.0, 0.0, 1.7074744509538424E9, 0.0, 2024-02-09 11:27:30.953
52.0, -10365.912063826569, -17023.08857716186, 18382.566378422543, -1020.9606314850607, 46925.878158316395, 18706.08552766866, 35246.19761064024, 10303.327179351709, 32051.552182621028, 2193.488442121559, 39005.40340011161, 28319.302596962763, 40648.39072804341, 35289.71645709473, 29894.76530489508, 24836.163203258897, 0.07, 1.021, 0.122, 192.0, 0.0, 0.0, 0.0, 0.0, 0.0, 0.0, 0.0, 0.0, 0.0, 1.7074744509618835E9, 0.0, 2024-02-09 11:27:30.961
54.0, -10282.69651921946, -16997.629940227263, 18456.103617680506, -1041.4571811505773, 47257.48863905533, 18790.351604265168, 35419.088354002044, 10430.083922157755, 32142.009692431653, 2227.8207216049104, 39053.23613324596, 28357.121748581143, 40606.61531765644, 35323.78051564461, 29924.40371804282, 24834.799746847126, 0.07100000000000001, 1.0194999999999999, 0.123, 192.0, 1.0, 32.0, 15.5, 104.0, 1.5, 112.0, 0.0, 0.0, 0.0, 1.707474450969867E9, 0.0, 2024-02-09 11:27:30.969
56.0, -10378.652558166094, -17043.4733681051, 18379.347727220982, -1033.9022915246835, 47037.74863931521, 18715.964998717904, 35293.69506760777, 10341.749828070382, 32227.505114973203, 2213.96264004262, 39251.384347842264, 28351.913792123058, 40963.50562137432, 35411.17583646486, 30014.101268541966, 24953.152233737976, 0.07100000000000001, 1.0194999999999999, 0.123, 192.0, 0.0, 0.0, 0.0, 0.0, 0.0, 0.0, 0.0, 0.0, 0.0, 1.7074744509771495E9, 0.0, 2024-02-09 11:27:30.977
58.0, -10330.864528520648, -17020.36166433831, 18430.98025691274, -1036.629204348231, 47047.58340687554, 18746.56453687722, 35315.063335307044, 10346.264880450355, 31962.94986760019, 2182.424328616182, 38863.35806409813, 28294.268643172818, 40403.348553579875, 35204.80217990901, 29838.37185363434, 24762.737722723214, 0.07100000000000001, 1.0194999999999999, 0.123, 192.0, 0.0, 0.0, 0.0, 0.0, 0.0, 0.0, 0.0, 0.0, 0.0, 1.707474450986073E9, 0.0, 2024-02-09 11:27:30.986
60.0, -10341.347496670187, -17039.98649597007, 18418.150355595393, -1051.0237277774488, 47235.807446933686, 18759.930880061493, 35392.40037112241, 10411.599029493216, 32268.073531159585, 2232.335773984882, 39275.05484522043, 28381.66396399307, 40930.9614814474, 35431.06888903009, 30029.61337919395, 24946.916097034944, 0.07100000000000001, 1.0194999999999999, 0.123, 192.0, 0.0, 0.0, 0.0, 0.0, 0.0, 0.0, 0.0, 0.0, 0.0, 1.7074744509938745E9, 0.0, 2024-02-09 11:27:30.993
62.0, -10409.989703892436, -17065.646298604763, 18357.10774148795, -1049.3920504322114, 46910.991896509164, 18679.285786066746, 35217.11799110389, 10268.994899868358, 31992.074190625455, 2164.185305140651, 38970.981713650435, 28279.98587846588, 40618.68525966231, 35243.87302921689, 29879.744932621117, 24824.29442695313, 0.07100000000000001, 1.0194999999999999, 0.123, 192.0, 0.0, 0.0, 0.0, 0.0, 0.0, 0.0, 0.0, 0.0, 0.0, 1.707474451001882E9, 0.0, 2024-02-09 11:27:31.001
64.0, -10311.552621311263, -17027.447167330643, 18434.623591258955, -1062.6019314052978, 47244.16699935997, 18772.693726145473, 35396.021353724165, 10410.77201494837, 32089.706610406236, 2212.2192039751058, 39026.07876373277, 28334.27826574782, 40575.09935797445, 35288.06242800503, 29902.38724975434, 24811.688043080336, 0.07250000000000001, 1.01975, 0.1255, 192.0, 1.0, 40.0, 15.5, 112.0, 2.0, 0.0, 0.0, 0.0, 0.0, 1.7074744510099227E9, 0.0, 2024-02-09 11:27:31.009
66.0, -10406.167555590577, -17069.51315039553, 18361.19811072327, -1056.3210912133566, 47042.710726584286, 18692.249797850825, 35283.9273552808, 10319.129862681611, 32182.958088273776, 2208.508814395525, 39232.54182726644, 28333.22773375842, 40925.03826916674, 35374.94365870281, 30001.919567813824, 24937.707178319357, 0.07250000000000001, 1.01975, 0.1255, 192.0, 0.0, 0.0, 0.0, 0.0, 0.0, 0.0, 0.0, 0.0, 0.0, 1.7074744510179377E9, 0.0, 2024-02-09 11:27:31.017
68.0, -10352.90334855358, -17042.668705304706, 18417.12217535045, -1051.4484109220996, 47050.399726676915, 18729.018417479805, 35281.35690466844, 10327.668229063538, 31918.380489156305, 2210.2969539519495, 38847.04129064576, 28277.72835227589, 40370.066806085924, 35165.597220134405, 29823.038556938, 24744.722216692237, 0.07250000000000001, 1.01975, 0.1255, 192.0, 0.0, 0.0, 0.0, 0.0, 0.0, 0.0, 0.0, 0.0, 0.0, 1.7074744510259411E9, 0.0, 2024-02-09 11:27:31.025
70.0, -10345.214348460955, -17033.728007522586, 18420.58669574102, -1047.6039108757868, 47260.23790362333, 18767.865749343127, 35389.651106554404, 10421.500852286918, 32231.640187697434, 2337.6795456027444, 39260.77208051349, 28365.682466707527, 40869.2483150063, 35379.61517329397, 30021.14206804539, 24929.50408810426, 0.07250000000000001, 1.01975, 0.1255, 192.0, 0.0, 0.0, 0.0, 0.0, 0.0, 0.0, 0.0, 0.0, 0.0, 1.7074744510329168E9, 0.0, 2024-02-09 11:27:31.032
72.0, -10409.229744580955, -17052.436417631678, 18372.35163120647, -1035.3104514253678, 46936.80816135504, 18706.823135235685, 35241.526096049085, 10311.79849050027, 31978.685495696725, 2437.6812502957882, 38973.44040554052, 28287.40665762504, 40529.43474405226, 35201.51647347408, 29892.217206027177, 24825.859049065002, 0.07250000000000001, 1.01975, 0.1255, 192.0, 0.0, 0.0, 0.0, 0.0, 0.0, 0.0, 0.0, 0.0, 0.0, 1.7074744510419416E9, 0.0, 2024-02-09 11:27:31.041
74.0, -10336.38540940111, -17035.024408700992, 18416.675140461342, -1066.2452657515128, 47249.86669419607, 18792.452668243965, 35401.36342064899, 10428.899279701625, 32068.472453173694, 2630.867377623007, 39022.502484619916, 28333.42889945852, 40445.995682000605, 35224.047031885035, 29917.78760168405, 24818.259455950196, 0.07125000000000001, 1.009875, 0.12675, 192.0, 1.0, 24.0, 15.5, 32.0, 2.0, 0.0, 0.0, 0.0, 0.0, 1.7074744510501692E9, 0.0, 2024-02-09 11:27:31.050
76.0, -10465.891416775157, -17112.62966544982, 18278.563711472, -1104.8690801702835, 47011.97707795824, 18701.16814388849, 35282.85447154695, 10327.444711618986, 32077.860185844922, 2664.640863494976, 39161.977370021035, 28264.227898624886, 40670.80952773208, 35245.66116877332, 29961.999352216644, 24903.88898895848, 0.07125000000000001, 1.009875, 0.12675, 192.0, 0.0, 0.0, 0.0, 0.0, 0.0, 0.0, 0.0, 0.0, 0.0, 1.7074744510579965E9, 0.0, 2024-02-09 11:27:31.057
78.0, -10335.625450089628, -17007.93409442116, 18429.817966201063, -1025.788608287407, 47098.768901678195, 18774.52656919081, 35347.27219906714, 10366.29204348231, 31880.583689282383, 2947.6810035325293, 38820.28625253275, 28276.946041219955, 40228.26733926145, 35071.854003888846, 29819.976367947624, 24745.23630681471, 0.07125000000000001, 1.009875, 0.12675, 192.0, 0.0, 0.0, 0.0, 0.0, 0.0, 0.0, 0.0, 0.0, 0.0, 1.7074744510649912E9, 0.0, 2024-02-09 11:27:31.064
80.0, -10348.790627573804, -17061.555929369442, 18441.686742506834, -1071.0955942983144, 47283.01433122329, 18766.56934816472, 35412.13696147644, 10440.343372862742, 32263.04438865714, 3058.053917652836, 39286.25306919254, 28381.686315737526, 40804.204738641354, 35310.63768990489, 30051.42868178233, 24950.38061742552, 0.07125000000000001, 1.009875, 0.12675, 192.0, 0.0, 0.0, 0.0, 0.0, 0.0, 0.0, 0.0, 0.0, 0.0, 1.7074744510740163E9, 0.0, 2024-02-09 11:27:31.074
82.0, -10391.035424594334, -17034.97970521208, 18401.990044354206, -1012.3999133586781, 46955.315405764035, 18712.65694053852, 35235.73699423516, 10317.699351036472, 31995.13637961583, 3059.8867606981707, 38982.06817890026, 28274.44264584096, 40452.25417044809, 35106.52155953903, 29883.947060578714, 24827.110746754497, 0.07125000000000001, 1.009875, 0.12675, 192.0, 0.0, 0.0, 0.0, 0.0, 0.0, 0.0, 0.0, 0.0, 0.0, 1.707474451081032E9, 0.0, 2024-02-09 11:27:31.081
84.0, -10302.880144462604, -17013.969065424095, 18466.474827107766, -1032.5388351129097, 47268.373938605066, 18800.320482292234, 35394.92611824586, 10445.037239198356, 32115.344061296473, 3217.935945741647, 39045.05539477532, 28369.392856287108, 40451.40480415879, 35217.29680505953, 29922.50381976412, 24833.235124735253, 0.067625, 1.0079375000000002, 0.12537500000000001, 192.0, 1.0, 0.0, 15.5, 56.0, 1.5, 112.0, 0.0, 0.0, 0.0, 1.7074744510890372E9, 0.0, 2024-02-09 11:27:31.089
86.0, -10406.949866646513, -17061.019487502515, 18383.572206923032, -1043.848817807295, 47064.95071231732, 18715.13798417306, 35290.83404431749, 10340.38637165861, 32192.546986645102, 3146.05273557338, 39246.53401929546, 28344.001274585877, 40776.510927261224, 35290.58817512848, 30016.202332520767, 24940.858774287557, 0.067625, 1.0079375000000002, 0.12537500000000001, 192.0, 0.0, 0.0, 0.0, 0.0, 0.0, 0.0, 0.0, 0.0, 0.0, 1.7074744510980651E9, 0.0, 2024-02-09 11:27:31.098
88.0, -10374.048098808302, -17060.550100868953, 18400.000739097686, -1078.0022833350042, 47040.475552138756, 18719.340112130656, 35289.73880883918, 10300.935542694991, 31911.674965819715, 3114.8049968248606, 38840.98396789837, 28265.45724456993, 40206.899071562184, 35061.37103573931, 29825.72076627264, 24723.66687341534, 0.067625, 1.0079375000000002, 0.12537500000000001, 192.0, 0.0, 0.0, 0.0, 0.0, 0.0, 0.0, 0.0, 0.0, 0.0, 1.7074744511061807E9, 0.0, 2024-02-09 11:27:31.106
90.0, -10384.084032068735, -17063.76875207052, 18357.979459521706, -1099.1023301008142, 47231.11358059807, 18741.28952518577, 35375.413045336376, 10380.418345978063, 32192.345820945004, 3120.2364707275, 39231.9606819106, 28330.903152335068, 40676.7997952461, 35268.102320206446, 29993.045925265065, 24889.24859634025, 0.067625, 1.0079375000000002, 0.12537500000000001, 192.0, 0.0, 0.0, 0.0, 0.0, 0.0, 0.0, 0.0, 0.0, 0.0, 1.7074744511130311E9, 0.0, 2024-02-09 11:27:31.113
92.0, -10428.20637562351, -17083.505342424553, 18334.286610399082, -1086.3171322723786, 46915.462245400224, 18668.042858605728, 35234.57470352348, 10275.968644138413, 31908.41161112924, 3015.496196209931, 38943.73493715942, 28222.92187487148, 40388.395236539276, 34999.38964836474, 29860.589487622918, 24792.398487615406, 0.067625, 1.0079375000000002, 0.12537500000000001, 192.0, 0.0, 0.0, 0.0, 0.0, 0.0, 0.0, 0.0, 0.0, 0.0, 1.7074744511210847E9, 0.0, 2024-02-09 11:27:31.121
94.0, -10330.372790142632, -17033.638600544764, 18398.480820474724, -1067.0275768074487, 47229.79482767521, 18773.364278479134, 35383.5490803181, 10401.026654365856, 32023.500743329616, 3210.269297393477, 38977.01668465337, 28301.644718843072, 40332.7170411011, 35181.93634533123, 29862.601144623895, 24779.76975199816, 0.0678125, 1.01096875, 0.1246875, 192.0, 1.0, 16.0, 15.5, 88.0, 1.5, 112.0, 0.0, 0.0, 0.0, 1.7074744511300797E9, 0.0, 2024-02-09 11:27:31.130
96.0, -10389.716671671471, -17058.449036890153, 18417.45745151728, -1017.9878494725049, 47102.72516044678, 18753.113598002627, 35317.56673068604, 10384.57577044675, 32202.627623394448, 3271.423670223197, 39278.720531311104, 28385.84374020621, 40841.62155885954, 35377.46940582626, 30026.730004159213, 24963.56814665415, 0.0678125, 1.01096875, 0.1246875, 192.0, 0.0, 0.0, 0.0, 0.0, 0.0, 0.0, 0.0, 0.0, 0.0, 1.7074744511371062E9, 0.0, 2024-02-09 11:27:31.137
98.0, -10414.929439417057, -17080.979595301105, 18297.741508214654, -1167.2080954561347, 46983.45625203327, 18664.243062048325, 35252.74667176565, 10329.90340350907, 31852.755767435527, 2847.9475197729494, 38786.24454572732, 28168.294211422708, 40126.5221985009, 34881.484196362995, 29786.80637917595, 24700.264596970632, 0.0678125, 1.01096875, 0.1246875, 192.0, 0.0, 0.0, 0.0, 0.0, 0.0, 0.0, 0.0, 0.0, 0.0, 1.7074744511451037E9, 0.0, 2024-02-09 11:27:31.145
100.0, -10295.302903092253, -16973.11007655979, 18510.954798573828, -941.0978485462485, 47353.66819544652, 18877.88103555215, 35468.038674359166, 10503.08471954879, 32273.28148761767, 3387.1386512683216, 39272.43969111916, 28417.449106866017, 40804.897642719465, 35427.693775617336, 30021.36558548994, 24931.40398638296, 0.0678125, 1.01096875, 0.1246875, 192.0, 0.0, 0.0, 0.0, 0.0, 0.0, 0.0, 0.0, 0.0, 0.0, 1.7074744511540976E9, 0.0, 2024-02-09 11:27:31.154
102.0, -10462.15867545112, -17154.852110725893, 18329.54804057456, -1139.8048567539283, 46949.14632429437, 18690.327547827666, 35244.85650597292, 10292.17365886851, 32005.46288555418, 3087.3570546337432, 39030.37029866818, 28320.755460352357, 40517.05187762402, 35211.48535150115, 29946.464889820207, 24872.551843232137, 0.0678125, 1.01096875, 0.1246875, 192.0, 0.0, 0.0, 0.0, 0.0, 0.0, 0.0, 0.0, 0.0, 0.0, 1.707474451162099E9, 0.0, 2024-02-09 11:27:31.162
104.0, -10505.252838760953, -17279.463086064232, 18138.82060513742, -1393.5642115550295, 47069.97985481976, 18591.264616401746, 35278.786454056084, 10313.631333545605, 31763.013513447466, 2306.9011934877867, 38796.280478987755, 27974.102255595, 40087.3619422152, 34830.253998071435, 29763.337047497876, 24659.897346484348, 0.06390625, 1.013484375, 0.12434375, 192.0, 0.5, 112.0, 15.5, 96.0, 1.5, 112.0, 0.0, 0.0, 0.0, 1.7074744511691356E9, 0.0, 2024-02-09 11:27:31.169
106.0, -10364.213331247965, -17003.17317285218, 18418.195059084304, -1017.563166327854, 47119.17604436589, 18721.731748787373, 35311.79998061657, 10371.343537729208, 32056.20134546773, 2540.946309679307, 39118.10089565526, 28131.52559179373, 40721.14565624543, 35049.74812862255, 29897.87219737437, 24815.28667393764, 0.06390625, 1.013484375, 0.12434375, 192.0, 0.0, 0.0, 0.0, 0.0, 0.0, 0.0, 0.0, 0.0, 0.0, 1.7074744511774251E9, 0.0, 2024-02-09 11:27:31.177
108.0, -10257.282585773777, -16904.31140712636, 18584.983776209807, -843.9124636545735, 47186.34303645409, 18904.07728005377, 35369.95921968928, 10442.176215908077, 32100.122523322407, 3369.9501597821904, 38978.58130676524, 28525.631550029702, 40454.601103615896, 35539.00546300477, 29917.944063895236, 24860.861880882014, 0.06390625, 1.013484375, 0.12434375, 192.0, 0.0, 0.0, 0.0, 0.0, 0.0, 0.0, 0.0, 0.0, 0.0, 1.7074744511863785E9, 0.0, 2024-02-09 11:27:31.186
110.0, -10383.279369268343, -17120.542182987, 18381.560549922055, -1138.329641619878, 47274.43126135245, 18745.983391521382, 35380.30807737209, 10434.554271048817, 32339.152078527462, 2571.7693652831754, 39316.45027595166, 28353.38900725711, 40851.47867816433, 35390.925155988356, 30072.37226633695, 24972.95587932538, 0.06390625, 1.013484375, 0.12434375, 192.0, 0.0, 0.0, 0.0, 0.0, 0.0, 0.0, 0.0, 0.0, 0.0, 1.7074744511931984E9, 0.0, 2024-02-09 11:27:31.193
112.0, -10523.402455258663, -17163.5022358301, 18241.526870909558, -1155.719298806107, 46882.09109092845, 18635.96810531236, 35170.60401089239, 10262.155266065034, 31781.252536923, 2434.3284886274923, 38887.60970683214, 28191.048287278212, 40481.69141789573, 35161.01511252107, 29833.365062876353, 24776.148769396397, 0.06390625, 1.013484375, 0.12434375, 192.0, 0.0, 0.0, 0.0, 0.0, 0.0, 0.0, 0.0, 0.0, 0.0, 1.7074744512011983E9, 0.0, 2024-02-09 11:27:31.201
114.0, -10428.1616721346, -17131.986276148116, 18298.52381927059, -1151.6959848041517, 47151.00492847025, 18725.017455222303, 35326.0380418346, 10381.58063668974, 31876.627430513792, 2246.7302974141, 38898.58441335969, 28224.553552216716, 40428.941300981205, 35163.80908057798, 29833.253304154077, 24751.628905728925, 0.064953125, 1.0137421875000001, 0.125171875, 192.0, 1.0, 8.0, 15.5, 88.0, 1.5, 120.0, 0.0, 0.0, 0.0, 1.7074744512092156E9, 0.0, 2024-02-09 11:27:31.209
116.0, -10462.963338251513, -17062.09237123637, 18279.39072601685, -1097.045969610926, 46968.8382111595, 18652.106064809093, 35212.938214890746, 10290.027891400801, 32013.24129262463, 2160.609026027802, 39065.59664792975, 28159.353513640584, 40730.01929879419, 35341.974835631234, 29845.56911534895, 24825.747290342726, 0.064953125, 1.0137421875000001, 0.125171875, 192.0, 0.0, 0.0, 0.0, 0.0, 0.0, 0.0, 0.0, 0.0, 0.0, 1.7074744512192256E9, 0.0, 2024-02-09 11:27:31.219
118.0, -10399.842011909725, -17073.134132997293, 18370.652898627868, -1112.848652940828, 47032.20540669029, 18685.834847192153, 35253.50663107713, 10300.868487461627, 31880.650744515748, 2536.4089055548798, 38831.59623522714, 28324.55525690976, 40416.424324086234, 35219.73314520516, 29811.594463776884, 24747.2926673046, 0.064953125, 1.0137421875000001, 0.125171875, 192.0, 0.0, 0.0, 0.0, 0.0, 0.0, 0.0, 0.0, 0.0, 0.0, 1.707474451226244E9, 0.0, 2024-02-09 11:27:31.226
120.0, -10335.558394856262, -17016.517164292, 18298.970854159696, -1040.9654427725604, 47200.71520813885, 18761.33903996218, 35349.261504323666, 10392.063604839279, 32247.353464049516, 2239.7118496551334, 39201.80817864039, 28296.436762384983, 40794.81700597012, 35362.49373704121, 29950.130575910876, 24858.961982603312, 0.064953125, 1.0137421875000001, 0.125171875, 192.0, 0.0, 0.0, 0.0, 0.0, 0.0, 0.0, 0.0, 0.0, 0.0, 1.7074744512332492E9, 0.0, 2024-02-09 11:27:31.233
122.0, -10459.297652160842, -17135.74136921661, 18339.561622090536, -1088.2170305510797, 46892.35054163344, 18666.58999521613, 35189.17831053476, 10255.047411328247, 32034.09547020143, 2417.2517558636378, 38943.06438482575, 28304.88572178909, 40566.47158461471, 35308.38016371491, 29820.89278947029, 24808.849371534514, 0.064953125, 1.0137421875000001, 0.125171875, 192.0, 0.0, 0.0, 0.0, 0.0, 0.0, 0.0, 0.0, 0.0, 0.0, 1.7074744512423005E9, 0.0, 2024-02-09 11:27:31.242
124.0, -10213.920201530482, -16968.818541624372, 18539.162700076427, -1077.3540827458005, 47387.93341969651, 18798.95702588046, 35462.87542138999, 10474.988576768468, 32110.516084494127, 1940.198473954019, 39013.00299322641, 28203.453505450907, 40695.26233616619, 35228.27151158709, 29910.903264391814, 24777.89220546391, 0.0704765625, 1.01587109375, 0.1265859375, 192.0, 1.0, 48.0, 15.5, 104.0, 2.0, 0.0, 0.0, 0.0, 0.0, 1.7074744512492392E9, 0.0, 2024-02-09 11:27:31.249
126.0, -10410.973180648469, -17041.528766337487, 18315.19822063425, -1029.342535655801, 47026.21513917627, 18715.94264697345, 35272.013875486125, 10355.496150910396, 32344.516497196735, 2453.3498231589583, 39318.05960155244, 28421.874752268166, 41050.45390730547, 35489.496349036264, 30062.76101622117, 24980.354306740082, 0.0704765625, 1.01587109375, 0.1265859375, 192.0, 0.0, 0.0, 0.0, 0.0, 0.0, 0.0, 0.0, 0.0, 0.0, 1.7074744512572808E9, 0.0, 2024-02-09 11:27:31.257
128.0, -10367.901369083093, -17066.719182338617, 18364.26029971365, -1179.8591828178387, 47006.52325231114, 18610.509468377768, 35249.706834519726, 10298.61096127164, 31937.13360275431, 2166.3534243528156, 38775.6051153666, 28200.950110071914, 40325.92211078669, 35038.41579418371, 29747.489660679064, 24692.285024200086, 0.0704765625, 1.01587109375, 0.1265859375, 192.0, 0.0, 0.0, 0.0, 0.0, 0.0, 0.0, 0.0, 0.0, 0.0, 1.7074744512652755E9, 0.0, 2024-02-09 11:27:31.265
130.0, -10291.190182112477, -16989.069222100883, 18450.918012966875, -1003.369808598734, 47284.91422950199, 18808.501220762875, 35407.353688163006, 10455.631966070172, 32360.140366570995, 2301.7379405186107, 39275.59128708736, 28358.90988813757, 40958.34236840515, 35368.64046676642, 29989.447294407764, 24880.531416002683, 0.0704765625, 1.01587109375, 0.1265859375, 192.0, 0.0, 0.0, 0.0, 0.0, 0.0, 0.0, 0.0, 0.0, 0.0, 1.7074744512743332E9, 0.0, 2024-02-09 11:27:31.274
132.0, -10325.433054618008, -16975.814637638883, 18462.116236938982, -958.1969330545585, 47029.92552875585, 18780.00274658236, 35282.51919538012, 10361.978156802435, 32183.8968615409, 2200.305724180427, 39068.010636330924, 28335.731129137414, 40803.087151418586, 35508.31651786763, 29955.763215513616, 24908.40404133845, 0.0704765625, 1.01587109375, 0.1265859375, 192.0, 0.0, 0.0, 0.0, 0.0, 0.0, 0.0, 0.0, 0.0, 0.0, 1.707474451281294E9, 0.0, 2024-02-09 11:27:31.281
134.0, -10299.326217094209, -17046.647315817754, 18442.334943096037, -1069.2851029974345, 47257.08630765514, 18805.640197472596, 35390.701638543804, 10427.066436656289, 32299.500083863746, 2369.955464596208, 39113.40702931965, 28397.913682212078, 40672.39650158841, 35328.004995346666, 29975.008067489634, 24872.551843232137, 0.0704765625, 1.01587109375, 0.1265859375, 192.0, 0.0, 0.0, 0.0, 0.0, 0.0, 0.0, 0.0, 0.0, 0.0, 1.707474451289307E9, 0.0, 2024-02-09 11:27:31.289
136.0, -10399.48438399844, -17027.625981286285, 18344.233136681694, -1039.6690415941528, 47024.69522055331, 18733.913449515516, 35290.36465768393, 10379.85955236668, 32136.98054992921, 1983.7396721529572, 39172.48268991503, 28235.192982577442, 40844.8402100611, 35368.46165281077, 29945.392006086353, 24919.51285833274, 0.07, 1.02, 0.13, 192.0, 1.0, 24.0, 15.5, 112.0, 2.0, 8.0, 0.0, 0.0, 0.0, 1.707474451297327E9, 0.0, 2024-02-09 11:27:31.297
138.0, -10292.754804224349, -16983.235416798045, 18454.31547812408, -1023.4640268640551, 47078.629979923964, 18766.971679564915, 35326.75329765717, 10392.845915895214, 32076.83200559998, 2272.345396559882, 38916.42110543503, 28330.254951745865, 40528.74183997415, 35283.01093375813, 29865.462167914175, 24800.33335689704, 0.07, 1.02, 0.13, 192.0, 0.0, 0.0, 0.0, 0.0, 0.0, 0.0, 0.0, 0.0, 0.0, 1.7074744513053358E9, 0.0, 2024-02-09 11:27:31.305
140.0, -10272.101792347645, -16973.221835282067, 18445.307725108592, -1020.4465413625886, 47292.200898194424, 18804.410851527555, 35433.79580185364, 10477.06728900281, 32385.151968616483, 2342.08283926044, 39286.409531403726, 28378.780588958336, 40929.262748868794, 35452.504211962725, 30020.9856058342, 24941.46227138785, 0.07, 1.02, 0.13, 192.0, 0.0, 0.0, 0.0, 0.0, 0.0, 0.0, 0.0, 0.0, 0.0, 1.70747445131332E9, 0.0, 2024-02-09 11:27:31.313
142.0, -10329.970458742435, -17000.580370495365, 18431.114367379472, -995.3231805948235, 46978.941199653294, 18735.47807162739, 35266.761215539125, 10334.016124488846, 32181.28170743963, 2239.3318699993933, 39068.7705956424, 28335.954646581966, 40752.52750546068, 35335.13520182791, 29940.519325795096, 24882.610128237025, 0.07, 1.02, 0.13, 192.0, 0.0, 0.0, 0.0, 0.0, 0.0, 0.0, 0.0, 0.0, 0.0, 1.707474451321358E9, 0.0, 2024-02-09 11:27:31.321
144.0, -10256.07559157319, -16981.424925497166, 18475.147303956426, -1037.0315357484264, 47278.90161024351, 18800.923979392526, 35420.22829296927, 10452.100390446234, 32241.631417468958, 2167.2921976199386, 39064.74728164045, 28344.023626330334, 40563.25293341314, 35309.63186140441, 29921.989729641646, 24824.29442695313, 0.07, 1.02, 0.13, 192.0, 0.0, 0.0, 0.0, 0.0, 0.0, 0.0, 0.0, 0.0, 0.0, 1.7074744513294623E9, 0.0, 2024-02-09 11:27:31.329
146.0, -10346.577804872728, -17018.305303848425, 18397.78791639661, -1022.1452739411919, 47086.65425618342, 18747.525661888798, 35309.14012302639, 10370.896502840103, 32341.051976806164, 2282.5824955204125, 39315.39974396226, 28381.976888415444, 41001.838863115176, 35490.323363581105, 30040.968065377245, 24976.867434605057, 0.068, 1.016, 0.132, 192.0, 1.0, 16.0, 15.5, 96.0, 2.0, 16.0, 0.0, 0.0, 0.0, 1.707474451337377E9, 0.0, 2024-02-09 11:27:31.337
148.0, -10319.934525482002, -17015.332521835866, 18428.45450978929, -1047.8274283203398, 47047.85162780901, 18745.491653143366, 35291.41518967333, 10354.266804965355, 32011.073173412464, 2164.1406016517403, 38873.63986654757, 28275.671991786003, 40403.70618149116, 35207.17146482128, 29827.71007152916, 24752.299458062585, 0.068, 1.016, 0.132, 192.0, 0.0, 0.0, 0.0, 0.0, 0.0, 0.0, 0.0, 0.0, 0.0, 1.7074744513453865E9, 0.0, 2024-02-09 11:27:31.345
150.0, -10302.209592128944, -17020.138146893758, 18435.54001278162, -1056.432849935633, 47275.6606072975, 18780.51683670483, 35399.08354271454, 10446.914785732602, 32323.572912642114, 2210.3193056964046, 39271.7691387855, 28357.054693347778, 40899.73609444334, 35422.39641218143, 30018.772783133125, 24923.714986290335, 0.068, 1.016, 0.132, 192.0, 0.0, 0.0, 0.0, 0.0, 0.0, 0.0, 0.0, 0.0, 0.0, 1.707474451353396E9, 0.0, 2024-02-09 11:27:31.353
152.0, -10382.519409956862, -17050.6259263308, 18371.792837595087, -1050.0626027658705, 46927.845111828465, 18694.149696129527, 35218.8614271714, 10289.022062900312, 32091.718267407214, 2153.3894125687375, 39016.48986536144, 28272.49804407335, 40668.775518986644, 35269.21990742921, 29902.029621843056, 24833.972732302278, 0.068, 1.016, 0.132, 192.0, 0.0, 0.0, 0.0, 0.0, 0.0, 0.0, 0.0, 0.0, 0.0, 1.7074744513604112E9, 0.0, 2024-02-09 11:27:31.360
154.0, -10288.709138477938, -17015.958370680615, 18446.64882977591, -1061.2608267379794, 47241.328327814146, 18784.5848541957, 35374.2507546247, 10428.027561667868, 32129.112735880943, 2179.160973925707, 39003.30233613281, 28302.292919432275, 40543.82926748148, 35274.91960226531, 29891.546653693516, 24788.66574629137, 0.068, 1.016, 0.132, 192.0, 0.0, 0.0, 0.0, 0.0, 0.0, 0.0, 0.0, 0.0, 0.0, 1.7074744513694327E9, 0.0, 2024-02-09 11:27:31.369
156.0, -10378.272578510354, -17054.31396416592, 18373.625680640424, -1050.1520097436917, 47063.251979738714, 18724.70453079993, 35267.34236089497, 10353.685659609517, 32259.311647333107, 2198.450529390637, 39258.60396130133, 28330.165544768042, 40975.709673846926, 35412.09225798753, 30011.03907955159, 24942.043416743687, 0.07, 1.016, 0.13, 192.0, 1.0, 24.0, 15.5, 96.0, 2.0, 8.0, 0.0, 0.0, 0.0, 1.7074744513776257E9, 0.0, 2024-02-09 11:27:31.377
158.0, -10329.299906408776, -17026.240173130056, 18425.034692887628, -1039.1549514716808, 47052.701956355806, 18756.488711415375, 35322.10413481046, 10356.501979410885, 31970.236536292618, 2166.509886564003, 38850.12583138059, 28260.69632300095, 40408.19888212668, 35195.39209549333, 29828.872362240836, 24747.203260326776, 0.07, 1.016, 0.13, 192.0, 0.0, 0.0, 0.0, 0.0, 0.0, 0.0, 0.0, 0.0, 0.0, 1.7074744513847196E9, 0.0, 2024-02-09 11:27:31.384
160.0, -10315.151252168567, -17028.743568509053, 18435.204736614793, -1038.3279369268344, 47283.461366112395, 18804.34379629419, 35427.53731340615, 10460.482294616973, 32286.737237779766, 2249.3454515153708, 39261.68850203616, 28366.71064695247, 40915.069391139674, 35432.29823497513, 30036.1400885749, 24947.02785575722, 0.07, 1.016, 0.13, 192.0, 0.0, 0.0, 0.0, 0.0, 0.0, 0.0, 0.0, 0.0, 0.0, 1.7074744513925042E9, 0.0, 2024-02-09 11:27:31.392
162.0, -10390.789555405327, -17057.465560134122, 18376.330241719515, -1034.304622924879, 46937.12108577741, 18720.144774931046, 35236.02756691308, 10308.021045687325, 32028.641644554336, 2197.087072978863, 38994.69691451752, 28278.60007030965, 40652.86107693447, 35263.631971315386, 29902.476656732164, 24842.62285740648, 0.07, 1.016, 0.13, 192.0, 0.0, 0.0, 0.0, 0.0, 0.0, 0.0, 0.0, 0.0, 0.0, 1.70747445140151E9, 0.0, 2024-02-09 11:27:31.401
164.0, -10291.413699557032, -17014.2149346131, 18458.98699271524, -1037.9926607600046, 47258.2038948779, 18817.553677267275, 35404.11268521699, 10459.92350100559, 32094.53458720858, 2259.604902220357, 39001.62595529866, 28322.856524331157, 40545.818572738004, 35284.732018081195, 29909.20453181321, 24816.67248209387, 0.07, 1.016, 0.13, 192.0, 0.0, 0.0, 0.0, 0.0, 0.0, 0.0, 0.0, 0.0, 0.0, 1.7074744514095285E9, 0.0, 2024-02-09 11:27:31.409
166.0, -10385.536895458328, -17058.627850845798, 18379.45948594326, -1046.307509697379, 47087.28010502817, 18735.969810005405, 35304.312146224045, 10380.77597388935, 32217.692699157324, 2298.02755093903, 39249.57385654138, 28333.719472136436, 40960.44343238395, 35381.11274017247, 30019.912722100347, 24961.17650999743, 0.074, 1.014, 0.13, 192.0, 1.0, 40.0, 15.5, 88.0, 2.0, 8.0, 0.0, 0.0, 0.0, 1.707474451416506E9, 0.0, 2024-02-09 11:27:31.416
168.0, -10343.560319371261, -17032.3198476219, 18423.358312053482, -1032.9858700020159, 47053.12663950046, 18778.19225528148, 35294.99146878618, 10359.787685845815, 31931.925646296222, 2300.1509666622837, 38840.78280219827, 28266.753645748337, 40394.810187197945, 35178.53888017403, 29828.850010496382, 24761.195452355798, 0.074, 1.014, 0.13, 192.0, 0.0, 0.0, 0.0, 0.0, 0.0, 0.0, 0.0, 0.0, 0.0, 1.7074744514255376E9, 0.0, 2024-02-09 11:27:31.425
170.0, -10353.842121820704, -17060.974784013604, 18401.565361209556, -1073.4201757216663, 47260.3049588567, 18783.310804761746, 35393.361496133984, 10436.811797238803, 32238.055138356107, 2404.9359446687636, 39237.70508023561, 28348.04694033229, 40874.79154763121, 35389.69581004331, 30017.878713354912, 24934.332064906608, 0.074, 1.014, 0.13, 192.0, 0.0, 0.0, 0.0, 0.0, 0.0, 0.0, 0.0, 0.0, 0.0, 1.7074744514336576E9, 0.0, 2024-02-09 11:27:31.433
172.0, -10417.052855140311, -17077.13509525479, 18340.142767446374, -1085.7583386609958, 46914.88110004438, 18687.041841392736, 35219.93431090526, 10293.157135624544, 31948.80121335998, 2372.570618697479, 38940.51628595785, 28210.404897976507, 40534.44153481025, 35122.123077168835, 29852.095824729902, 24800.266301663676, 0.074, 1.014, 0.13, 192.0, 0.0, 0.0, 0.0, 0.0, 0.0, 0.0, 0.0, 0.0, 0.0, 1.7074744514415941E9, 0.0, 2024-02-09 11:27:31.441
174.0, -10310.27857187731, -17021.769824238996, 18433.617762758466, -1050.7331550995298, 47240.07663012465, 18812.56923825374, 35382.54325181762, 10418.662180741094, 32090.73479065118, 2614.595307659544, 38990.76300749338, 28300.817704298224, 40537.68253775627, 35250.10916591992, 29899.593281697427, 24799.86397026348, 0.074, 1.014, 0.13, 192.0, 0.0, 0.0, 0.0, 0.0, 0.0, 0.0, 0.0, 0.0, 0.0, 1.7074744514485831E9, 0.0, 2024-02-09 11:27:31.448
176.0, -10441.63977404115, -17103.644264178787, 18294.09817386844, -1092.4862137420432, 47019.5990228175, 18706.68902476895, 35261.32974163649, 10299.236810116388, 32155.644256549393, 2721.5037013892775, 39208.08901883233, 28300.50477987585, 40806.48461657579, 35341.17017283084, 29976.37152390141, 24925.50312584676, 0.076, 1.004, 0.132, 192.0, 1.0, 48.0, 15.5, 48.0, 2.0, 16.0, 0.0, 0.0, 0.0, 1.7074744514575806E9, 0.0, 2024-02-09 11:27:31.457
178.0, -10342.42038040404, -17026.731911508075, 18420.519640507657, -1046.3969166752001, 47045.772915574664, 18748.66560085602, 35291.75046584016, 10322.236755160899, 31887.64684053026, 2783.1051091081035, 38796.30283073221, 28220.619645192583, 40235.03991783141, 35074.67032369022, 29779.564413972428, 24712.848629098968, 0.076, 1.004, 0.132, 192.0, 0.0, 0.0, 0.0, 0.0, 0.0, 0.0, 0.0, 0.0, 0.0, 1.7074744514655986E9, 0.0, 2024-02-09 11:27:31.465
180.0, -10345.080237994223, -17043.56277508292, 18407.39916651239, -1051.5378178999208, 47277.98518872085, 18782.90847336155, 35388.73468503173, 10432.028523925368, 32268.58762128206, 2919.67426773003, 39249.93148445267, 28335.373501226128, 40797.85684321605, 35314.012803317644, 30019.420983722328, 24924.094965946075, 0.076, 1.004, 0.132, 192.0, 0.0, 0.0, 0.0, 0.0, 0.0, 0.0, 0.0, 0.0, 0.0, 1.707474451473627E9, 0.0, 2024-02-09 11:27:31.473
182.0, -10388.420270493063, -17063.56758637042, 18386.723802891232, -1035.6680793366527, 46954.77896389711, 18714.55683881722, 35223.57764525147, 10317.341723125188, 32010.24615886762, 3039.4125627771095, 38986.96321093598, 28273.526224318295, 40498.76815065958, 35201.941156618734, 29879.9013948323, 24842.801671362125, 0.076, 1.004, 0.132, 192.0, 0.0, 0.0, 0.0, 0.0, 0.0, 0.0, 0.0, 0.0, 0.0, 1.70747445148162E9, 0.0, 2024-02-09 11:27:31.481
184.0, -10286.675129732506, -17005.341292064346, 18453.309649623592, -1051.3813556887337, 47258.13683964453, 18793.81612465574, 35365.6453330094, 10422.797253465325, 32073.568650909503, 3068.246313124456, 38994.875728473155, 28295.78856179578, 40459.33967344042, 35148.38637690382, 29892.083095560443, 24789.738630025226, 0.076, 1.004, 0.132, 192.0, 0.0, 0.0, 0.0, 0.0, 0.0, 0.0, 0.0, 0.0, 0.0, 1.7074744514896512E9, 0.0, 2024-02-09 11:27:31.489
186.0, -10382.38529949013, -17052.928156009693, 18376.196131252782, -1033.1199804687478, 47076.327750245066, 18756.84633932666, 35266.269477161106, 10370.024784806346, 32231.930760375355, 3183.3801488137424, 39262.984903214565, 28357.61348695916, 40844.37082342754, 35406.95135676281, 30012.08961154099, 24950.51472789225, 0.07200000000000001, 1.008, 0.136, 192.0, 1.0, 32.0, 15.5, 64.0, 2.0, 32.0, 0.0, 0.0, 0.0, 1.7074744514966743E9, 0.0, 2024-02-09 11:27:31.496
188.0, -10348.589461873706, -17024.340274851354, 18398.726689663734, -1046.3745649307448, 47024.315240897566, 18759.439141683477, 35283.56972736952, 10320.292153393288, 31907.22696867311, 3064.245350866956, 38825.561264224205, 28253.767282219804, 40257.97280764256, 35122.05602193547, 29799.79274270448, 24733.054606086567, 0.07200000000000001, 1.008, 0.136, 192.0, 0.0, 0.0, 0.0, 0.0, 0.0, 0.0, 0.0, 0.0, 0.0, 1.7074744515046673E9, 0.0, 2024-02-09 11:27:31.504
190.0, -10378.00435757689, -17091.931950084203, 18339.494566857167, -1156.1886854396685, 47233.281699810235, 18756.332249204188, 35379.92809771634, 10403.731215444948, 32209.958995575787, 3119.14123524919, 39230.99955689902, 28343.978922841423, 40752.84042988306, 35315.68918415179, 30002.45600968075, 24905.721832003812, 0.07200000000000001, 1.008, 0.136, 192.0, 0.0, 0.0, 0.0, 0.0, 0.0, 0.0, 0.0, 0.0, 0.0, 1.707474451513939E9, 0.0, 2024-02-09 11:27:31.513
192.0, -10427.401712823119, -17097.117554797835, 18317.545153802057, -1110.6581819842079, 46915.86457680042, 18688.60646350461, 35229.18793310975, 10300.108528150146, 31935.099594008876, 2799.488937793844, 38904.26175645134, 28130.38565282651, 40448.32026342396, 34973.43927305213, 29812.287367855, 24763.363571567963, 0.07200000000000001, 1.008, 0.136, 192.0, 0.0, 0.0, 0.0, 0.0, 0.0, 0.0, 0.0, 0.0, 0.0, 1.7074744515216656E9, 0.0, 2024-02-09 11:27:31.521
194.0, -10332.540909354795, -17029.61528654281, 18397.519695463146, -1120.336487333356, 47260.953159445904, 18770.257385999845, 35391.08161819955, 10430.0615704133, 32020.974996206165, 3192.7231779960607, 38978.38014106514, 28316.0839457612, 40448.18615295722, 35253.39487235485, 29907.50579923461, 24803.887284265435, 0.07200000000000001, 1.008, 0.136, 192.0, 0.0, 0.0, 0.0, 0.0, 0.0, 0.0, 0.0, 0.0, 0.0, 1.7074744515286849E9, 0.0, 2024-02-09 11:27:31.528
196.0, -10483.795164083858, -17140.68110474123, 18265.17501654327, -1123.465731557099, 47025.52223509816, 18699.89409445454, 35246.19761064024, 10344.610851360661, 32039.281074915063, 3063.1054118997354, 39146.53231460242, 28214.428211978462, 40740.47991519927, 35256.65822704533, 29942.508631051616, 24879.235014824273, 0.066, 1.016, 0.13, 192.0, 1.0, 8.0, 15.5, 96.0, 2.0, 8.0, 0.0, 0.0, 0.0, 1.707474451536728E9, 0.0, 2024-02-09 11:27:31.536
198.0, -10392.667101939573, -17119.67046495324, 18346.714180316234, -1129.1877781376575, 46975.186106584806, 18718.289580141256, 35224.672880729784, 10332.026819232324, 31804.744220345525, 2751.767963381763, 38754.21449592287, 28138.164059896953, 40236.895112621205, 35013.203026438125, 29746.483832178576, 24691.905044544346, 0.066, 1.016, 0.13, 192.0, 0.0, 0.0, 0.0, 0.0, 0.0, 0.0, 0.0, 0.0, 0.0, 1.707474451545704E9, 0.0, 2024-02-09 11:27:31.545
200.0, -10390.297817027309, -17146.82783446644, 18359.54408163358, -1131.780580494473, 47260.52847630125, 18737.04269373926, 35347.18279208932, 10421.858480198203, 32181.192300461807, 2936.505131304876, 39186.2513644995, 28300.147151964564, 40723.313775457595, 35429.59367389604, 29972.728189555193, 24883.526549759692, 0.066, 1.016, 0.13, 192.0, 0.0, 0.0, 0.0, 0.0, 0.0, 0.0, 0.0, 0.0, 0.0, 1.70747445155271E9, 0.0, 2024-02-09 11:27:31.552
202.0, -10477.35786168073, -17127.04654062349, 18277.53553122706, -1176.551124638453, 46890.47299509919, 18640.796082114706, 35163.0491212665, 10255.874425873093, 31865.004523397034, 2608.5156331677003, 38892.99647724587, 28105.977547881314, 40502.50089198362, 35065.10377706335, 29808.129943386313, 24737.636713699903, 0.066, 1.016, 0.13, 192.0, 0.0, 0.0, 0.0, 0.0, 0.0, 0.0, 0.0, 0.0, 0.0, 1.7074744515607216E9, 0.0, 2024-02-09 11:27:31.560
204.0, -10482.856390816736, -17188.960872764692, 18204.042995458007, -1211.0845698219025, 47096.01963711019, 18697.79303047574, 35248.25397113013, 10308.624542787617, 31906.332898894896, 2676.755508989753, 38874.98097121489, 28241.898505914036, 40364.30005601646, 35261.732073036685, 29810.365117831843, 24714.457954699752, 0.066, 1.016, 0.13, 192.0, 0.0, 0.0, 0.0, 0.0, 0.0, 0.0, 0.0, 0.0, 0.0, 1.7074744515700018E9, 0.0, 2024-02-09 11:27:31.570
206.0, -10275.789830182772, -16953.59700365031, 18523.00238883524, -931.8218745972962, 47167.61227460054, 18791.75976416585, 35330.933073870314, 10398.76912817587, 32078.977773067687, 2565.6002838135105, 39131.80251500637, 28244.915991415503, 40868.95774232838, 35304.06627703503, 29882.15892102229, 24847.58494467556, 0.064, 1.026, 0.132, 192.0, 1.0, 0.0, 16.0, 8.0, 2.0, 16.0, 0.0, 0.0, 0.0, 1.7074744515768254E9, 0.0, 2024-02-09 11:27:31.576
208.0, -10512.40539698665, -17193.900608289314, 18224.13721372333, -1191.750310868062, 46906.25332668464, 18630.648390132, 35150.152164715786, 10208.689893327939, 32053.228563455174, 2629.548624700144, 38899.05379999326, 28323.527076664817, 40548.65724428383, 35259.83217475798, 29863.986952780124, 24766.51516753616, 0.064, 1.026, 0.132, 192.0, 0.0, 0.0, 0.0, 0.0, 0.0, 0.0, 0.0, 0.0, 0.0, 1.7074744515850136E9, 0.0, 2024-02-09 11:27:31.585
210.0, -10430.508605302406, -17178.321442403965, 18205.898190247797, -1231.4470090206873, 47124.40635256843, 18669.205149317404, 35290.20819547274, 10341.012220503357, 31858.947200649643, 2159.1785143826623, 38947.624140694636, 28127.85990570306, 40494.70013316871, 35203.03639209705, 29762.84530911986, 24734.306303776062, 0.064, 1.026, 0.132, 192.0, 0.0, 0.0, 0.0, 0.0, 0.0, 0.0, 0.0, 0.0, 0.0, 1.7074744515927975E9, 0.0, 2024-02-09 11:27:31.592
212.0, -10273.487600503875, -16979.770896407474, 18465.290184651636, -963.3378342792791, 47042.66602309538, 18762.657792885042, 35312.42582946132, 10368.638976650116, 32103.698802435258, 2190.8062327869216, 39029.00684225641, 28256.762415976813, 40731.38275520596, 35229.12087787639, 29901.940214865237, 24844.67921789637, 0.064, 1.026, 0.132, 192.0, 0.0, 0.0, 0.0, 0.0, 0.0, 0.0, 0.0, 0.0, 0.0, 1.7074744516018064E9, 0.0, 2024-02-09 11:27:31.601
214.0, -10208.444024138931, -16929.881802783228, 18500.360071702013, -958.9121888771283, 47272.12903167356, 18854.143482940613, 35421.2117697253, 10462.918634762602, 32271.135720149963, 2721.101369989082, 39093.22340407651, 28482.962069864523, 40694.77059778817, 35422.86579881499, 29958.8701079929, 24859.72194191479, 0.064, 1.026, 0.132, 192.0, 0.0, 0.0, 0.0, 0.0, 0.0, 0.0, 0.0, 0.0, 0.0, 1.7074744516088448E9, 0.0, 2024-02-09 11:27:31.608
216.0, -10362.738116113916, -17068.417914917223, 18362.807436324052, -1140.2518916430345, 47103.663933713906, 18668.244024305826, 35316.94088184129, 10348.209482217966, 32417.94197773242, 2431.6462792928555, 39333.70582267116, 28413.24697890842, 40976.24611571385, 35415.33326093355, 30037.548248475585, 24980.466065462362, 0.068, 1.016, 0.136, 192.0, 1.0, 16.0, 15.5, 96.0, 2.0, 32.0, 0.0, 0.0, 0.0, 1.7074744516169245E9, 0.0, 2024-02-09 11:27:31.616
218.0, -10349.639993863106, -17059.56662411292, 18386.612044168956, -1065.4406029511217, 47034.19471194682, 18764.736505119385, 35286.8777855489, 10330.842176776192, 31866.30092457544, 2241.723506656111, 38792.97242080837, 28228.666273196493, 40421.18524565521, 35142.038481478514, 29787.588690231885, 24694.095515500965, 0.068, 1.016, 0.136, 192.0, 0.0, 0.0, 0.0, 0.0, 0.0, 0.0, 0.0, 0.0, 0.0, 1.7074744516248505E9, 0.0, 2024-02-09 11:27:31.624
220.0, -10267.765553923316, -17007.732928721063, 18386.165009279848, -1077.4881932125322, 47224.676278194944, 18751.973659035404, 35372.37320809045, 10410.079110870256, 32360.49799448228, 2263.8740854113207, 39251.83138273137, 28380.971059914955, 40952.8661910136, 35473.80542442863, 29991.771875831113, 24918.596436810072, 0.068, 1.016, 0.136, 192.0, 0.0, 0.0, 0.0, 0.0, 0.0, 0.0, 0.0, 0.0, 0.0, 1.7074744516328683E9, 0.0, 2024-02-09 11:27:31.632
222.0, -10383.033500079335, -17067.747362583563, 18353.889090286386, -1032.8517595352841, 46975.40962402936, 18692.786239717752, 35259.45219510224, 10299.437975816487, 32066.90783106182, 2165.146430152229, 39003.257632643894, 28278.153035420542, 40713.948394530824, 35259.87687824689, 29859.2483829556, 24800.758040041692, 0.068, 1.016, 0.136, 192.0, 0.0, 0.0, 0.0, 0.0, 0.0, 0.0, 0.0, 0.0, 0.0, 1.707474451641128E9, 0.0, 2024-02-09 11:27:31.641
224.0, -10204.465413625887, -16971.232530025547, 18502.036452536162, -1022.0335152189155, 47283.79664227923, 18824.795642470795, 35425.70447036081, 10453.709716047015, 32192.61404187847, 2356.2538452451045, 39034.28185394786, 28396.840798478224, 40615.66777416084, 35360.05739689558, 29909.629214957862, 24818.01358676119, 0.068, 1.016, 0.136, 192.0, 0.0, 0.0, 0.0, 0.0, 0.0, 0.0, 0.0, 0.0, 0.0, 1.7074744516488698E9, 0.0, 2024-02-09 11:27:31.648
226.0, -10284.618769242617, -16994.545399492432, 18434.757701725688, -992.7527299824632, 47128.16144563693, 18770.36914472212, 35341.37133853094, 10400.870192154669, 32440.494887887824, 2297.5134608165577, 39350.246113568086, 28405.692089282526, 41027.54336923878, 35443.04942405813, 30046.198373579788, 24976.152178782486, 0.068, 1.016, 0.136, 192.0, 1.0, 16.0, 15.5, 96.0, 2.0, 32.0, 0.0, 0.0, 0.0, 1.7074744516579094E9, 0.0, 2024-02-09 11:27:31.657
228.0, -10294.31942633622, -17012.471498545587, 18435.428254059345, -1027.7108583105635, 47042.21898820627, 18735.254554182837, 35300.91468106683, 10343.917947282547, 32055.44138615625, 2276.189896606195, 38917.292823468786, 28353.74663516839, 40497.91878437028, 35262.916715492815, 29849.3465601619, 24775.61232752947, 0.068, 1.016, 0.136, 192.0, 0.0, 0.0, 0.0, 0.0, 0.0, 0.0, 0.0, 0.0, 0.0, 1.7074744516639533E9, 0.0, 2024-02-09 11:27:31.663
230.0, -10284.931693664992, -17017.053606158926, 18418.463280017768, -1049.0344225209265, 47276.55467707571, 18773.408981968045, 35403.844464283524, 10433.436683826052, 32358.620447948033, 2305.269516142549, 39275.501880109536, 28404.70861252649, 40865.157945770974, 35420.65297611392, 30005.026460293113, 24922.26212290074, 0.068, 1.016, 0.136, 192.0, 0.0, 0.0, 0.0, 0.0, 0.0, 0.0, 0.0, 0.0, 0.0, 1.7074744516729314E9, 0.0, 2024-02-09 11:27:31.672
232.0, -10348.1424269846, -17037.66191454672, 18359.834654311497, -1045.2346259635242, 46935.735277621185, 18697.591864775644, 35243.64951177234, 10307.685769520494, 32038.789336537047, 2130.5682814798693, 39008.35383037971, 28286.244366913365, 40653.218704845756, 35245.28118911757, 29862.176461479245, 24818.61708386148, 0.068, 1.016, 0.136, 192.0, 0.0, 0.0, 0.0, 0.0, 0.0, 0.0, 0.0, 0.0, 0.0, 1.707474451680961E9, 0.0, 2024-02-09 11:27:31.680
234.0, -10214.233125952856, -16959.900195586706, 18506.350339216035, -986.2483723459688, 47284.55660159071, 18836.954991454484, 35443.854086858526, 10462.628062084683, 32217.04449856812, 2317.987658737619, 39051.850325089734, 28400.506484568894, 40631.604567957475, 35379.726932016245, 29925.78952619905, 24835.604409647516, 0.068, 1.016, 0.136, 192.0, 0.0, 0.0, 0.0, 0.0, 0.0, 0.0, 0.0, 0.0, 0.0, 1.7074744516889873E9, 0.0, 2024-02-09 11:27:31.688
236.0, -10337.95003151298, -17041.394655870754, 18385.270939501635, -1045.145218985703, 47092.71157893081, 18726.89500175655, 35326.28391102361, 10371.991738318413, 32312.799371814654, 2237.208454276139, 39300.513482155024, 28380.61343200367, 41017.61919470062, 35433.37111870899, 30029.501620471674, 24967.949088567388, 0.07, 1.018, 0.139, 192.0, 1.0, 32.0, 15.5, 112.0, 2.0, 56.0, 0.0, 0.0, 0.0, 1.7074744516969886E9, 0.0, 2024-02-09 11:27:31.696
238.0, -10297.985112426892, -17019.959332938117, 18421.950152152796, -1031.4435996345997, 47025.32106939806, 18737.623839095097, 35302.27813747861, 10332.227984932422, 32021.71260377319, 2207.7265033395893, 38873.75162526985, 28303.768134566326, 40437.7925917855, 35202.92463337477, 29819.08229816941, 24753.37234179644, 0.07, 1.018, 0.139, 192.0, 0.0, 0.0, 0.0, 0.0, 0.0, 0.0, 0.0, 0.0, 0.0, 1.7074744517052753E9, 0.0, 2024-02-09 11:27:31.705
240.0, -10274.493429004364, -17019.98168468257, 18427.672198733355, -1056.0305185354375, 47267.61397929359, 18772.85018835666, 35413.34395567703, 10431.670896014082, 32317.49323815027, 2238.9742420881084, 39262.984903214565, 28390.179978630542, 40900.540757243725, 35413.12043823248, 29997.784495089592, 24911.26506462873, 0.07, 1.018, 0.139, 192.0, 0.0, 0.0, 0.0, 0.0, 0.0, 0.0, 0.0, 0.0, 0.0, 1.7074744517139852E9, 0.0, 2024-02-09 11:27:31.713
242.0, -10358.915967812058, -17050.022429230503, 18353.44205539728, -1049.3026434543901, 46914.88110004438, 18681.65507097901, 35219.6660899718, 10271.095963847156, 32083.62693591439, 2203.1443957262513, 39035.44414465954, 28309.892512547078, 40694.14474894342, 35271.70095106375, 29880.39313321032, 24832.497517168227, 0.07, 1.018, 0.139, 192.0, 0.0, 0.0, 0.0, 0.0, 0.0, 0.0, 0.0, 0.0, 0.0, 1.7074744517209778E9, 0.0, 2024-02-09 11:27:31.720
244.0, -10261.50706547583, -17010.30337933342, 18444.41365533038, -1049.2579399654794, 47219.69183918141, 18783.668432673032, 35375.32363835855, 10412.023712637867, 32102.558863468035, 2231.374648973304, 38995.12159766217, 28340.04501581729, 40528.339508573954, 35264.21311667122, 29857.303781187988, 24772.058400161077, 0.07, 1.018, 0.139, 192.0, 0.0, 0.0, 0.0, 0.0, 0.0, 0.0, 0.0, 0.0, 0.0, 1.7074744517289958E9, 0.0, 2024-02-09 11:27:31.728
246.0, -10351.092857252701, -17053.91163276573, 18381.761715622153, -1037.8809020377282, 47081.80392763662, 18730.694798313954, 35325.03221333411, 10369.421287706053, 32253.790766452643, 2241.5670444449242, 39284.509633125024, 28367.38119928613, 40976.179060480485, 35419.60244412452, 29998.32093695652, 24944.926791778424, 0.068, 1.02, 0.1375, 192.0, 1.0, 8.0, 15.5, 120.0, 2.0, 32.0, 0.0, 0.0, 0.0, 1.707474451737054E9, 0.0, 2024-02-09 11:27:31.737
248.0, -10324.561336584251, -17036.745493024053, 18415.78107068313, -1038.1267712267365, 47013.72051402575, 18742.697685086452, 35304.84858809097, 10342.263918192855, 31948.667102893247, 2205.4689771496032, 38859.06652916271, 28292.54755884976, 40400.04049540049, 35186.0043628221, 29811.683870754707, 24744.498699247684, 0.068, 1.02, 0.1375, 192.0, 0.0, 0.0, 0.0, 0.0, 0.0, 0.0, 0.0, 0.0, 0.0, 1.7074744517450368E9, 0.0, 2024-02-09 11:27:31.745
250.0, -10305.294132863777, -17037.348990124345, 18425.369969054456, -1047.8274283203398, 47271.12320317307, 18793.525551977822, 35424.29631046013, 10462.493951617951, 32252.248496085227, 2275.49699252808, 39243.49418204954, 28381.932184926532, 40863.88389633702, 35403.576243350064, 29995.348154943964, 24915.467192586326, 0.068, 1.02, 0.1375, 192.0, 0.0, 0.0, 0.0, 0.0, 0.0, 0.0, 0.0, 0.0, 0.0, 1.7074744517530704E9, 0.0, 2024-02-09 11:27:31.753
252.0, -10387.794421648316, -17067.501493394553, 18355.67722984281, -1043.7370590850187, 46923.19594898176, 18699.98350143236, 35240.98965418216, 10307.574010798218, 32024.595978807927, 2231.598166417857, 39017.607452584205, 28301.37649790961, 40660.37126307145, 35258.446366601755, 29888.19389202522, 24841.751139372725, 0.068, 1.02, 0.1375, 192.0, 0.0, 0.0, 0.0, 0.0, 0.0, 0.0, 0.0, 0.0, 0.0, 1.7074744517610695E9, 0.0, 2024-02-09 11:27:31.761
254.0, -10290.184353611989, -17029.347065609345, 18441.12794889545, -1056.432849935633, 47220.697667681896, 18779.935691348994, 35394.836711268035, 10422.596087765229, 32053.67559834428, 2281.7778327200217, 38976.770815464355, 28334.121803536633, 40491.92851685626, 35241.88372396037, 29872.212394739676, 24782.42960958834, 0.068, 1.02, 0.1375, 192.0, 0.0, 0.0, 0.0, 0.0, 0.0, 0.0, 0.0, 0.0, 0.0, 1.707474451769078E9, 0.0, 2024-02-09 11:27:31.769
0.0, -10376.640901165116, -17072.41887717472, 18370.049401527573, -1051.7836870889291, 47073.57848567706, 18720.055367953228, 35306.4355619473, 10359.854741079182, 32209.19903626431, 2315.1936906807055, 39263.63310380377, 28352.51728922335, 40937.39878385053, 35371.25562086768, 29999.349117201462, 24933.25918117275, 0.067, 1.022, 0.13575, 192.0, 1.0, 8.0, 16.0, 0.0, 2.0, 24.0, 0.0, 0.0, 0.0, 1.7074744517761257E9, 0.0, 2024-02-09 11:27:31.776
2.0, -10347.270708950844, -17052.70463856514, 18393.87636111693, -1057.1034022692922, 46995.34738008349, 18721.28471389827, 35276.08189297699, 10318.347551625677, 31912.323166408918, 2337.0984002469063, 38841.363947554106, 28272.274526628797, 40361.50608795954, 35130.8402575064, 29801.267957838532, 24731.825260141526, 0.067, 1.022, 0.13575, 192.0, 0.0, 0.0, 0.0, 0.0, 0.0, 0.0, 0.0, 0.0, 0.0, 1.707474451785304E9, 0.0, 2024-02-09 11:27:31.785
4.0, -10312.446691089475, -17038.019542458005, 18419.223239329247, -1059.2044662480912, 47266.92107521547, 18772.89489184557, 35400.8046270376, 10423.177233121067, 32222.967710848778, 2516.627611711933, 39236.00634765701, 28366.353019041184, 40837.0394512462, 35339.15851582986, 29976.88561402388, 24895.149456876454, 0.067, 1.022, 0.13575, 192.0, 0.0, 0.0, 0.0, 0.0, 0.0, 0.0, 0.0, 0.0, 0.0, 1.7074744517931137E9, 0.0, 2024-02-09 11:27:31.793
6.0, -10398.523258986863, -17071.703621352153, 18339.315752901526, -1059.11505927027, 46911.90831803183, 18682.906768668505, 35214.480485258166, 10259.674222430494, 32022.204342151206, 2613.880051836974, 39029.18565621205, 28294.067477472723, 40644.61328323046, 35197.73902866114, 29869.306667960485, 24820.092298995532, 0.067, 1.022, 0.13575, 192.0, 0.0, 0.0, 0.0, 0.0, 0.0, 0.0, 0.0, 0.0, 0.0, 1.7074744518011177E9, 0.0, 2024-02-09 11:27:31.801
8.0, -10335.468987878441, -17071.681269607696, 18373.938605062798, -1116.5813942648642, 47183.794937586186, 18748.263269455823, 35344.210010076764, 10368.974252816946, 32006.066382654477, 2760.5969024416095, 38948.31704477275, 28296.325003662707, 40379.70040794616, 35144.85480127988, 29822.211542393154, 24740.251867801177, 0.067, 1.022, 0.13575, 192.0, 0.0, 0.0, 0.0, 0.0, 0.0, 0.0, 0.0, 0.0, 0.0, 1.7074744518091435E9, 0.0, 2024-02-09 11:27:31.809
