%OpenBCI Raw EXG Data
%Number of channels = 16
%Sample Rate = 125 Hz
%Board = OpenBCI_GUI$BoardCytonSerialDaisy
Sample Index, EXG Channel 0, EXG Channel 1, EXG Channel 2, EXG Channel 3, EXG Channel 4, EXG Channel 5, EXG Channel 6, EXG Channel 7, EXG Channel 8, EXG Channel 9, EXG Channel 10, EXG Channel 11, EXG Channel 12, EXG Channel 13, EXG Channel 14, EXG Channel 15, Accel Channel 0, Accel Channel 1, Accel Channel 2, Other, Other, Other, Other, Other, Other, Other, Analog Channel 0, Analog Channel 1, Analog Channel 2, Timestamp, Other, Timestamp (Formatted)
0.0, -18113.29491296946, -6635.070638068991, 11921.615829660395, -4625.849977236984, 44277.375254318154, 14882.685528121654, 31463.388379024076, 5378.522620024994, 0.0, 0.0, 0.0, 0.0, 0.0, 0.0, 0.0, 0.0, 0.0, 0.0, 0.0, 192.0, 0.0, 0.0, 0.0, 0.0, 0.0, 0.0, 0.0, 0.0, 0.0, 1.7074740800183876E9, 0.0, 2024-02-09 11:21:20.018
60.0, -18174.516341032548, -6720.856633288459, 11867.234035400634, -4624.687686525308, 44250.79903016079, 14853.516501607479, 31443.227105525388, 5370.274826320985, 24927.783003781202, 4771.829220274594, 38643.88628529147, 26295.86622665718, 37889.961944813964, 31235.288826857668, 26553.335971037865, 24647.425073078284, 0.0, 0.0, 0.0, 192.0, 0.0, 0.0, 0.0, 0.0, 0.0, 0.0, 0.0, 0.0, 0.0, 1.7074740800184555E9, 0.0, 2024-02-09 11:21:20.018
0.0, -9185.7176048419, -3510.453225428251, 6082.647273856077, -2243.1316665567956, 22171.52233976392, 7491.634189085268, 15772.910806287624, 2808.608449531609, 12299.181496999443, 2333.499769389602, 19057.790226672918, 13095.574151942033, 18611.135317222514, 15472.458657319386, 13158.203739905804, 12191.379033491497, 0.10400000000000001, 1.028, 0.188, 192.0, 1.5, 32.0, 16.0, 16.0, 2.5, 112.0, 0.0, 0.0, 0.0, 1.707474080111909E9, 0.0, 2024-02-09 11:21:20.111
2.0, -18356.39248566538, -6988.988159774323, 12160.108942998522, -4513.84538577144, 44622.374429985815, 15012.280942473524, 31684.514186920427, 5707.22737398474, 25223.56363815828, 4760.2733683912, 38556.15568830439, 26421.259513051453, 37797.60453672463, 31288.642440872485, 26552.911287893214, 24545.121138706345, 0.10400000000000001, 1.028, 0.188, 192.0, 0.0, 0.0, 0.0, 0.0, 0.0, 0.0, 0.0, 0.0, 0.0, 1.7074740801189156E9, 0.0, 2024-02-09 11:21:20.118
4.0, -18469.46996086478, -7137.224929001919, 12081.67667170485, -4505.284667645057, 44239.958434099965, 14920.728197184588, 31494.65846951705, 5541.802113271012, 25098.17035176401, 4677.147230761913, 38473.83421347549, 26346.314113892808, 37818.90574919054, 31220.871951683996, 26504.028022769457, 24549.680894575227, 0.10400000000000001, 1.028, 0.188, 192.0, 0.0, 0.0, 0.0, 0.0, 0.0, 0.0, 0.0, 0.0, 0.0, 1.7074740801259284E9, 0.0, 2024-02-09 11:21:20.125
6.0, -18407.22035255675, -7023.231032279853, 12147.949594014835, -4521.377923652879, 44469.063814766865, 14998.646378355788, 31616.229607609464, 5625.3529340449495, 25004.315376796174, 4672.989806293226, 38236.3245768934, 26344.101291191735, 37397.01657259662, 31117.897464978396, 26386.94958531256, 24370.174034854655, 0.10400000000000001, 1.028, 0.188, 192.0, 0.0, 0.0, 0.0, 0.0, 0.0, 0.0, 0.0, 0.0, 0.0, 1.7074740801349792E9, 0.0, 2024-02-09 11:21:20.134
8.0, -18513.167621274904, -7139.504806936361, 12102.01675915918, -4511.498452603633, 44464.03467226442, 14987.202285194671, 31603.48911326994, 5643.480198798204, 25244.373112246172, 4724.957612151816, 38668.29439023667, 26403.042841320377, 37998.70318158903, 31342.353682798588, 26606.89075075278, 24629.834250191958, 0.096, 1.016, 0.196, 192.0, 1.5, 0.0, 15.5, 96.0, 3.0, 16.0, 0.0, 0.0, 0.0, 1.7074740801419716E9, 0.0, 2024-02-09 11:21:20.141
10.0, -18577.227720883813, -7202.4696710669605, 12100.206267858299, -4509.486795602656, 44221.94292806899, 14961.318965115424, 31495.887815462094, 5572.178133985774, 24887.88513992848, 4600.793671702584, 38180.42286401068, 26286.366735263677, 37410.98641288119, 31096.864473445952, 26367.97295427, 24398.091363679334, 0.096, 1.016, 0.196, 192.0, 0.0, 0.0, 0.0, 0.0, 0.0, 0.0, 0.0, 0.0, 0.0, 1.7074740801502316E9, 0.0, 2024-02-09 11:21:20.150
12.0, -18579.418191840436, -7172.853609663679, 12133.063332207601, -4533.984307525672, 44583.72826382259, 15017.332436720424, 31672.60070712575, 5716.704513633789, 25132.83790741419, 4674.219152238268, 38490.061579950045, 26360.015733243912, 37724.000242233305, 31275.94665002187, 26527.229133514065, 24522.165897150746, 0.096, 1.016, 0.196, 192.0, 0.0, 0.0, 0.0, 0.0, 0.0, 0.0, 0.0, 0.0, 0.0, 1.707474080158183E9, 0.0, 2024-02-09 11:21:20.158
14.0, -18705.32556835718, -7342.011611701443, 12075.217017557266, -4504.792929267041, 44205.35793368315, 14934.161595602227, 31474.027809384803, 5566.120811238386, 24994.100629580098, 4585.885058150895, 38416.77020988109, 26282.92456661756, 37774.49283295785, 31215.954567903827, 26490.795790051914, 24548.697417819192, 0.096, 1.016, 0.196, 192.0, 0.0, 0.0, 0.0, 0.0, 0.0, 0.0, 0.0, 0.0, 0.0, 1.707474080166998E9, 0.0, 2024-02-09 11:21:20.166
16.0, -18646.719294395363, -7251.53175014636, 12134.247974663733, -4538.633470372376, 44429.1883026586, 14989.370404406834, 31593.58729047624, 5654.141980903385, 24887.371049806006, 4578.397223758367, 38164.575477191866, 26267.3006972433, 37352.20132496373, 31104.709935749765, 26383.239195732975, 24375.87372969076, 0.096, 1.016, 0.196, 192.0, 0.0, 0.0, 0.0, 0.0, 0.0, 0.0, 0.0, 0.0, 0.0, 1.7074740801740139E9, 0.0, 2024-02-09 11:21:20.174
18.0, -18711.315835871203, -7344.9843937139985, 12096.808802701093, -4524.37305740989, 44448.34374765679, 14980.742631047087, 31597.87882541166, 5694.1516034783845, 25136.12361384912, 4613.042427664092, 38590.19739510982, 26316.519238533885, 37953.82087872278, 31314.972795840837, 26601.347518127863, 24629.45427053622, 0.078, 1.028, 0.20800000000000002, 192.0, 1.0, 56.0, 16.0, 16.0, 3.0, 64.0, 0.0, 0.0, 0.0, 1.707474080181983E9, 0.0, 2024-02-09 11:21:20.181
20.0, -18726.492670356354, -7368.096097480786, 12092.696081721317, -4526.362362666412, 44217.91961406703, 14946.05272365245, 31490.433989815, 5584.359834713917, 24807.53061861165, 4514.471234616189, 38122.420087149156, 26219.55737108676, 37378.73284563218, 31068.81303415454, 26368.665858348115, 24398.24782589052, 0.078, 1.028, 0.20800000000000002, 192.0, 0.0, 0.0, 0.0, 0.0, 0.0, 0.0, 0.0, 0.0, 0.0, 1.7074740801911657E9, 0.0, 2024-02-09 11:21:20.191
22.0, -18666.03120160475, -7276.073965558287, 12121.529832068663, -4552.178627512291, 44602.68254312069, 15004.010797025061, 31673.11479724822, 5698.398434924893, 25066.185005448464, 4603.922915926328, 38437.914960135815, 26302.63880522714, 37696.08291340863, 31241.726129260795, 26531.788889382948, 24508.821905710927, 0.078, 1.028, 0.20800000000000002, 192.0, 0.0, 0.0, 0.0, 0.0, 0.0, 0.0, 0.0, 0.0, 0.0, 1.7074740801980653E9, 0.0, 2024-02-09 11:21:20.198
24.0, -18738.786129806773, -7399.656760651679, 12043.946927064291, -4539.058153517027, 44228.20141651647, 14905.350196999336, 31450.31260851772, 5503.066540129965, 24965.870376333045, 4547.596519898953, 38388.40584616731, 26246.692388855507, 37771.92238234549, 31194.966279860295, 26491.891025530225, 24525.496307074583, 0.078, 1.028, 0.20800000000000002, 192.0, 0.0, 0.0, 0.0, 0.0, 0.0, 0.0, 0.0, 0.0, 0.0, 1.707474080206005E9, 0.0, 2024-02-09 11:21:20.206
26.0, -18618.69020684841, -7248.201340222519, 12120.92633496837, -4547.3506507099455, 44477.69158812661, 14992.96903526414, 31604.338479559243, 5615.294649040062, 24879.324421802095, 4546.702450120742, 38157.22175326607, 26242.154984731078, 37354.190630220255, 31084.48160701771, 26382.881567821692, 24345.87768863174, 0.078, 1.028, 0.20800000000000002, 192.0, 0.0, 0.0, 0.0, 0.0, 0.0, 0.0, 0.0, 0.0, 0.0, 1.7074740802140443E9, 0.0, 2024-02-09 11:21:20.214
28.0, -18644.864099605573, -7295.58703846777, 12067.639776186918, -4550.1669705113145, 44488.17455627615, 14961.76600000453, 31594.704877699005, 5604.342294256961, 25153.289753590794, 4622.966602202249, 38608.414066840895, 26317.97210192348, 37989.42720764008, 31308.848417860085, 26607.114268197332, 24595.904302108804, 0.066, 1.0, 0.214, 192.0, 1.0, 8.0, 15.5, 32.0, 3.0, 88.0, 0.0, 0.0, 0.0, 1.7074740802233436E9, 0.0, 2024-02-09 11:21:20.223
30.0, -18621.104195249583, -7280.611369682714, 12071.976014611248, -4538.879339561384, 44244.42878299103, 14935.86032818083, 31469.579812238197, 5511.157871622786, 24837.34784571503, 4535.951261037739, 38148.72809037305, 26228.76628980235, 37436.668567260334, 31060.56524045053, 26364.776654812893, 24354.639572458218, 0.066, 1.0, 0.214, 192.0, 0.0, 0.0, 0.0, 0.0, 0.0, 0.0, 0.0, 0.0, 0.0, 1.7074740802300615E9, 0.0, 2024-02-09 11:21:20.230
32.0, -18532.926563373396, -7156.492132722394, 12119.473471578774, -4549.004679799638, 44644.79322967449, 15003.317892946947, 31708.07292557632, 5653.560835547547, 25114.911808361034, 4642.144398944903, 38481.79143450158, 26333.730081764472, 37751.828164080165, 31240.161507148925, 26527.989092825545, 24473.03676283798, 0.066, 1.0, 0.214, 192.0, 0.0, 0.0, 0.0, 0.0, 0.0, 0.0, 0.0, 0.0, 0.0, 1.707474080238058E9, 0.0, 2024-02-09 11:21:20.238
34.0, -18586.458991343858, -7259.377212450173, 12065.873988374948, -4509.576202580476, 44273.37429206065, 14925.153842586738, 31519.62536807363, 5511.3590373228835, 25041.24045863634, 4604.034674648604, 38458.45621329024, 26302.169418593578, 37834.462563331435, 31205.024564865183, 26517.14849676472, 24520.42246108323, 0.066, 1.0, 0.214, 192.0, 0.0, 0.0, 0.0, 0.0, 0.0, 0.0, 0.0, 0.0, 0.0, 1.7074740802461035E9, 0.0, 2024-02-09 11:21:20.246
36.0, -18482.165751715394, -7112.995638012367, 12147.144931214445, -4519.723894563186, 44501.54089946043, 14993.237256197603, 31650.181907437076, 5619.5414804865695, 24952.392274426496, 4610.091997395993, 38220.54424530795, 26307.042098884835, 37399.005877853146, 31093.62347049993, 26401.45586746405, 24348.67165668865, 0.066, 1.0, 0.214, 192.0, 0.0, 0.0, 0.0, 0.0, 0.0, 0.0, 0.0, 0.0, 0.0, 1.7074740802541163E9, 0.0, 2024-02-09 11:21:20.254
38.0, -18511.312426485114, -7157.699126922981, 12117.01477968869, -4507.721007790686, 44512.31444028788, 14970.706697786654, 31645.085709701267, 5632.460788781737, 25238.785176132344, 4688.054882056103, 38677.30214325216, 26386.390791701175, 38035.13652505118, 31317.58794994211, 26637.490288912093, 24618.83719191995, 0.08, 0.994, 0.212, 192.0, 1.0, 64.0, 15.5, 8.0, 3.0, 80.0, 0.0, 0.0, 0.0, 1.7074740802631292E9, 0.0, 2024-02-09 11:21:20.263
40.0, -18508.3172927281, -7167.958577627966, 12113.080872664557, -4508.279801402068, 44259.87383840964, 14926.114967598316, 31515.155019182566, 5533.4872643336375, 24908.02406168271, 4585.616837217431, 38203.311050332915, 26280.890557872124, 37462.55188733958, 31067.941316120785, 26386.70371612355, 24379.29354659242, 0.08, 0.994, 0.212, 192.0, 0.0, 0.0, 0.0, 0.0, 0.0, 0.0, 0.0, 0.0, 0.0, 1.7074740802691839E9, 0.0, 2024-02-09 11:21:20.269
42.0, -18425.727596965742, -7049.784904692759, 12168.110867513522, -4510.716141547697, 44651.07406986643, 15000.21100046766, 31727.988329886, 5684.160373706863, 25182.101152193685, 4695.5650681930865, 38523.276272210634, 26391.285823736886, 37774.00109457983, 31257.484109101788, 26558.812148429413, 24506.922007432226, 0.08, 0.994, 0.212, 192.0, 0.0, 0.0, 0.0, 0.0, 0.0, 0.0, 0.0, 0.0, 0.0, 1.7074740802781236E9, 0.0, 2024-02-09 11:21:20.278
44.0, -18513.10056604154, -7178.620359733148, 12089.142154352923, -4489.012597681594, 44270.4015100481, 14911.318112768902, 31517.56900758374, 5529.195729398219, 25083.06057251222, 4648.984032748226, 38487.625239804416, 26347.923439493592, 37840.94456922347, 31217.966224904805, 26530.671302160183, 24537.700359547183, 0.08, 0.994, 0.212, 192.0, 0.0, 0.0, 0.0, 0.0, 0.0, 0.0, 0.0, 0.0, 0.0, 1.707474080286193E9, 0.0, 2024-02-09 11:21:20.286
46.0, -18428.722730722755, -7057.831532696669, 12150.385934160464, -4515.700580561231, 44480.57496316135, 14968.493875085578, 31627.383128092664, 5588.58431441597, 24971.592422913604, 4637.763457031662, 38227.02625119999, 26331.494907318942, 37391.585098693984, 31106.92275845084, 26402.88637910919, 24356.472415503555, 0.08, 0.994, 0.212, 192.0, 0.0, 0.0, 0.0, 0.0, 0.0, 0.0, 0.0, 0.0, 0.0, 1.7074740802943928E9, 0.0, 2024-02-09 11:21:20.294
48.0, -18462.116236938982, -7112.459196145439, 12111.583305786051, -4502.289533888046, 44500.28920177093, 14962.324793615913, 31631.518200816896, 5615.6075734624355, 25238.584010432245, 4701.130652562458, 38671.80361411615, 26394.616233660727, 38014.975251552496, 31332.742432682808, 26623.386338160795, 24608.35422377041, 0.09, 0.998, 0.202, 192.0, 1.0, 104.0, 15.5, 24.0, 3.0, 40.0, 0.0, 0.0, 0.0, 1.7074740803022149E9, 0.0, 2024-02-09 11:21:20.302
50.0, -18458.137626425938, -7119.276478204308, 12116.143061654933, -4483.916399945784, 44251.715451683456, 14958.368534847325, 31530.555371112274, 5555.257863433107, 24920.295169388675, 4606.2251456052245, 38209.81540796941, 26303.711688960993, 37460.853154760975, 31093.578767011022, 26401.589977930784, 24399.611282302296, 0.09, 0.998, 0.202, 192.0, 0.0, 0.0, 0.0, 0.0, 0.0, 0.0, 0.0, 0.0, 0.0, 1.7074740803101935E9, 0.0, 2024-02-09 11:21:20.310
52.0, -18393.943416350296, -7020.749988645314, 12149.380105659975, -4506.335199634457, 44629.79520914498, 15026.83192811393, 31716.208960558055, 5695.850336056988, 25181.497655093393, 4714.362885279999, 38523.43273442182, 26400.986480830492, 37762.08761478515, 31276.23722269979, 26559.750921696537, 24527.75383326457, 0.09, 0.998, 0.202, 192.0, 0.0, 0.0, 0.0, 0.0, 0.0, 0.0, 0.0, 0.0, 0.0, 1.7074740803192518E9, 0.0, 2024-02-09 11:21:20.319
54.0, -18475.549635356623, -7148.154932040565, 12075.976976868747, -4488.74437674813, 44250.62021620515, 14935.23447933608, 31527.80610654427, 5537.108246935398, 25087.6203283811, 4644.3795733904335, 38484.71951302523, 26338.669817289094, 37846.37604312611, 31228.672710498897, 26521.95412182261, 24548.47390037464, 0.09, 0.998, 0.202, 192.0, 0.0, 0.0, 0.0, 0.0, 0.0, 0.0, 0.0, 0.0, 0.0, 1.7074740803252463E9, 0.0, 2024-02-09 11:21:20.325
56.0, -18383.6392621564, -7011.585773418638, 12156.555015630129, -4498.310923375002, 44478.18332650463, 15009.4422709277, 31671.3266576918, 5656.98065244921, 24990.546702211705, 4646.502989113687, 38236.88337050479, 26339.988570211957, 37409.24297681367, 31115.416421343856, 26415.47041123753, 24381.68518324914, 0.09, 0.998, 0.202, 192.0, 0.0, 0.0, 0.0, 0.0, 0.0, 0.0, 0.0, 0.0, 0.0, 1.7074740803342566E9, 0.0, 2024-02-09 11:21:20.334
58.0, -18422.084262619526, -7065.721698489392, 12115.49486106573, -4489.191411637236, 44494.455396468096, 14981.189665936194, 31651.1206807042, 5654.2313878812065, 25265.361400289705, 4718.676771959874, 38688.545070713175, 26411.670614680126, 38026.017013313416, 31341.683130464928, 26638.1384895013, 24636.584477017463, 0.10200000000000001, 1.006, 0.184, 192.0, 1.5, 24.0, 15.5, 56.0, 2.5, 96.0, 0.0, 0.0, 0.0, 1.7074740803422673E9, 0.0, 2024-02-09 11:21:20.342
60.0, -18436.702303493297, -7090.845059257157, 12112.611486030995, -4488.811431981496, 44222.077038535725, 14927.076092609894, 31487.0812281467, 5510.688484989225, 24942.088120232598, 4611.298991596579, 38227.74150702256, 26309.746659963927, 37453.722948279734, 31092.01414489915, 26387.955413813048, 24395.364450855788, 0.10200000000000001, 1.006, 0.184, 192.0, 0.0, 0.0, 0.0, 0.0, 0.0, 0.0, 0.0, 0.0, 0.0, 1.7074740803502617E9, 0.0, 2024-02-09 11:21:20.350
62.0, -18374.519750418636, -6989.636360363527, 12164.35577444503, -4503.630638555364, 44597.005200029045, 14995.137154476304, 31679.105064762243, 5650.990384935187, 25197.725021567945, 4705.913925875893, 38534.85447583848, 26402.841675620282, 37737.12071622857, 31263.988466738283, 26536.616866185293, 24499.99296665108, 0.10200000000000001, 1.006, 0.184, 192.0, 0.0, 0.0, 0.0, 0.0, 0.0, 0.0, 0.0, 0.0, 0.0, 1.707474080358274E9, 0.0, 2024-02-09 11:21:20.358
64.0, -18496.716737355797, -7158.593196701193, 12084.068308361568, -4494.488775073144, 44212.152863997566, 14906.356025499825, 31459.253306299845, 5509.28032508854, 25099.243235497863, 4645.4971606131985, 38506.02072549114, 26342.469613846497, 37831.042746429775, 31233.41128032342, 26508.498371660517, 24538.1920979252, 0.10200000000000001, 1.006, 0.184, 192.0, 0.0, 0.0, 0.0, 0.0, 0.0, 0.0, 0.0, 0.0, 0.0, 1.70747408036631E9, 0.0, 2024-02-09 11:21:20.366
66.0, -18470.967527743283, -7089.548658078749, 12139.54533809964, -4522.584917853465, 44425.76848575693, 14971.757229776053, 31597.811770178294, 5599.804890132534, 24966.719742622347, 4608.817947962039, 38226.4227540997, 26312.384165809653, 37392.61327893892, 31105.291081105603, 26378.41121893063, 24359.288735304923, 0.10200000000000001, 1.006, 0.184, 192.0, 0.0, 0.0, 0.0, 0.0, 0.0, 0.0, 0.0, 0.0, 0.0, 1.7074740803733096E9, 0.0, 2024-02-09 11:21:20.373
68.0, -18582.90506397546, -7212.930287472044, 12087.398718285409, -4519.858005029918, 44465.71105309857, 14958.189720891682, 31614.262654097398, 5618.11096884143, 25202.55299837029, 4641.742067544707, 38648.2225237158, 26347.856384260227, 38004.04524851385, 31322.930016866925, 26592.8762069793, 24610.030604604555, 0.108, 1.012, 0.17200000000000001, 192.0, 1.5, 48.0, 15.5, 80.0, 2.5, 48.0, 0.0, 0.0, 0.0, 1.7074740803813872E9, 0.0, 2024-02-09 11:21:20.381
70.0, -18655.3023642662, -7292.100166332742, 12069.830247143538, -4520.550909108032, 44206.60963137265, 14926.874926909797, 31477.291164075275, 5539.768104525579, 24850.20009877683, 4508.74918803563, 38162.675578913164, 26224.251237422377, 37439.41783182834, 31077.53021449211, 26366.765960069413, 24395.54326481143, 0.108, 1.012, 0.17200000000000001, 192.0, 0.0, 0.0, 0.0, 0.0, 0.0, 0.0, 0.0, 0.0, 0.0, 1.7074740803903596E9, 0.0, 2024-02-09 11:21:20.390
72.0, -18625.149860995993, -7227.101293456709, 12114.600791287517, -4538.2534907166355, 44599.1286157523, 15001.149773734782, 31674.03121877089, 5703.516984405159, 25077.78556082077, 4588.656674463353, 38438.00436711364, 26300.3589272927, 37711.12563742705, 31248.074024686102, 26516.76851710898, 24505.290330086988, 0.108, 1.012, 0.17200000000000001, 192.0, 0.0, 0.0, 0.0, 0.0, 0.0, 0.0, 0.0, 0.0, 0.0, 1.7074740803983703E9, 0.0, 2024-02-09 11:21:20.398
74.0, -18739.81431005172, -7394.113528026764, 12052.15001727939, -4519.746246307641, 44248.47444873744, 14917.978932616585, 31513.165713926046, 5568.266578706095, 24973.55937642567, 4516.505243361622, 38410.243500500146, 26241.305618441776, 37814.90478693304, 31218.70383247183, 26500.71996459007, 24549.70324631968, 0.108, 1.012, 0.17200000000000001, 192.0, 0.0, 0.0, 0.0, 0.0, 0.0, 0.0, 0.0, 0.0, 0.0, 1.7074740804053361E9, 0.0, 2024-02-09 11:21:20.405
76.0, -18669.383963273045, -7290.647302943147, 12115.740730254738, -4547.820037343507, 44453.73051807052, 14975.981709478106, 31624.142125146645, 5653.314966358539, 24854.178709289874, 4494.734644262153, 38138.62510187925, 26216.964568729945, 37375.8718223419, 31083.073447117025, 26384.803817844848, 24367.335363308834, 0.108, 1.012, 0.17200000000000001, 192.0, 0.0, 0.0, 0.0, 0.0, 0.0, 0.0, 0.0, 0.0, 0.0, 1.7074740804136217E9, 0.0, 2024-02-09 11:21:20.413
78.0, -18713.528658572275, -7349.432390860605, 12078.234503058733, -4543.193226241258, 44475.72463461455, 14964.716430272632, 31588.804017162805, 5672.4257078678265, 25118.39868049606, 4556.693679892263, 38583.49187177323, 26282.2540142839, 37992.98113500847, 31309.653080660475, 26588.629375532793, 24614.47860175116, 0.108, 1.024, 0.164, 192.0, 1.5, 48.0, 16.0, 0.0, 2.5, 16.0, 0.0, 0.0, 0.0, 1.7074740804223485E9, 0.0, 2024-02-09 11:21:20.422
80.0, -18710.645283537542, -7365.391536401694, 12084.828267673049, -4533.716086592208, 44217.56198615575, 14932.731083957087, 31470.384475038587, 5563.237436203652, 24794.611310316483, 4457.675451955253, 38126.86808429576, 26184.778056714305, 37446.99507319869, 31079.92185114883, 26359.009904743423, 24396.97377645657, 0.108, 1.024, 0.164, 192.0, 0.0, 0.0, 0.0, 0.0, 0.0, 0.0, 0.0, 0.0, 0.0, 1.70747408043041E9, 0.0, 2024-02-09 11:21:20.430
82.0, -18624.68047436243, -7255.733878103957, 12138.383047387964, -4543.170874496803, 44600.67088611971, 15015.20902099717, 31666.141052978168, 5714.670504888357, 25060.06062746771, 4564.114459051426, 38429.95773910973, 26286.702011430505, 37729.40936439149, 31237.61340828102, 26512.611092640294, 24503.770411464026, 0.108, 1.024, 0.164, 192.0, 0.0, 0.0, 0.0, 0.0, 0.0, 0.0, 0.0, 0.0, 0.0, 1.7074740804374309E9, 0.0, 2024-02-09 11:21:20.437
84.0, -18689.142905371536, -7371.135934726708, 12073.495933234208, -4523.613098098409, 44239.73491665541, 14931.635848478778, 31477.961716408936, 5574.212142731207, 24999.88973139402, 4521.08735097496, 38433.26579728911, 26249.061673767766, 37839.268188389324, 31211.4171637794, 26498.57419712236, 24551.737255065116, 0.108, 1.024, 0.164, 192.0, 0.0, 0.0, 0.0, 0.0, 0.0, 0.0, 0.0, 0.0, 0.0, 1.707474080446454E9, 0.0, 2024-02-09 11:21:20.446
86.0, -18586.68250878841, -7233.046857481821, 12143.21102419031, -4539.169912239303, 44429.65768929216, 14992.857276541863, 31576.91288911258, 5644.553082532058, 24888.06395388412, 4520.2379846856575, 38172.9126778737, 26244.18899347651, 37386.488900958175, 31087.47674077472, 26370.386942671175, 24370.86693893277, 0.108, 1.024, 0.164, 192.0, 0.0, 0.0, 0.0, 0.0, 0.0, 0.0, 0.0, 0.0, 0.0, 1.7074740804544199E9, 0.0, 2024-02-09 11:21:20.454
88.0, -18608.162535209958, -7276.655110914125, 12098.306369579599, -4533.894900547851, 44455.85393379378, 14965.901072728762, 31567.413397719076, 5645.983594177198, 25167.863090975654, 4593.171726843325, 38623.12151469249, 26314.373471066174, 37993.227004197484, 31311.32946149462, 26586.841235976368, 24613.87510465087, 0.096, 1.028, 0.165, 192.0, 1.0, 80.0, 16.0, 32.0, 2.5, 24.0, 0.0, 0.0, 0.0, 1.707474080461444E9, 0.0, 2024-02-09 11:21:20.461
90.0, -18600.182962439416, -7285.081718573776, 12099.893343435926, -4519.030990485071, 44198.875927791116, 14941.470616039112, 31436.432175210975, 5555.056697733009, 24853.016418578198, 4507.408083368312, 38174.23143079656, 26223.021891477336, 37440.35660509546, 31068.880089387905, 26360.328657666287, 24392.592834543328, 0.096, 1.028, 0.165, 192.0, 0.0, 0.0, 0.0, 0.0, 0.0, 0.0, 0.0, 0.0, 0.0, 1.7074740804694457E9, 0.0, 2024-02-09 11:21:20.469
92.0, -18514.95576083133, -7164.739926426402, 12148.106056226023, -4530.005697012627, 44595.99937152855, 15024.440291457213, 31641.196506166045, 5695.068025001053, 25112.72133740441, 4613.243593364191, 38473.72245475322, 26332.88071547517, 37710.83506474913, 31249.593943309064, 26518.86958108778, 24511.861742956848, 0.096, 1.028, 0.165, 192.0, 0.0, 0.0, 0.0, 0.0, 0.0, 0.0, 0.0, 0.0, 0.0, 1.707474080478501E9, 0.0, 2024-02-09 11:21:20.478
94.0, -18587.73304077781, -7283.382985995172, 12074.524113479152, -4515.27589741658, 44248.22857954843, 14938.564889259922, 31455.878192887092, 5560.912854780299, 25040.413444091493, 4580.565342970532, 38474.46006232024, 26289.67479344306, 37829.16519989553, 31226.526943031186, 26511.337043206342, 24562.04140925901, 0.096, 1.028, 0.165, 192.0, 0.0, 0.0, 0.0, 0.0, 0.0, 0.0, 0.0, 0.0, 0.0, 1.7074740804854825E9, 0.0, 2024-02-09 11:21:20.485
96.0, -18472.666260321887, -7127.591327141682, 12158.633727864471, -4515.611173583409, 44462.917085041656, 15024.239125757114, 31599.957537646, 5658.366460605438, 24931.31457940514, 4583.828697661006, 38201.411152054214, 26285.4056102521, 37374.97775256369, 31100.038421158606, 26395.487951694486, 24380.14291288172, 0.096, 1.028, 0.165, 192.0, 0.0, 0.0, 0.0, 0.0, 0.0, 0.0, 0.0, 0.0, 0.0, 1.7074740804935539E9, 0.0, 2024-02-09 11:21:20.493
98.0, -18506.126821771482, -7173.9935486309, 12112.25385811971, -4521.2885166750575, 44498.85869012579, 14992.142020719293, 31585.361848516688, 5627.6998672127565, 25221.686091624033, 4675.06851852757, 38666.93093382489, 26372.778579327893, 37997.205614710525, 31349.930924168937, 26622.40286140476, 24633.745805471637, 0.07200000000000001, 1.0230000000000001, 0.1665, 192.0, 0.5, 64.0, 15.5, 104.0, 2.5, 32.0, 0.0, 0.0, 0.0, 1.70747408050252E9, 0.0, 2024-02-09 11:21:20.502
100.0, -18497.52140015619, -7178.665063222059, 12117.484166322252, -4506.335199634457, 44250.441402249504, 14971.980747220607, 31458.783919666283, 5533.219043400174, 24905.632425025993, 4572.719880666719, 38216.20800688362, 26276.73313340344, 37454.907590735864, 31096.909176934863, 26393.923329582612, 24404.88629399375, 0.07200000000000001, 1.0230000000000001, 0.1665, 192.0, 0.0, 0.0, 0.0, 0.0, 0.0, 0.0, 0.0, 0.0, 0.0, 1.7074740805105543E9, 0.0, 2024-02-09 11:21:20.510
102.0, -18416.585733483524, -7062.078364143177, 12161.74062034376, -4525.781217310574, 44636.567787714936, 15046.233242301136, 31655.65808482863, 5697.370254679949, 25162.74454149539, 4682.779870364651, 38506.11013246896, 26376.913652052124, 37714.143122928515, 31265.553088850153, 26547.032779101468, 24510.1853621227, 0.07200000000000001, 1.0230000000000001, 0.1665, 192.0, 0.0, 0.0, 0.0, 0.0, 0.0, 0.0, 0.0, 0.0, 0.0, 1.7074740805175407E9, 0.0, 2024-02-09 11:21:20.517
104.0, -18498.817801334597, -7189.684473238525, 12089.812706686582, -4507.855118257417, 44279.409263063586, 14957.899148213763, 31448.099785816645, 5545.601909828414, 25095.175218006996, 4635.5729860750425, 38508.457065636765, 26333.171288153088, 37840.25166514536, 31243.447213583855, 26539.902572620224, 24559.694476091205, 0.07200000000000001, 1.0230000000000001, 0.1665, 192.0, 0.0, 0.0, 0.0, 0.0, 0.0, 0.0, 0.0, 0.0, 0.0, 1.7074740805255516E9, 0.0, 2024-02-09 11:21:20.525
106.0, -18401.25243678718, -7046.879177913568, 12173.02825129369, -4512.303115404024, 44479.03269279393, 15025.870803102353, 31590.458046252497, 5638.585166762491, 24979.616699173057, 4627.77222726014, 38238.06801296092, 26327.404538083618, 37383.78433987908, 31112.935377709317, 26413.436402492098, 24372.520968022465, 0.07200000000000001, 1.0230000000000001, 0.1665, 192.0, 0.0, 0.0, 0.0, 0.0, 0.0, 0.0, 0.0, 0.0, 0.0, 1.707474080534691E9, 0.0, 2024-02-09 11:21:20.534
108.0, -18428.007474900183, -7086.665283044015, 12138.047771221134, -4508.816243268996, 44527.915957917685, 15000.412166167756, 31593.29671779832, 5629.68917246928, 25276.447865539536, 4707.724417176773, 38711.27679482422, 26413.86108563675, 38013.991774796465, 31349.3497788131, 26641.066568024944, 24623.39694778883, 0.059000000000000004, 1.0125000000000002, 0.16925, 192.0, 0.5, 56.0, 15.5, 40.0, 2.5, 48.0, 0.0, 0.0, 0.0, 1.7074740805415945E9, 0.0, 2024-02-09 11:21:20.541
110.0, -18437.998704671707, -7106.401873398051, 12139.657096821917, -4490.420757582278, 44274.67069323906, 14969.745572775075, 31493.071495660723, 5554.028517488065, 24960.349495452585, 4603.431177548311, 38263.01255977304, 26311.534799520352, 37484.0989689945, 31103.257072360168, 26415.04572809288, 24412.038852219448, 0.059000000000000004, 1.0125000000000002, 0.16925, 192.0, 0.0, 0.0, 0.0, 0.0, 0.0, 0.0, 0.0, 0.0, 0.0, 1.7074740805496085E9, 0.0, 2024-02-09 11:21:20.549
112.0, -18368.864759071443, -6999.068796523667, 12185.679338655395, -4510.4255688697785, 44662.361700816364, 15040.175919553749, 31701.166236539633, 5709.998990297197, 25208.051527506297, 4698.40373973891, 38547.48321145573, 26410.843600135282, 37742.462783153394, 31275.4325598994, 26564.91417466571, 24522.300007617476, 0.059000000000000004, 1.0125000000000002, 0.16925, 192.0, 0.0, 0.0, 0.0, 0.0, 0.0, 0.0, 0.0, 0.0, 0.0, 1.707474080557918E9, 0.0, 2024-02-09 11:21:20.557
114.0, -18462.74208578373, -7139.035420302799, 12106.665922005883, -4498.042702441538, 44305.02436220937, 14946.05272365245, 31491.573928782218, 5557.425982645272, 25139.856355173157, 4641.2726809111455, 38550.187772534824, 26357.847614031747, 37882.272944721335, 31255.785376523185, 26553.805357671423, 24573.306688464487, 0.059000000000000004, 1.0125000000000002, 0.16925, 192.0, 0.0, 0.0, 0.0, 0.0, 0.0, 0.0, 0.0, 0.0, 0.0, 1.707474080566634E9, 0.0, 2024-02-09 11:21:20.566
116.0, -18385.896788346385, -7019.72180840037, 12167.440315179863, -4511.811377026007, 44499.976277348556, 15009.956361050174, 31606.2607295824, 5647.279995355606, 25004.56124598518, 4619.747951000685, 38256.06116724744, 26333.126584664176, 37413.31099430454, 31128.49219185021, 26415.425707748618, 24382.914529194182, 0.059000000000000004, 1.0125000000000002, 0.16925, 192.0, 0.0, 0.0, 0.0, 0.0, 0.0, 0.0, 0.0, 0.0, 0.0, 1.7074740805736365E9, 0.0, 2024-02-09 11:21:20.573
118.0, -18425.235858587726, -7071.3319863476745, 12126.78249201566, -4510.1349961918595, 44551.22882738458, 14984.788296793497, 31612.474514540972, 5651.191550635284, 25285.612080766212, 4698.850774628017, 38713.80254194767, 26415.55981821535, 38055.4319090166, 31362.693770252918, 26634.80807957746, 24637.411491562307, 0.0625, 1.01025, 0.16962500000000003, 192.0, 1.0, 8.0, 15.5, 64.0, 2.5, 40.0, 0.0, 0.0, 0.0, 1.707474080581643E9, 0.0, 2024-02-09 11:21:20.581
120.0, -18436.925820937853, -7095.851850015146, 12129.107073439012, -4495.494603573633, 44285.198364877506, 14952.53472954449, 31502.258062631856, 5545.043116217032, 24958.650762873982, 4591.070662864526, 38262.87844930631, 26315.312244333298, 37521.98517584624, 31110.72255500824, 26404.65216692116, 24412.798811530927, 0.0625, 1.01025, 0.16962500000000003, 192.0, 0.0, 0.0, 0.0, 0.0, 0.0, 0.0, 0.0, 0.0, 0.0, 1.7074740805906515E9, 0.0, 2024-02-09 11:21:20.590
122.0, -18373.715087618242, -6987.579999873638, 12175.799867606149, -4508.74918803563, 44655.92439841323, 15036.085550318427, 31678.725085106504, 5705.260420472672, 25201.904797781088, 4696.190917037835, 38540.73298463023, 26415.202190304066, 37760.344178717634, 31277.757141322752, 26544.35056976683, 24514.00751042456, 0.0625, 1.01025, 0.16962500000000003, 192.0, 0.0, 0.0, 0.0, 0.0, 0.0, 0.0, 0.0, 0.0, 0.0, 1.70747408059768E9, 0.0, 2024-02-09 11:21:20.597
124.0, -18481.42814414837, -7140.868263348135, 12107.828212717559, -4487.135051147348, 44298.832928995245, 14947.796159719965, 31495.306670106256, 5562.38806991435, 25127.272323044817, 4635.863558752962, 38544.62218816545, 26365.804835057836, 37890.00664830287, 31254.08664394458, 26538.38265399726, 24577.10648502189, 0.0625, 1.01025, 0.16962500000000003, 192.0, 0.0, 0.0, 0.0, 0.0, 0.0, 0.0, 0.0, 0.0, 0.0, 1.7074740806056442E9, 0.0, 2024-02-09 11:21:20.605
126.0, -18428.476861533745, -7037.15616907551, 12180.136106030477, -4493.907629717306, 44479.9491143166, 15011.789204095508, 31613.212122107998, 5628.30336431305, 24984.80230388669, 4619.233860878213, 38250.40617590024, 26350.31507615031, 37417.5801774955, 31126.659348804875, 26410.843600135282, 24392.570482798874, 0.0625, 1.01025, 0.16962500000000003, 192.0, 0.0, 0.0, 0.0, 0.0, 0.0, 0.0, 0.0, 0.0, 0.0, 1.707474080614018E9, 0.0, 2024-02-09 11:21:20.614
128.0, -18528.813842393618, -7151.932376853511, 12130.202308917322, -4499.003827453116, 44520.04814386942, 14998.378157422323, 31609.54643601733, 5661.674518784824, 25250.162214060096, 4678.935370318338, 38698.02221036222, 26412.631739691704, 38037.01407158543, 31366.314752854676, 26631.097689997878, 24644.787567232557, 0.07125000000000001, 1.014125, 0.17181250000000003, 192.0, 1.0, 64.0, 15.5, 104.0, 2.5, 56.0, 0.0, 0.0, 0.0, 1.7074740806226542E9, 0.0, 2024-02-09 11:21:20.622
130.0, -18623.16055573947, -7260.29363397284, 12108.901096451415, -4508.212746168702, 44229.94485258399, 14949.651354509755, 31454.537088219775, 5541.757409782102, 24896.73643073278, 4540.533368651077, 38219.13608540727, 26280.220005538467, 37496.66064937838, 31115.617587043955, 26392.962204571035, 24431.663683851206, 0.07125000000000001, 1.014125, 0.17181250000000003, 192.0, 0.0, 0.0, 0.0, 0.0, 0.0, 0.0, 0.0, 0.0, 0.0, 1.7074740806297145E9, 0.0, 2024-02-09 11:21:20.629
132.0, -18607.424927642933, -7213.399674105606, 12160.332460443076, -4532.822016813996, 44611.198557758165, 15020.998122811096, 31665.403445411142, 5696.945571535298, 25108.698023402456, 4608.549727028576, 38463.68652149278, 26346.559983081817, 37724.87196026707, 31268.257649929245, 26525.23982825754, 24514.633359269304, 0.07125000000000001, 1.014125, 0.17181250000000003, 192.0, 0.0, 0.0, 0.0, 0.0, 0.0, 0.0, 0.0, 0.0, 0.0, 1.7074740806386836E9, 0.0, 2024-02-09 11:21:20.638
134.0, -18734.09226347116, -7395.722853627545, 12083.576569983552, -4519.478025374177, 44245.23344579142, 14933.178118846194, 31455.006474853337, 5553.9167587657885, 25026.19773461792, 4533.447865658744, 38470.81672797403, 26286.478493985953, 37878.47314816393, 31242.217867638814, 26527.765575380992, 24572.658487875284, 0.07125000000000001, 1.014125, 0.17181250000000003, 192.0, 0.0, 0.0, 0.0, 0.0, 0.0, 0.0, 0.0, 0.0, 0.0, 1.7074740806467867E9, 0.0, 2024-02-09 11:21:20.646
136.0, -18672.13322784105, -7299.677407703091, 12147.435503892364, -4539.795761084051, 44421.231081632504, 14983.849523526374, 31577.516386212876, 5625.911727656332, 24871.322497287096, 4503.317714132991, 38164.35195974731, 26256.460101182474, 37395.34019176247, 31095.635127500907, 26382.61334688823, 24369.794055198916, 0.07125000000000001, 1.014125, 0.17181250000000003, 192.0, 0.0, 0.0, 0.0, 0.0, 0.0, 0.0, 0.0, 0.0, 0.0, 1.7074740806537848E9, 0.0, 2024-02-09 11:21:20.653
138.0, -18719.85420225313, -7365.771516057434, 12099.066328891078, -4544.04259253056, 44475.18819274762, 14958.636755780788, 31572.599002432707, 5628.839806179978, 25145.421939542528, 4572.205790544247, 38620.95339548033, 26319.626131013174, 38008.82852182729, 31319.75606915427, 26604.901445496256, 24610.678805193762, 0.07062500000000001, 1.0180625, 0.17590625000000001, 192.0, 1.0, 24.0, 15.5, 120.0, 2.5, 80.0, 0.0, 0.0, 0.0, 1.7074740806617768E9, 0.0, 2024-02-09 11:21:20.661
140.0, -18746.452778154944, -7407.926906100143, 12089.209209586288, -4534.453694159233, 44201.75930282585, 14925.556173986934, 31442.13187004708, 5533.24139514463, 24831.737557856748, 4470.952388161706, 38171.43746273965, 26223.51362985535, 37479.8968410369, 31079.452464515267, 26373.78440782838, 24397.756087512505, 0.07062500000000001, 1.0180625, 0.17590625000000001, 192.0, 0.0, 0.0, 0.0, 0.0, 0.0, 0.0, 0.0, 0.0, 0.0, 1.7074740806697683E9, 0.0, 2024-02-09 11:21:20.669
142.0, -18697.681271753463, -7320.531585279893, 12129.196480416833, -4562.2592642616355, 44589.383255169785, 15004.413128425256, 31647.544401591353, 5692.028187755131, 25057.154900688518, 4556.134886280881, 38423.34162275096, 26301.320052304276, 37696.57465178664, 31228.73976573226, 26506.799639081913, 24485.79960892196, 0.07062500000000001, 1.0180625, 0.17590625000000001, 192.0, 0.0, 0.0, 0.0, 0.0, 0.0, 0.0, 0.0, 0.0, 0.0, 1.7074740806777432E9, 0.0, 2024-02-09 11:21:20.677
144.0, -18786.641214685587, -7456.363136334794, 12058.81083712707, -4546.166008253814, 44244.49583822439, 14921.175232073694, 31468.350466293155, 5542.249148160118, 24995.978176114342, 4504.815281011496, 38437.26675954661, 26253.397912192097, 37857.12723220912, 31216.513361515208, 26510.599435639317, 24558.24161270161, 0.07062500000000001, 1.0180625, 0.17590625000000001, 192.0, 0.0, 0.0, 0.0, 0.0, 0.0, 0.0, 0.0, 0.0, 0.0, 1.7074740806857777E9, 0.0, 2024-02-09 11:21:20.685
146.0, -18693.345033329133, -7324.711361493035, 12121.976866957768, -4564.539142196077, 44420.02408743192, 14975.579378077911, 31579.751560658406, 5604.901087868344, 24860.705418670826, 4487.403272080812, 38131.89722679821, 26234.711853827463, 37369.25570598313, 31077.507862747654, 26372.040971760867, 24356.91945039266, 0.07062500000000001, 1.0180625, 0.17590625000000001, 192.0, 0.0, 0.0, 0.0, 0.0, 0.0, 0.0, 0.0, 0.0, 0.0, 1.7074740806940703E9, 0.0, 2024-02-09 11:21:20.694
148.0, -18702.665710766996, -7348.426562360116, 12095.132421866945, -4548.647051888353, 44500.244498282016, 14969.432648352702, 31599.644613223627, 5624.548271244558, 25144.058483130753, 4569.814153887529, 38593.72897073376, 26315.088726888745, 37987.4155506391, 31307.037926559202, 26600.364041371828, 24604.956758613203, 0.0673125, 1.01703125, 0.181953125, 192.0, 1.0, 0.0, 15.5, 96.0, 2.5, 112.0, 0.0, 0.0, 0.0, 1.7074740807028518E9, 0.0, 2024-02-09 11:21:20.702
150.0, -18692.27214959528, -7352.136951939697, 12095.422994544864, -4530.922118535294, 44222.25585249136, 14936.977915403595, 31457.621628954606, 5523.563089795482, 24840.477089938773, 4487.157402891803, 38165.894230114725, 26233.594266604694, 37484.3001346946, 31073.506900490156, 26389.475332436006, 24405.19921841612, 0.0673125, 1.01703125, 0.181953125, 192.0, 0.0, 0.0, 0.0, 0.0, 0.0, 0.0, 0.0, 0.0, 0.0, 1.7074740807092223E9, 0.0, 2024-02-09 11:21:20.709
152.0, -18588.314186133648, -7210.38218860414, 12153.984565017769, -4544.400220441845, 44618.70874389514, 15009.151698249781, 31663.145919221155, 5658.902902472366, 25089.520226659803, 4594.28931406609, 38436.573855468494, 26335.965256210002, 37705.98473620233, 31229.097393643548, 26522.423508456173, 24490.873454913315, 0.0673125, 1.01703125, 0.181953125, 192.0, 0.0, 0.0, 0.0, 0.0, 0.0, 0.0, 0.0, 0.0, 0.0, 1.707474080717842E9, 0.0, 2024-02-09 11:21:20.717
154.0, -18647.948640340404, -7314.653076488147, 12091.667901476372, -4514.627696827376, 44282.49380379842, 14932.351104301348, 31476.441797785974, 5548.015898229587, 25054.09271169814, 4564.85206661845, 38485.099492680965, 26311.959482665003, 37874.3380754397, 31235.199419879846, 26533.599380683827, 24559.962697024668, 0.0673125, 1.01703125, 0.181953125, 192.0, 0.0, 0.0, 0.0, 0.0, 0.0, 0.0, 0.0, 0.0, 0.0, 1.7074740807258773E9, 0.0, 2024-02-09 11:21:20.725
156.0, -18545.376485035, -7177.1674963435535, 12163.014669777713, -4524.350705665434, 44467.49919265499, 14996.880590543818, 31596.962403888992, 5629.666820724824, 24926.30778864715, 4563.421554973311, 38193.31982056139, 26301.051831370813, 37386.77947363609, 31098.071467646536, 26393.565701671327, 24368.341191809322, 0.0673125, 1.01703125, 0.181953125, 192.0, 0.0, 0.0, 0.0, 0.0, 0.0, 0.0, 0.0, 0.0, 0.0, 1.7074740807339296E9, 0.0, 2024-02-09 11:21:20.733
158.0, -18553.043133383173, -7197.865211709168, 12143.747466057237, -4508.928001991272, 44545.50678080402, 14996.142982976793, 31625.483229813963, 5664.736707775201, 25232.392577218125, 4647.598224591998, 38676.877460107506, 26389.430628947095, 38016.919853320105, 31339.87263916405, 26632.282332454008, 24634.43870954975, 0.06565625, 1.015515625, 0.1859765625, 192.0, 1.0, 0.0, 15.5, 88.0, 2.5, 120.0, 0.0, 0.0, 0.0, 1.7074740807419083E9, 0.0, 2024-02-09 11:21:20.741
160.0, -18555.032438639693, -7215.187813662031, 12126.290753637642, -4503.0941966884375, 44249.16735281555, 14943.214052106627, 31455.162937064524, 5514.309467590984, 24926.486602602792, 4555.956072325239, 38241.331367651386, 26300.135409848146, 37502.315640725574, 31101.983022926215, 26407.200265789066, 24420.577218601375, 0.06565625, 1.015515625, 0.1859765625, 192.0, 0.0, 0.0, 0.0, 0.0, 0.0, 0.0, 0.0, 0.0, 0.0, 1.7074740807498817E9, 0.0, 2024-02-09 11:21:20.749
162.0, -18464.574928829068, -7085.368881865607, 12182.572446176106, -4516.058208472516, 44657.73488971411, 15033.02336132805, 31672.846576314758, 5679.198286437784, 25168.332477609216, 4655.980128762738, 38504.27728942362, 26400.09241105228, 37721.22862592085, 31263.29556266017, 26540.148441809233, 24498.09306837238, 0.06565625, 1.015515625, 0.1859765625, 192.0, 0.0, 0.0, 0.0, 0.0, 0.0, 0.0, 0.0, 0.0, 0.0, 1.7074740807580867E9, 0.0, 2024-02-09 11:21:20.758
164.0, -18554.317182817125, -7219.099368941709, 12107.828212717559, -4497.349798363423, 44324.3139176743, 14946.075075396906, 31503.219187643434, 5545.2889854060395, 25125.417128255027, 4608.415616561844, 38542.834048609024, 26360.1721954551, 37902.88125310913, 31256.05359745665, 26555.347628038842, 24572.14439775281, 0.06565625, 1.015515625, 0.1859765625, 192.0, 0.0, 0.0, 0.0, 0.0, 0.0, 0.0, 0.0, 0.0, 0.0, 1.7074740807648838E9, 0.0, 2024-02-09 11:21:20.764
166.0, -18463.300879395116, -7089.9733412234, 12176.917454828914, -4505.217612411691, 44494.76832089047, 15015.343131463902, 31613.994433163934, 5633.9807074046985, 24985.919891109454, 4593.954037899261, 38238.49269610557, 26337.082843432767, 37427.16907586683, 31106.87805496193, 26416.90092288267, 24379.025325658957, 0.06565625, 1.015515625, 0.1859765625, 192.0, 0.0, 0.0, 0.0, 0.0, 0.0, 0.0, 0.0, 0.0, 0.0, 1.7074740807740448E9, 0.0, 2024-02-09 11:21:20.774
168.0, -18481.22697844827, -7122.450425916962, 12149.0671812376, -4501.194298409736, 44580.777833554486, 15002.177953979726, 31641.196506166045, 5660.445172839782, 25274.212691094006, 4670.173486491858, 38708.86280642305, 26414.64339669268, 38056.46008926154, 31342.040758376213, 26646.22982099412, 24634.39400606084, 0.066828125, 1.0127578124999999, 0.18998828125, 192.0, 1.0, 16.0, 15.5, 72.0, 3.0, 8.0, 0.0, 0.0, 0.0, 1.7074740807819548E9, 0.0, 2024-02-09 11:21:20.781
170.0, -18483.104524982515, -7144.265728505341, 12146.139102713956, -4489.683150015253, 44294.45198708201, 14955.90984295724, 31508.71771677944, 5544.95370923921, 24978.499111950292, 4574.843296389973, 38282.83855710489, 26321.146049636132, 37557.18917336335, 31109.090877663002, 26430.781356189415, 24436.670474609196, 0.066828125, 1.0127578124999999, 0.18998828125, 192.0, 0.0, 0.0, 0.0, 0.0, 0.0, 0.0, 0.0, 0.0, 0.0, 1.7074740807899594E9, 0.0, 2024-02-09 11:21:20.789
172.0, -18402.481782732222, -7025.555613703205, 12187.020443322712, -4516.1252637058815, 44671.19063987621, 15028.68712290372, 31697.969937082526, 5707.048560029097, 25208.543265884313, 4676.409623194888, 38533.66983338235, 26412.85525713626, 37768.30139974372, 31249.616295053518, 26549.603229713826, 24513.89575170228, 0.066828125, 1.0127578124999999, 0.18998828125, 192.0, 0.0, 0.0, 0.0, 0.0, 0.0, 0.0, 0.0, 0.0, 0.0, 1.707474080798031E9, 0.0, 2024-02-09 11:21:20.798
174.0, -18484.915016283398, -7154.234606532408, 12113.662018020394, -4491.22542038267, 44318.52481586037, 14949.070209153917, 31521.502914607874, 5573.3404246974505, 25163.8397769737, 4634.231881407724, 38580.96612464978, 26379.618213131216, 37947.31652108628, 31259.071082958115, 26551.659590203715, 24585.175464770255, 0.066828125, 1.0127578124999999, 0.18998828125, 192.0, 0.0, 0.0, 0.0, 0.0, 0.0, 0.0, 0.0, 0.0, 0.0, 1.7074740808060267E9, 0.0, 2024-02-09 11:21:20.806
176.0, -18404.31462577756, -7036.776189419769, 12176.179847261888, -4510.716141547697, 44466.78393683242, 15005.508363903567, 31605.009031892903, 5630.315021314028, 25010.484458265837, 4608.907354939861, 38262.05143476146, 26353.82430002979, 37424.59862525447, 31108.152104395882, 26392.1798935151, 24373.839720945325, 0.066828125, 1.0127578124999999, 0.18998828125, 192.0, 0.0, 0.0, 0.0, 0.0, 0.0, 0.0, 0.0, 0.0, 0.0, 1.707474080814037E9, 0.0, 2024-02-09 11:21:20.814
178.0, -18433.014265658174, -7069.879122958079, 12151.078838238578, -4502.066016443493, 44545.395022081735, 15001.708567346164, 31640.704767788025, 5664.334376375005, 25307.092107187764, 4697.710835660796, 38730.65575726697, 26434.223524835532, 38046.357100767746, 31350.132089869036, 26618.871285780824, 24626.794412946037, 0.0724140625, 1.01137890625, 0.191994140625, 192.0, 1.0, 56.0, 15.5, 72.0, 3.0, 8.0, 0.0, 0.0, 0.0, 1.7074740808210242E9, 0.0, 2024-02-09 11:21:20.821
180.0, -18456.438893847335, -7111.609829856137, 12131.766931029193, -4493.818222739485, 44246.93217837002, 14955.10518015685, 31481.113312377136, 5540.148084181319, 24986.836312632124, 4587.337921540489, 38286.10191179537, 26332.768956752894, 37524.197998547315, 31118.612720800964, 26393.74451562697, 24419.750204056527, 0.0724140625, 1.01137890625, 0.191994140625, 192.0, 0.0, 0.0, 0.0, 0.0, 0.0, 0.0, 0.0, 0.0, 0.0, 1.7074740808300147E9, 0.0, 2024-02-09 11:21:20.830
182.0, -18382.700488889277, -6999.448776179407, 12188.450954967851, -4510.514975847599, 44636.768953415034, 15033.112768305871, 31682.055495030345, 5691.715263332756, 25205.101097238196, 4684.88093434345, 38530.0935542695, 26422.354748529764, 37708.01874494776, 31263.407321382445, 26516.18737175314, 24494.807361937448, 0.0724140625, 1.01137890625, 0.191994140625, 192.0, 0.0, 0.0, 0.0, 0.0, 0.0, 0.0, 0.0, 0.0, 0.0, 1.7074740808382268E9, 0.0, 2024-02-09 11:21:20.838
184.0, -18470.229920176258, -7127.881899819601, 12123.228564647266, -4477.143821375826, 44296.28483012734, 14958.279127869502, 31496.491312562386, 5553.67088957678, 25174.61331780116, 4648.179369947836, 38588.52101427568, 26394.616233660727, 37912.31368926927, 31274.873766288016, 26539.701406920125, 24581.286261235033, 0.0724140625, 1.01137890625, 0.191994140625, 192.0, 0.0, 0.0, 0.0, 0.0, 0.0, 0.0, 0.0, 0.0, 0.0, 1.70747408084601E9, 0.0, 2024-02-09 11:21:20.846
186.0, -18394.54691345059, -7014.849128109113, 12198.218667294821, -4480.876562699862, 44449.81896279084, 15018.315913476457, 31586.434732250542, 5624.704733455746, 25015.826525190656, 4638.67987855433, 38271.52857441051, 26379.573509642305, 37411.18757858129, 31135.130659953436, 26394.303309238352, 24385.01559317298, 0.0724140625, 1.01137890625, 0.191994140625, 192.0, 0.0, 0.0, 0.0, 0.0, 0.0, 0.0, 0.0, 0.0, 0.0, 1.707474080853014E9, 0.0, 2024-02-09 11:21:20.853
188.0, -18445.754759997697, -7071.957835192423, 12154.945690029346, -4485.3692633353785, 44544.45624881462, 15005.575419136932, 31636.07795668578, 5664.1555624193625, 25303.895807730652, 4713.066484101592, 38738.165943403954, 26454.72007450105, 38033.549551194854, 31372.908517468994, 26632.908181298757, 24640.250163108132, 0.0724140625, 1.01137890625, 0.191994140625, 192.0, 0.0, 0.0, 0.0, 0.0, 0.0, 0.0, 0.0, 0.0, 0.0, 1.7074740808620152E9, 0.0, 2024-02-09 11:21:20.862
190.0, -18492.782830331664, -7135.637955145593, 12142.987506745758, -4476.629731253353, 44247.6921376815, 14965.968127962129, 31488.3329258362, 5555.637843088847, 24969.379600212527, 4592.367064042934, 38288.3370862409, 26338.669817289094, 37520.845236879024, 31120.982005713227, 26410.79889664637, 24433.675340852184, 0.08, 1.014, 0.188, 192.0, 1.0, 64.0, 15.5, 88.0, 2.5, 112.0, 0.0, 0.0, 0.0, 1.707474080870052E9, 0.0, 2024-02-09 11:21:20.870
192.0, -18457.35531537, -7050.857788426613, 12197.615170194527, -4492.074786671971, 44645.64259596379, 15050.278908047547, 31702.03795457339, 5727.410999227882, 25182.883463249622, 4675.001463294204, 38517.844798308, 26417.169143816132, 37714.25488165079, 31263.496728360264, 26540.506069720515, 24522.590580295397, 0.08, 1.014, 0.188, 192.0, 0.0, 0.0, 0.0, 0.0, 0.0, 0.0, 0.0, 0.0, 0.0, 1.7074740808771818E9, 0.0, 2024-02-09 11:21:20.877
194.0, -18608.520163121244, -7240.601747107715, 12114.757253498705, -4484.609304023898, 44298.0059144504, 14950.791293476976, 31499.37468759712, 5562.723346081179, 25124.0313200988, 4621.178462645825, 38555.06045282608, 26368.77761707039, 37906.41282873307, 31262.513251604232, 26555.68290420567, 24600.084078321946, 0.08, 1.014, 0.188, 192.0, 0.0, 0.0, 0.0, 0.0, 0.0, 0.0, 0.0, 0.0, 0.0, 1.7074740808851151E9, 0.0, 2024-02-09 11:21:20.885
196.0, -18590.01291871225, -7185.638807492114, 12167.485018668775, -4518.829824784973, 44441.593520831295, 15000.456869656668, 31572.911926855082, 5621.843710165466, 24933.817974784135, 4571.915217866328, 38207.37906782378, 26317.413308312098, 37385.66188641333, 31097.803246713072, 26386.726067868003, 24378.131255880744, 0.08, 1.014, 0.188, 192.0, 0.0, 0.0, 0.0, 0.0, 0.0, 0.0, 0.0, 0.0, 0.0, 1.7074740808951051E9, 0.0, 2024-02-09 11:21:20.895
198.0, -18664.421876003966, -7279.024395826387, 12119.49582332323, -4539.616947128409, 44525.59137649434, 14981.793163036486, 31607.713592971995, 5647.570568033525, 25204.922283282554, 4617.780997488618, 38647.015529515214, 26369.179948470588, 38006.928623548585, 31320.896008121494, 26596.98892795908, 24617.20551457471, 0.08, 1.014, 0.188, 192.0, 0.0, 0.0, 0.0, 0.0, 0.0, 0.0, 0.0, 0.0, 0.0, 1.7074740809021144E9, 0.0, 2024-02-09 11:21:20.902
200.0, -18709.17006840349, -7348.895948993677, 12102.933180681846, -4533.112589491915, 44225.005117059365, 14928.48425251058, 31450.51377421782, 5520.433845571738, 24873.82589266609, 4487.693844758731, 38188.42478852568, 26242.490260897906, 37500.41574244687, 31073.641010956886, 26358.78638729887, 24393.06222117689, 0.074, 1.016, 0.186, 192.0, 1.0, 40.0, 15.5, 96.0, 2.5, 104.0, 0.0, 0.0, 0.0, 1.7074740809091003E9, 0.0, 2024-02-09 11:21:20.909
202.0, -18647.07692230665, -7250.6600321126025, 12157.963175530813, -4551.776296112096, 44620.22866251811, 15000.21100046766, 31669.493814646463, 5672.917446245843, 25086.547444647247, 4587.203811073758, 38421.84405587245, 26328.72329100648, 37686.8963464375, 31214.345242303043, 26488.962947006577, 24464.945431345157, 0.074, 1.016, 0.186, 192.0, 0.0, 0.0, 0.0, 0.0, 0.0, 0.0, 0.0, 0.0, 0.0, 1.7074740809182606E9, 0.0, 2024-02-09 11:21:20.918
204.0, -18742.18359496398, -7395.924019327644, 12081.542561238119, -4534.856025559428, 44283.320818343265, 14906.221915033093, 31491.86450146014, 5533.151988166808, 25044.52616507127, 4539.3710779394005, 38474.95180069826, 26288.311337031286, 37888.084398279716, 31225.3199488306, 26513.81808684088, 24543.087129960913, 0.074, 1.016, 0.186, 192.0, 0.0, 0.0, 0.0, 0.0, 0.0, 0.0, 0.0, 0.0, 0.0, 1.7074740809251037E9, 0.0, 2024-02-09 11:21:20.925
206.0, -18657.001096844804, -7271.693023645047, 12145.021515491191, -4542.723839607696, 44430.12707592572, 14970.661994297743, 31579.59509844722, 5587.1985062597405, 24881.581947992083, 4508.190394424248, 38150.382119462745, 26258.605868650186, 37369.52392691659, 31066.264935286636, 26357.713503565017, 24334.3441884928, 0.074, 1.016, 0.186, 192.0, 0.0, 0.0, 0.0, 0.0, 0.0, 0.0, 0.0, 0.0, 0.0, 1.7074740809331603E9, 0.0, 2024-02-09 11:21:20.933
208.0, -18674.614271475588, -7294.827079156289, 12113.527907553662, -4539.393429683856, 44530.307594574406, 14972.941872232184, 31610.30639532881, 5641.088562141485, 25185.833893517723, 4597.396206545378, 38622.5180175922, 26343.184869669065, 37994.478701886976, 31319.33138600962, 26586.617718531816, 24596.21722653118, 0.074, 1.016, 0.186, 192.0, 0.0, 0.0, 0.0, 0.0, 0.0, 0.0, 0.0, 0.0, 0.0, 1.7074740809411397E9, 0.0, 2024-02-09 11:21:20.941
210.0, -18675.664803464988, -7317.089416633776, 12112.432672075352, -4516.326429405979, 44245.12168706914, 14934.76509270252, 31465.735312191882, 5527.228775886152, 24875.92695664489, 4502.289533888046, 38198.86305318631, 26249.307542956776, 37500.39339070242, 31090.918909420838, 26377.248928218953, 24405.534494582953, 0.08, 1.008, 0.188, 192.0, 1.0, 64.0, 15.5, 64.0, 2.5, 112.0, 0.0, 0.0, 0.0, 1.7074740809501996E9, 0.0, 2024-02-09 11:21:20.950
212.0, -18572.600909781566, -7178.218028332953, 12174.101135027544, -4526.004734755127, 44642.7368691846, 15021.087529788916, 31668.93502103508, 5681.7910887946, 25098.952662819942, 4594.110500110448, 38437.11029733542, 26340.055625445322, 37683.34241906911, 31233.27716985669, 26505.86086581479, 24483.162103076233, 0.08, 1.008, 0.188, 192.0, 0.0, 0.0, 0.0, 0.0, 0.0, 0.0, 0.0, 0.0, 0.0, 1.7074740809571962E9, 0.0, 2024-02-09 11:21:20.957
214.0, -18639.67849489194, -7293.240105299963, 12099.491012035729, -4500.993132709638, 44317.02724898187, 14943.012886406528, 31505.275548133322, 5553.648537832325, 25098.326813975196, 4587.896715151873, 38522.359850687964, 26329.2150293845, 37908.40213398959, 31261.529774848197, 26539.20966854211, 24579.185197256233, 0.08, 1.008, 0.188, 192.0, 0.0, 0.0, 0.0, 0.0, 0.0, 0.0, 0.0, 0.0, 0.0, 1.7074740809652398E9, 0.0, 2024-02-09 11:21:20.965
216.0, -18540.928487888395, -7159.911949624056, 12167.775591346694, -4507.3186763904905, 44450.109535468764, 15000.568628378944, 31592.58146197575, 5613.7300269281905, 24938.824765542122, 4556.514865936621, 38194.86209092881, 26305.812752939793, 37389.01464808162, 31099.144351380393, 26377.2265764745, 24367.894156920214, 0.08, 1.008, 0.188, 192.0, 0.0, 0.0, 0.0, 0.0, 0.0, 0.0, 0.0, 0.0, 0.0, 1.707474080974192E9, 0.0, 2024-02-09 11:21:20.974
218.0, -18551.120883360014, -7177.100441110188, 12144.418018390897, -4504.256487400114, 44550.87119947329, 15002.848506313385, 31629.752413004928, 5664.624949052924, 25250.966876860486, 4662.618596865964, 38678.57619268611, 26401.07588780831, 38006.66040261512, 31350.57912475814, 26613.998605489567, 24633.54463977154, 0.08, 1.008, 0.188, 192.0, 0.0, 0.0, 0.0, 0.0, 0.0, 0.0, 0.0, 0.0, 0.0, 1.707474080981208E9, 0.0, 2024-02-09 11:21:20.981
220.0, -18560.173339864414, -7206.4035780910945, 12136.036114220156, -4486.4197953247785, 44252.542466228304, 14964.336450616891, 31477.64879198656, 5548.865264518889, 24948.03368425771, 4562.661595661831, 38254.72006258012, 26305.49982851742, 37523.41568749138, 31128.894523250405, 26402.171123286622, 24443.107777012323, 0.08, 1.012, 0.188, 192.0, 1.0, 64.0, 15.5, 80.0, 2.5, 112.0, 0.0, 0.0, 0.0, 1.7074740809894447E9, 0.0, 2024-02-09 11:21:20.989
222.0, -18481.070516237083, -7084.966550465411, 12181.186638019877, -4512.258411915113, 44642.580406973415, 15032.911602605773, 31672.801872825847, 5684.830926040522, 25161.850471717178, 4655.376631662444, 38475.82351873202, 26390.65997489214, 37687.03045690423, 31265.486033616788, 26517.0590897869, 24500.61881549583, 0.08, 1.012, 0.188, 192.0, 0.0, 0.0, 0.0, 0.0, 0.0, 0.0, 0.0, 0.0, 0.0, 1.70747408099728E9, 0.0, 2024-02-09 11:21:20.997
224.0, -18563.6825637439, -7213.422025850061, 12113.34909359802, -4492.544173305532, 44310.94757449002, 14941.917650928219, 31486.164806624034, 5538.806979514001, 25130.379215524106, 4616.261078865657, 38549.6513306679, 26357.69115182056, 37910.793770646305, 31264.301391160658, 26542.003636599024, 24582.0015170576, 0.08, 1.012, 0.188, 192.0, 0.0, 0.0, 0.0, 0.0, 0.0, 0.0, 0.0, 0.0, 0.0, 1.707474081006295E9, 0.0, 2024-02-09 11:21:21.006
226.0, -18487.731336084766, -7102.244448929364, 12169.563730903117, -4515.052379972027, 44439.44775336358, 14986.352918905368, 31560.551412171295, 5586.617360903902, 24962.003524542277, 4587.650845962864, 38208.27313760199, 26327.1139654057, 37389.88636611538, 31091.500054776676, 26379.282936964388, 24357.120616092758, 0.08, 1.012, 0.188, 192.0, 0.0, 0.0, 0.0, 0.0, 0.0, 0.0, 0.0, 0.0, 0.0, 1.7074740810132625E9, 0.0, 2024-02-09 11:21:21.013
228.0, -18509.18901076186, -7132.531062666305, 12137.623088076483, -4519.142749207348, 44544.32213834788, 14983.044860725984, 31605.187845848544, 5634.025410893609, 25262.8133014218, 4668.720623102263, 38679.582021186594, 26403.51222795394, 38017.411591698125, 31323.28764477821, 26608.433021120196, 24605.135572568845, 0.08, 1.012, 0.188, 192.0, 0.0, 0.0, 0.0, 0.0, 0.0, 0.0, 0.0, 0.0, 0.0, 1.7074740810212696E9, 0.0, 2024-02-09 11:21:21.021
230.0, -18528.679731926888, -7173.814734675257, 12122.200384402322, -4502.89303098834, 44245.926349869536, 14943.281107339992, 31463.120158090613, 5524.8594909738895, 24952.66049535996, 4554.078525790993, 38252.64135034577, 26295.419191768076, 37529.49536198322, 31088.080237875016, 26393.74451562697, 24407.50144809502, 0.08, 1.012, 0.184, 192.0, 1.0, 64.0, 15.5, 80.0, 2.5, 96.0, 0.0, 0.0, 0.0, 1.707474081029277E9, 0.0, 2024-02-09 11:21:21.029
232.0, -18447.49819606521, -7044.398134279029, 12177.967986818312, -4514.381827638367, 44637.50656098206, 15033.604506683889, 31657.64739008515, 5687.468431886248, 25166.54433805279, 4660.4057741648885, 38475.868222220925, 26389.81060860284, 37690.98671567282, 31243.13428916148, 26510.733546106047, 24479.116437329823, 0.08, 1.012, 0.184, 192.0, 0.0, 0.0, 0.0, 0.0, 0.0, 0.0, 0.0, 0.0, 0.0, 1.7074740810373144E9, 0.0, 2024-02-09 11:21:21.037
234.0, -18539.609734965532, -7184.722385969447, 12106.06242490559, -4494.667589028787, 44310.232318667455, 14955.39575283477, 31475.905355919047, 5551.502770364616, 25148.819404699734, 4631.370858117444, 38554.948694103805, 26363.480253634483, 37921.500256240404, 31273.62206859852, 26542.74124416605, 24576.994726299614, 0.08, 1.012, 0.184, 192.0, 0.0, 0.0, 0.0, 0.0, 0.0, 0.0, 0.0, 0.0, 0.0, 1.70747408104532E9, 0.0, 2024-02-09 11:21:21.045
236.0, -18460.618670060478, -7069.1638671355095, 12173.162361760422, -4505.105853689415, 44445.281558666415, 15018.271209987548, 31568.24041226392, 5631.991402148175, 24979.639050917514, 4599.743139713185, 38217.12442840629, 26332.567791052796, 37396.5248342186, 31115.05879343257, 26376.46661716302, 24364.36258129628, 0.08, 1.012, 0.184, 192.0, 0.0, 0.0, 0.0, 0.0, 0.0, 0.0, 0.0, 0.0, 0.0, 1.7074740810543332E9, 0.0, 2024-02-09 11:21:21.054
238.0, -18478.924748769376, -7101.842117529169, 12152.777570817181, -4501.194298409736, 44555.00627219752, 15008.771718594042, 31606.0595638823, 5658.209998394251, 25280.158255119117, 4687.6972541448185, 38697.32930628411, 26418.443193250085, 38025.659385402134, 31362.403197575, 26607.494247853072, 24622.48052626616, 0.08, 1.012, 0.184, 192.0, 0.0, 0.0, 0.0, 0.0, 0.0, 0.0, 0.0, 0.0, 0.0, 1.7074740810623274E9, 0.0, 2024-02-09 11:21:21.062
240.0, -18506.797374105143, -7149.294871007785, 12139.59004158855, -4483.737585990141, 44248.25093129289, 14963.420029094224, 31460.460300500432, 5550.698107564224, 24983.729420152835, 4586.399148273367, 38285.587821672896, 26323.425927570574, 37552.517658772194, 31136.896447765404, 26396.426724961606, 24425.896933781736, 0.078, 1.012, 0.184, 192.0, 1.0, 56.0, 15.5, 80.0, 2.5, 96.0, 0.0, 0.0, 0.0, 1.707474081069336E9, 0.0, 2024-02-09 11:21:21.069
242.0, -18436.098806393005, -7034.719828929881, 12192.206048036343, -4506.93869673475, 44638.735906927104, 15034.275059017547, 31659.212012197022, 5681.4111091388595, 25184.917471995053, 4677.683672628841, 38494.822501519026, 26405.70269891056, 37707.3481926141, 31269.352885407556, 26511.158229250697, 24493.89094041478, 0.078, 1.012, 0.184, 192.0, 0.0, 0.0, 0.0, 0.0, 0.0, 0.0, 0.0, 0.0, 0.0, 1.7074740810774055E9, 0.0, 2024-02-09 11:21:21.077
244.0, -18529.216173793815, -7173.5241619973385, 12121.976866957768, -4483.916399945784, 44322.27990892886, 14957.608575535844, 31492.825626471717, 5559.392936157338, 25159.570593782737, 4634.5224540856425, 38577.322790303566, 26369.179948470588, 37943.62848325115, 31286.183748982403, 26542.92005812169, 24583.85671184739, 0.078, 1.012, 0.184, 192.0, 0.0, 0.0, 0.0, 0.0, 0.0, 0.0, 0.0, 0.0, 0.0, 1.7074740810854547E9, 0.0, 2024-02-09 11:21:21.085
246.0, -18459.434027604348, -7067.2863206012635, 12184.718213643815, -4491.717158760686, 44450.400108146685, 15017.06421578696, 31565.714665140473, 5625.196471833762, 24979.9966788288, 4611.2766398521235, 38229.55199832344, 26345.4200441146, 37416.21672108373, 31122.233703402726, 26380.199358487054, 24371.604546499795, 0.078, 1.012, 0.184, 192.0, 0.0, 0.0, 0.0, 0.0, 0.0, 0.0, 0.0, 0.0, 0.0, 1.707474081093608E9, 0.0, 2024-02-09 11:21:21.093
248.0, -18494.906246054918, -7109.329951921696, 12151.101189983034, -4502.803624010518, 44565.958626980624, 14998.087584744406, 31610.507561028906, 5650.54335004608, 25284.315679587806, 4682.779870364651, 38705.599451732574, 26428.881457910713, 38040.120964064714, 31362.000866174803, 26617.418422391227, 24625.38625304535, 0.078, 1.012, 0.184, 192.0, 0.0, 0.0, 0.0, 0.0, 0.0, 0.0, 0.0, 0.0, 0.0, 1.7074740811014285E9, 0.0, 2024-02-09 11:21:21.101
250.0, -18538.782720420688, -7171.80307767428, 12126.40251235992, -4492.566525049988, 44245.56872195825, 14945.113950385326, 31455.45350974244, 5527.0946654194195, 24959.254259974274, 4573.457488233744, 38277.02710354651, 26314.038194899345, 37563.067682155095, 31121.987834213716, 26400.204169774555, 24428.199163460635, 0.078, 1.012, 0.184, 192.0, 1.0, 56.0, 15.5, 80.0, 2.5, 96.0, 0.0, 0.0, 0.0, 1.7074740811094577E9, 0.0, 2024-02-09 11:21:21.109
252.0, -18478.32125166908, -7069.834419469169, 12180.583140919583, -4513.1301299488705, 44631.44923823467, 15021.86984084485, 31653.445262127552, 5666.480143842715, 25155.346114080683, 4653.96847176176, 38476.40466408785, 26384.155617255645, 37700.88853846652, 31247.962265963826, 26505.704403603602, 24482.782123420493, 0.078, 1.012, 0.184, 192.0, 0.0, 0.0, 0.0, 0.0, 0.0, 0.0, 0.0, 0.0, 0.0, 1.7074740811184497E9, 0.0, 2024-02-09 11:21:21.118
254.0, -18622.132375494526, -7252.67168911358, 12106.665922005883, -4495.181679151258, 44319.12831296067, 14943.661086995733, 31487.438856057986, 5553.67088957678, 25131.20623006895, 4610.717846240741, 38557.65325518289, 26350.471538361497, 37943.47202103997, 31273.778530809705, 26538.986151097557, 24578.805217600493, 0.078, 1.012, 0.184, 192.0, 0.0, 0.0, 0.0, 0.0, 0.0, 0.0, 0.0, 0.0, 0.0, 1.7074740811244576E9, 0.0, 2024-02-09 11:21:21.124
0.0, -18605.77089855324, -7203.251982122896, 12159.617204620507, -4511.878432259373, 44435.75971552846, 14994.690119587198, 31553.331798712232, 5607.315076269517, 24910.84038148408, 4555.620796158409, 38188.53654724795, 26296.380316779654, 37393.73086616169, 31102.854740959974, 26369.582279870785, 24361.836834172827, 0.078, 1.012, 0.184, 192.0, 0.0, 0.0, 0.0, 0.0, 0.0, 0.0, 0.0, 0.0, 0.0, 1.7074740811334498E9, 0.0, 2024-02-09 11:21:21.133
2.0, -18682.951472157416, -7297.285771046373, 12124.524965825674, -4527.412894655811, 44564.48341184657, 14989.213942195647, 31605.657232482106, 5646.631794766402, 25199.960196013475, 4616.462244565755, 38645.67442484789, 26361.44624488905, 38015.444638186054, 31340.878467664537, 26597.055983192444, 24603.928578368257, 0.078, 1.012, 0.184, 192.0, 0.0, 0.0, 0.0, 0.0, 0.0, 0.0, 0.0, 0.0, 0.0, 1.7074740811414635E9, 0.0, 2024-02-09 11:21:21.141
4.0, -18742.85414729764, -7389.978455302532, 12109.370483084975, -4511.230231670169, 44252.31894878375, 14946.85738645284, 31441.03663456877, 5531.408552099294, 24874.183520577375, 4482.21766736718, 38217.86203597332, 26241.43972890851, 37540.00068187722, 31102.184188626314, 26389.765905113927, 24411.703576052616, 0.076, 1.012, 0.184, 192.0, 1.0, 48.0, 15.5, 80.0, 2.5, 96.0, 0.0, 0.0, 0.0, 1.7074740811494265E9, 0.0, 2024-02-09 11:21:21.149
6.0, -18668.847521406118, -7286.199305796541, 12170.88248382598, -4523.188414953758, 44656.639654235805, 15040.377085253846, 31657.155651707133, 5708.479071674236, 25068.844863038645, 4553.296214735057, 38416.50198894763, 26317.25684610091, 37677.41920678845, 31222.146001117948, 26489.119409217765, 24467.13590230178, 0.076, 1.012, 0.184, 192.0, 0.0, 0.0, 0.0, 0.0, 0.0, 0.0, 0.0, 0.0, 0.0, 1.7074740811574645E9, 0.0, 2024-02-09 11:21:21.157
8.0, -18770.36914472212, -7433.18437733464, 12091.511439265185, -4515.0076764831165, 44344.005804539425, 14946.030371907995, 31486.209510112945, 5573.273369464085, 25070.58829910616, 4513.644220071343, 38517.95655703027, 26287.26080504189, 37938.755802959895, 31255.695969545362, 26539.321427264385, 24584.549615925505, 0.076, 1.012, 0.184, 192.0, 0.0, 0.0, 0.0, 0.0, 0.0, 0.0, 0.0, 0.0, 0.0, 1.7074740811655955E9, 0.0, 2024-02-09 11:21:21.165
10.0, -18701.92810319997, -7334.367315097727, 12147.748428314737, -4532.196167969247, 44463.051195508386, 14992.901980030774, 31557.913906325568, 5615.696980440257, 24877.558633990127, 4472.427603295756, 38151.79027936343, 26244.43486266552, 37393.50734871714, 31071.91992663383, 26363.3237914233, 24351.733845679028, 0.076, 1.012, 0.184, 192.0, 0.0, 0.0, 0.0, 0.0, 0.0, 0.0, 0.0, 0.0, 0.0, 1.7074740811724672E9, 0.0, 2024-02-09 11:21:21.172
12.0, -18716.054405695726, -7348.7394867824905, 12122.178032657866, -4535.638336615364, 44589.517365636515, 14987.87283752833, 31604.226720836967, 5641.513245286137, 25184.805713272777, 4555.352575224945, 38623.322680392586, 26327.67275901708, 38005.743981092455, 31307.708478892862, 26590.730439511593, 24597.647738176318, 0.076, 1.012, 0.184, 192.0, 0.0, 0.0, 0.0, 0.0, 0.0, 0.0, 0.0, 0.0, 0.0, 1.7074740811804798E9, 0.0, 2024-02-09 11:21:21.180
14.0, -18743.03296125328, -7401.422548463649, 12106.73297723925, -4527.368191166901, 44273.441347294014, 14938.698999726654, 31448.70328291694, 5527.049961930509, 24881.87252067, 4451.573425718954, 38214.66573651621, 26229.52624911383, 37543.66636796789, 31095.702182734276, 26386.547253912362, 24404.77453527147, 0.076, 1.01, 0.184, 192.0, 1.0, 48.0, 15.5, 72.0, 2.5, 96.0, 0.0, 0.0, 0.0, 1.707474081189472E9, 0.0, 2024-02-09 11:21:21.189
16.0, -18649.423855474455, -7259.533674661359, 12160.488922654262, -4546.680098376286, 44668.06139565246, 15023.725035634643, 31659.346122663752, 5696.632647112924, 25069.895395028045, 4535.280708704079, 38407.06955278749, 26303.577578494263, 37668.277343306225, 31211.618329479497, 26484.693763815616, 24457.41289346372, 0.076, 1.01, 0.184, 192.0, 0.0, 0.0, 0.0, 0.0, 0.0, 0.0, 0.0, 0.0, 0.0, 1.7074740811974983E9, 0.0, 2024-02-09 11:21:21.197
18.0, -18726.626780823088, -7377.014443518454, 12084.470639761763, -4525.6918103327525, 44354.15349652213, 14940.375380560803, 31482.007382155345, 5557.515389623093, 25079.57370037719, 4520.327391663479, 38524.460914666764, 26285.226796296454, 37932.13968660113, 31253.460795099832, 26537.130956307767, 24570.11038900738, 0.076, 1.01, 0.184, 192.0, 0.0, 0.0, 0.0, 0.0, 0.0, 0.0, 0.0, 0.0, 0.0, 1.7074740812045023E9, 0.0, 2024-02-09 11:21:21.204
20.0, -18641.041951303716, -7259.377212450173, 12143.63570733496, -4532.1514644803365, 44473.02007353545, 14990.219770696136, 31564.53002268434, 5610.06434083752, 24887.50516027274, 4486.464498813689, 38155.56772417638, 26246.200650477487, 37380.54333693306, 31072.97045862323, 26361.44624488905, 24347.06233108787, 0.076, 1.01, 0.184, 192.0, 0.0, 0.0, 0.0, 0.0, 0.0, 0.0, 0.0, 0.0, 0.0, 1.7074740812135353E9, 0.0, 2024-02-09 11:21:21.213
22.0, -18646.853404862097, -7270.48602944446, 12119.361712856498, -4527.949336522739, 44602.90606056524, 14996.768831821542, 31601.857435924703, 5658.969957705732, 25204.78817281582, 4584.968636628227, 38634.94558750935, 26347.319942393297, 37994.74692282044, 31333.81531641666, 26599.112343682333, 24603.235674290143, 0.076, 1.01, 0.184, 192.0, 0.0, 0.0, 0.0, 0.0, 0.0, 0.0, 0.0, 0.0, 0.0, 1.7074740812215745E9, 0.0, 2024-02-09 11:21:21.221
24.0, -18650.58614618613, -7295.251762300941, 12117.439462833341, -4502.93773447725, 44292.79795799231, 14949.941927187674, 31456.101710331644, 5531.565014310481, 24901.966738935324, 4503.317714132991, 38233.26238790302, 26257.1977087495, 37541.274731311176, 31112.600101542488, 26394.41506796063, 24421.001901746025, 0.076, 1.012, 0.182, 192.0, 1.0, 48.0, 15.5, 80.0, 2.5, 88.0, 0.0, 0.0, 0.0, 1.7074740812295735E9, 0.0, 2024-02-09 11:21:21.229
26.0, -18553.691333972376, -7152.021783831333, 12185.969911333314, -4518.1816241957695, 44685.004017949585, 15031.346980493901, 31671.393712925164, 5703.606391382979, 25105.077040800697, 4595.675122222319, 38436.95383512424, 26346.090596448255, 37677.01687538825, 31232.293693100655, 26507.850171071314, 24472.343858759865, 0.076, 1.012, 0.182, 192.0, 0.0, 0.0, 0.0, 0.0, 0.0, 0.0, 0.0, 0.0, 0.0, 1.7074740812365892E9, 0.0, 2024-02-09 11:21:21.236
28.0, -18641.958372826382, -7286.065195329809, 12110.644532518929, -4501.194298409736, 44365.28466526087, 14949.405485320745, 31494.211434627945, 5580.113003267408, 25112.520171704313, 4564.449735218255, 38561.18483080684, 26326.35400609422, 37950.579875776755, 31269.464644129832, 26562.88016592028, 24588.170598527267, 0.076, 1.012, 0.182, 192.0, 0.0, 0.0, 0.0, 0.0, 0.0, 0.0, 0.0, 0.0, 0.0, 1.7074740812456193E9, 0.0, 2024-02-09 11:21:21.245
30.0, -18551.94789790486, -7172.875961408135, 12166.121562257, -4514.203013682725, 44469.73436710052, 14999.473392900634, 31564.462967450974, 5645.961242432742, 24918.104698432053, 4525.468292888199, 38189.72118970408, 26279.19182529352, 37400.36933426492, 31082.15702559436, 26375.818416573813, 24356.472415503555, 0.076, 1.012, 0.182, 192.0, 0.0, 0.0, 0.0, 0.0, 0.0, 0.0, 0.0, 0.0, 0.0, 1.7074740812536333E9, 0.0, 2024-02-09 11:21:21.253
32.0, -18557.781703207696, -7182.308397568274, 12144.172149201888, -4513.1301299488705, 44604.04599953246, 15006.245971470593, 31615.53670353135, 5693.7939755671, 25245.04366457983, 4623.771265002641, 38679.09028280858, 26378.098294508254, 38027.22400751401, 31337.458650762877, 26612.702204311157, 24617.473735508174, 0.076, 1.012, 0.182, 192.0, 0.0, 0.0, 0.0, 0.0, 0.0, 0.0, 0.0, 0.0, 0.0, 1.7074740812606065E9, 0.0, 2024-02-09 11:21:21.260
34.0, -18573.04794467067, -7218.629982308148, 12127.743617027238, -4498.579144308465, 44277.509364784884, 14954.993421434572, 31451.69841667395, 5555.883712277855, 24945.351474923074, 4523.769560309596, 38268.75695809805, 26280.86820612767, 37568.521507802194, 31112.6448050314, 26400.964129086035, 24428.601494860828, 0.075, 1.012, 0.184, 192.0, 1.0, 40.0, 15.5, 80.0, 2.5, 104.0, 0.0, 0.0, 0.0, 1.7074740812686603E9, 0.0, 2024-02-09 11:21:21.268
36.0, -18472.97918474426, -7076.4952393168505, 12188.965045090325, -4514.0689032159935, 44665.73681422911, 15049.004858613594, 31656.283933673378, 5721.308972991583, 25140.571610995725, 4619.166805644847, 38457.09275687847, 26368.755265325937, 37683.83415744712, 31233.433632067878, 26498.931825033647, 24480.2787280415, 0.075, 1.012, 0.184, 192.0, 0.0, 0.0, 0.0, 0.0, 0.0, 0.0, 0.0, 0.0, 0.0, 1.7074740812776864E9, 0.0, 2024-02-09 11:21:21.277
38.0, -18558.51931077472, -7209.398711848106, 12109.526945296162, -4501.864850743395, 44355.516952933904, 14963.688250027688, 31491.03748691529, 5598.44143372076, 25145.421939542528, 4594.110500110448, 38572.91949664587, 26345.241230158954, 37950.66928275458, 31280.014667512736, 26546.742206423547, 24592.52918869605, 0.075, 1.012, 0.184, 192.0, 0.0, 0.0, 0.0, 0.0, 0.0, 0.0, 0.0, 0.0, 0.0, 1.7074740812846825E9, 0.0, 2024-02-09 11:21:21.284
40.0, -18478.723583069277, -7098.198783182953, 12164.199312233844, -4514.627696827376, 44460.9948350185, 15000.725090590131, 31562.76423487237, 5630.806759692045, 24952.056998259664, 4559.353537482445, 38203.780436966474, 26307.243264584933, 37395.921337118314, 31108.599139284986, 26366.18481471358, 24365.16724409667, 0.075, 1.012, 0.184, 192.0, 0.0, 0.0, 0.0, 0.0, 0.0, 0.0, 0.0, 0.0, 0.0, 1.707474081292708E9, 0.0, 2024-02-09 11:21:21.292
42.0, -18473.090943466537, -7099.852812272646, 12146.742599814248, -4503.742397277641, 44605.40945594424, 15012.437404684712, 31615.44729655353, 5695.98444652372, 25281.588766764256, 4655.644852595908, 38684.78997764468, 26405.769754143927, 38010.12492300569, 31350.48971778032, 26597.88299773729, 24612.176372072267, 0.075, 1.012, 0.184, 192.0, 0.0, 0.0, 0.0, 0.0, 0.0, 0.0, 0.0, 0.0, 0.0, 1.7074740813016837E9, 0.0, 2024-02-09 11:21:21.301
44.0, -18492.201684975826, -7142.522292437827, 12133.35390488552, -4480.518934788577, 44285.46658581097, 14964.649375039266, 31474.787768696282, 5568.847724061933, 24991.37371675655, 4568.2495317756575, 38294.77438864403, 26321.369567080685, 37572.05308342613, 31136.382357642935, 26402.95343434256, 24436.201087975634, 0.0775, 1.013, 0.183, 192.0, 1.0, 64.0, 15.5, 88.0, 2.5, 88.0, 0.0, 0.0, 0.0, 1.7074740813099484E9, 0.0, 2024-02-09 11:21:21.309
46.0, -18404.627550199933, -7013.440968208429, 12195.111774815534, -4500.255525142614, 44675.39276783381, 15036.5996404409, 31677.920422306113, 5692.050539499586, 25185.789190028812, 4659.042317753115, 38482.61844904643, 26414.442230992587, 37680.526099267736, 31252.209097410334, 26504.47505765856, 24479.161140818735, 0.0775, 1.013, 0.183, 192.0, 0.0, 0.0, 0.0, 0.0, 0.0, 0.0, 0.0, 0.0, 0.0, 1.7074740813166833E9, 0.0, 2024-02-09 11:21:21.316
48.0, -18489.18419947436, -7144.623356416626, 12128.816500761093, -4476.786193464541, 44372.34781650875, 14956.71450575763, 31509.187103413, 5575.463840420704, 25197.769725056856, 4637.830512265028, 38612.10210467602, 26390.83878884778, 37969.176527163574, 31291.034077529202, 26551.30196229243, 24584.169636269766, 0.0775, 1.013, 0.183, 192.0, 0.0, 0.0, 0.0, 0.0, 0.0, 0.0, 0.0, 0.0, 0.0, 1.707474081324932E9, 0.0, 2024-02-09 11:21:21.324
50.0, -18423.090091120015, -7050.746029704336, 12182.326576987098, -4491.046606427027, 44467.54389614391, 15008.548201149488, 31564.261801750876, 5635.455922538748, 24994.70412668039, 4600.346636813479, 38244.5276671085, 26353.69018956306, 37423.23516884269, 31112.19777014229, 26379.50645440894, 24372.72213372256, 0.0775, 1.013, 0.183, 192.0, 0.0, 0.0, 0.0, 0.0, 0.0, 0.0, 0.0, 0.0, 0.0, 1.7074740813337288E9, 0.0, 2024-02-09 11:21:21.333
52.0, -18451.901489722906, -7089.012216211822, 12152.039963250156, -4501.0378361985495, 44604.001296043556, 15005.6424743703, 31619.82823846677, 5678.371271892938, 25304.633415297678, 4679.740033118729, 38716.79767570468, 26437.688045226103, 38035.784725640384, 31365.44303482092, 26612.61279733334, 24621.340587298942, 0.0775, 1.013, 0.183, 192.0, 0.0, 0.0, 0.0, 0.0, 0.0, 0.0, 0.0, 0.0, 0.0, 1.707474081340773E9, 0.0, 2024-02-09 11:21:21.340
54.0, -18486.613748862, -7146.970289584433, 12132.146910684933, -4487.872658714373, 44267.920466413554, 14951.10421789935, 31454.313570775223, 5537.734095780146, 24991.396068501006, 4571.803459144051, 38303.87154863734, 26333.372453853186, 37594.09190345906, 31141.83618329003, 26406.59676868877, 24435.329369941875, 0.07975, 1.0125, 0.1855, 192.0, 1.0, 72.0, 15.5, 80.0, 2.5, 112.0, 0.0, 0.0, 0.0, 1.707474081348778E9, 0.0, 2024-02-09 11:21:21.348
56.0, -18407.46622174576, -7023.879232869057, 12190.149687546455, -4510.023237469582, 44664.8427444509, 15034.610335184378, 31675.238212971475, 5699.471318658748, 25183.59871907219, 4654.4155066508665, 38480.53973681208, 26411.51415246894, 37686.35990457057, 31252.119690432515, 26503.357470435796, 24472.79089364897, 0.07975, 1.0125, 0.1855, 192.0, 0.0, 0.0, 0.0, 0.0, 0.0, 0.0, 0.0, 0.0, 0.0, 1.7074740813568268E9, 0.0, 2024-02-09 11:21:21.356
58.0, -18516.5203829432, -7177.726289954936, 12110.331608096554, -4500.702560031719, 44362.40129022614, 14949.271374854014, 31513.322176137233, 5573.407479930816, 25191.26536742036, 4622.027828935126, 38603.20611038281, 26388.11187602423, 37975.50207084442, 31290.251766473266, 26562.16491009771, 24593.311499751988, 0.07975, 1.0125, 0.1855, 192.0, 0.0, 0.0, 0.0, 0.0, 0.0, 0.0, 0.0, 0.0, 0.0, 1.7074740813658085E9, 0.0, 2024-02-09 11:21:21.365
60.0, -18478.611824347, -7111.0733879892105, 12161.517102899206, -4519.612135840909, 44448.70137556808, 14985.034165982506, 31561.557240671784, 5603.559983201026, 24967.70321937838, 4567.534275953088, 38211.93882369266, 26331.62901778567, 37400.34698252046, 31095.54572052309, 26375.37138168471, 24358.126444593247, 0.07975, 1.0125, 0.1855, 192.0, 0.0, 0.0, 0.0, 0.0, 0.0, 0.0, 0.0, 0.0, 0.0, 1.7074740813728085E9, 0.0, 2024-02-09 11:21:21.372
62.0, -18527.875069126498, -7160.113115324154, 12134.44914036383, -4523.456635887223, 44595.82055757291, 14987.917541017241, 31622.331633845766, 5656.2877483710945, 25269.898804414133, 4645.832436780029, 38673.234125761286, 26409.591902445783, 38011.108399761724, 31337.704519951883, 26612.0316519775, 24602.475714978664, 0.07975, 1.0125, 0.1855, 192.0, 0.0, 0.0, 0.0, 0.0, 0.0, 0.0, 0.0, 0.0, 0.0, 1.707474081380994E9, 0.0, 2024-02-09 11:21:21.380
64.0, -18629.173174997948, -7280.6560731716245, 12097.077023634556, -4524.306002176524, 44251.76015517237, 14919.275333794993, 31457.08518708768, 5511.649610000803, 24946.446710401382, 4536.867682560406, 38259.011597515535, 26294.21219756749, 37565.325208345086, 31115.416421343856, 26405.99327158848, 24420.59957034583, 0.078875, 1.0122499999999999, 0.18675, 192.0, 1.0, 56.0, 15.5, 80.0, 2.5, 112.0, 0.0, 0.0, 0.0, 1.70747408138986E9, 0.0, 2024-02-09 11:21:21.389
66.0, -18612.49877363429, -7219.278182897352, 12148.88836728196, -4548.803514099541, 44637.23834004859, 15004.167259236248, 31655.188698195067, 5674.683234057812, 25090.615462138114, 4591.450642520266, 38399.84993932843, 26344.056587702824, 37649.56893319714, 31215.306367314624, 26485.610185338282, 24445.655875880228, 0.078875, 1.0122499999999999, 0.18675, 192.0, 0.0, 0.0, 0.0, 0.0, 0.0, 0.0, 0.0, 0.0, 0.0, 1.707474081396829E9, 0.0, 2024-02-09 11:21:21.396
68.0, -18743.748217075852, -7394.6499698936905, 12074.457058245785, -4527.547005122543, 44343.983452794964, 14935.882679925286, 31487.394152569075, 5560.376412913372, 25088.402639437038, 4546.098953020448, 38515.721382584736, 26304.91868316158, 37944.500201284915, 31263.072045215613, 26541.73541566556, 24571.362086696874, 0.078875, 1.0122499999999999, 0.18675, 192.0, 0.0, 0.0, 0.0, 0.0, 0.0, 0.0, 0.0, 0.0, 0.0, 1.7074740814048593E9, 0.0, 2024-02-09 11:21:21.404
70.0, -18700.877571210574, -7329.137006895186, 12134.203271174822, -4542.254452974135, 44437.99488997399, 14975.713488544643, 31571.57082218776, 5596.63094241988, 24866.69568618485, 4491.784213994052, 38125.61638660626, 26254.448444181497, 37371.28971472856, 31078.379580781413, 26356.484157619972, 24337.2946187609, 0.078875, 1.0122499999999999, 0.18675, 192.0, 0.0, 0.0, 0.0, 0.0, 0.0, 0.0, 0.0, 0.0, 0.0, 1.7074740814128563E9, 0.0, 2024-02-09 11:21:21.412
72.0, -18717.12728942958, -7352.628690317713, 12117.953552955814, -4542.075639018493, 44592.870127304814, 14984.788296793497, 31641.241209654956, 5662.233312396206, 25180.402419615082, 4566.684909663786, 38602.84848247153, 26338.423948100084, 37992.95878326402, 31322.706499422373, 26593.70322152415, 24595.546674197518, 0.078875, 1.0122499999999999, 0.18675, 192.0, 0.0, 0.0, 0.0, 0.0, 0.0, 0.0, 0.0, 0.0, 0.0, 1.7074740814218676E9, 0.0, 2024-02-09 11:21:21.421
74.0, -18752.621859624607, -7416.107644570786, 12081.989596127225, -4536.510054649121, 44248.72031792645, 14921.041121606962, 31460.929687133994, 5523.652496773302, 24880.240843324762, 4454.635614709332, 38209.457780058125, 26235.538868372307, 37556.33980707405, 31093.422304799835, 26390.816437103327, 24420.666625579193, 0.07743749999999999, 1.012125, 0.187375, 192.0, 1.0, 48.0, 15.5, 80.0, 2.5, 112.0, 0.0, 0.0, 0.0, 1.7074740814288955E9, 0.0, 2024-02-09 11:21:21.428
76.0, -18657.73870441183, -7280.6560731716245, 12149.134236470967, -4558.347708981956, 44638.19946506017, 15005.865991814851, 31669.225593713, 5682.6404550839015, 25056.23847916585, 4545.964842553716, 38372.5584593485, 26312.49592453193, 37635.62144465702, 31197.872006639485, 26470.075722941845, 24448.673361381694, 0.07743749999999999, 1.012125, 0.187375, 192.0, 0.0, 0.0, 0.0, 0.0, 0.0, 0.0, 0.0, 0.0, 0.0, 1.7074740814368837E9, 0.0, 2024-02-09 11:21:21.436
78.0, -18726.827946523186, -7394.515859426959, 12070.76902041066, -4539.28167096158, 44337.25557771392, 14918.09069133886, 31489.294050847777, 5548.753505796612, 25096.650433141047, 4526.205900455225, 38521.33167044302, 26298.995470880924, 37952.32331184427, 31250.108033431537, 26528.816107370392, 24567.562290139474, 0.07743749999999999, 1.012125, 0.187375, 192.0, 0.0, 0.0, 0.0, 0.0, 0.0, 0.0, 0.0, 0.0, 0.0, 1.7074740814460423E9, 0.0, 2024-02-09 11:21:21.446
80.0, -18633.665875633465, -7276.342186491751, 12126.804843760116, -4547.149485009848, 44418.92885195361, 14960.62606103731, 31534.75749906987, 5586.952637070732, 24894.814180709625, 4492.253600627613, 38137.17223848966, 26255.186051748522, 37371.46852868421, 31058.508879960646, 26336.3675876102, 24325.314083732854, 0.07743749999999999, 1.012125, 0.187375, 192.0, 0.0, 0.0, 0.0, 0.0, 0.0, 0.0, 0.0, 0.0, 0.0, 1.70747408145292E9, 0.0, 2024-02-09 11:21:21.452
82.0, -18624.25579121778, -7263.892264830144, 12111.940933697335, -4540.511016906621, 44578.56501085342, 14969.164427419237, 31604.62905223716, 5657.0477076825755, 25228.83864984973, 4591.785918687096, 38629.38000313997, 26361.64741058915, 37984.2639546709, 31315.598644685586, 26576.82765446039, 24583.63319440284, 0.07743749999999999, 1.012125, 0.187375, 192.0, 0.0, 0.0, 0.0, 0.0, 0.0, 0.0, 0.0, 0.0, 0.0, 1.707474081461022E9, 0.0, 2024-02-09 11:21:21.461
84.0, -18639.365570469567, -7304.147756594152, 12096.451174789809, -4514.985324738661, 44240.04784107779, 14926.874926909797, 31438.533239189775, 5530.782703254546, 24932.298056161173, 4511.207879925714, 38248.41687064372, 26276.53196770334, 37552.9646936613, 31102.5418165376, 26381.227538731997, 24416.397442388232, 0.07771875, 1.0130625, 0.1886875, 192.0, 1.0, 56.0, 15.5, 88.0, 2.5, 120.0, 0.0, 0.0, 0.0, 1.7074740814690144E9, 0.0, 2024-02-09 11:21:21.469
86.0, -18536.368732019513, -7152.89350186509, 12163.26053896672, -4531.3244499354905, 44646.51431399755, 15009.308160460969, 31668.64444835716, 5690.3294551765275, 25114.129497305097, 4605.800462460574, 38413.26098600161, 26360.55217511084, 37625.89843581896, 31209.114934100504, 26468.265231640966, 24453.255468995034, 0.07771875, 1.0130625, 0.1886875, 192.0, 0.0, 0.0, 0.0, 0.0, 0.0, 0.0, 0.0, 0.0, 0.0, 1.7074740814770486E9, 0.0, 2024-02-09 11:21:21.477
88.0, -18607.40257589848, -7269.211980010507, 12098.418128301875, -4504.36824612239, 44361.14959253664, 14932.082883367882, 31512.115181936646, 5577.073166021486, 25149.668770989036, 4592.7246919542185, 38568.33738903253, 26350.44918661704, 37942.77911696185, 31270.828100541607, 26544.507031978017, 24586.360107226385, 0.07771875, 1.0130625, 0.1886875, 192.0, 0.0, 0.0, 0.0, 0.0, 0.0, 0.0, 0.0, 0.0, 0.0, 1.7074740814850197E9, 0.0, 2024-02-09 11:21:21.485
90.0, -18519.582571933577, -7146.836179117701, 12168.759068102727, -4500.590801309443, 44449.32722441283, 14986.665843327743, 31575.571784445263, 5622.424855521304, 24944.79268131169, 4562.773354384107, 38195.55499500692, 26320.520200791383, 37372.94374381826, 31088.996659397682, 26365.06722749081, 24362.552089995395, 0.07771875, 1.0130625, 0.1886875, 192.0, 0.0, 0.0, 0.0, 0.0, 0.0, 0.0, 0.0, 0.0, 0.0, 1.7074740814930096E9, 0.0, 2024-02-09 11:21:21.493
92.0, -18512.09473754105, -7142.254071504363, 12153.962213273313, -4496.36632160739, 44618.84285436188, 15002.267360957547, 31645.35393063473, 5674.973806735731, 25275.039705638854, 4670.419355680866, 38685.684047422896, 26424.74638518648, 37996.6691728436, 31349.685054979927, 26607.494247853072, 24616.311444796498, 0.07771875, 1.0130625, 0.1886875, 192.0, 0.0, 0.0, 0.0, 0.0, 0.0, 0.0, 0.0, 0.0, 0.0, 1.707474081502025E9, 0.0, 2024-02-09 11:21:21.502
94.0, -18545.600002479554, -7198.066377409265, 12121.976866957768, -4485.101042401915, 44268.3004460693, 14943.281107339992, 31454.0229980973, 5530.894461976822, 24981.047210818197, 4579.268941792124, 38304.22917654862, 26335.69703527654, 37577.97629570679, 31144.92072402486, 26410.75419315746, 24446.572297402898, 0.07885937500000001, 1.01053125, 0.18734375, 192.0, 1.0, 64.0, 15.5, 64.0, 2.5, 104.0, 0.0, 0.0, 0.0, 1.7074740815080793E9, 0.0, 2024-02-09 11:21:21.508
96.0, -18444.950097197307, -7052.645927983038, 12194.061242826134, -4501.12724317637, 44669.20133461968, 15037.69487591921, 31682.100198519256, 5708.456719929782, 25152.306276834763, 4657.030660752137, 38453.04709113206, 26406.194437288577, 37638.25895050275, 31238.641588525963, 26491.041659240924, 24468.722876158106, 0.07885937500000001, 1.01053125, 0.18734375, 192.0, 0.0, 0.0, 0.0, 0.0, 0.0, 0.0, 0.0, 0.0, 0.0, 1.7074740815170293E9, 0.0, 2024-02-09 11:21:21.517
98.0, -18531.898383128453, -7183.6271504911365, 12114.556087798606, -4491.22542038267, 44371.0737670748, 14948.779636475998, 31512.070478447735, 5587.131451026375, 25194.729887810932, 4643.4408001233105, 38601.149749892924, 26391.375230714708, 37958.42533808057, 31295.72794386482, 26563.908346165223, 24599.212360288187, 0.07885937500000001, 1.01053125, 0.18734375, 192.0, 0.0, 0.0, 0.0, 0.0, 0.0, 0.0, 0.0, 0.0, 0.0, 1.7074740815252411E9, 0.0, 2024-02-09 11:21:21.525
100.0, -18458.78582701514, -7088.2969603892525, 12170.435448936874, -4499.741435020142, 44449.79661104639, 14976.67461355622, 31573.49307221092, 5593.613456918413, 24974.721667137346, 4597.57502050102, 38206.50734979002, 26341.396730112643, 37384.365485234914, 31094.226967600225, 26361.40154140014, 24352.270287545954, 0.07885937500000001, 1.01053125, 0.18734375, 192.0, 0.0, 0.0, 0.0, 0.0, 0.0, 0.0, 0.0, 0.0, 0.0, 1.7074740815330825E9, 0.0, 2024-02-09 11:21:21.533
102.0, -18462.049181705617, -7096.745919793359, 12154.364544673508, -4501.618981554387, 44624.22962477561, 15000.255703956569, 31641.352968377232, 5685.434423140815, 25308.410860110627, 4692.145251291425, 38698.15632082896, 26441.62195225024, 38001.29598394585, 31354.133052126534, 26609.215332176133, 24601.179313800254, 0.07885937500000001, 1.01053125, 0.18734375, 192.0, 0.0, 0.0, 0.0, 0.0, 0.0, 0.0, 0.0, 0.0, 0.0, 1.7074740815410569E9, 0.0, 2024-02-09 11:21:21.541
104.0, -18514.218153264304, -7180.140278356109, 12119.987561701246, -4500.36728386489, 44272.23435309343, 14940.777711960998, 31463.61189646863, 5558.700032079224, 25012.965501900377, 4574.128040567403, 38307.537234728006, 26326.085785160758, 37586.91699348891, 31135.77886054264, 26410.485972223996, 24442.236058978568, 0.07542968750000001, 1.0102656250000002, 0.186671875, 192.0, 1.0, 32.0, 15.5, 72.0, 2.5, 104.0, 0.0, 0.0, 0.0, 1.7074740815490777E9, 0.0, 2024-02-09 11:21:21.549
106.0, -18430.3991115569, -7049.024945381278, 12185.567579933117, -4517.488720117655, 44667.61436076336, 15031.16816653826, 31683.50835841994, 5718.246784001206, 25166.54433805279, 4654.348451417501, 38437.624387457894, 26393.8786260937, 37644.226866272315, 31224.783506963675, 26488.940595262124, 24465.012486578526, 0.07542968750000001, 1.0102656250000002, 0.186671875, 192.0, 0.0, 0.0, 0.0, 0.0, 0.0, 0.0, 0.0, 0.0, 0.0, 1.7074740815570714E9, 0.0, 2024-02-09 11:21:21.557
108.0, -18520.364882989514, -7183.269522579852, 12106.040073161135, -4500.903725731817, 44378.315732278315, 14950.456017310145, 31502.90626322106, 5583.622227146891, 25200.161361713574, 4636.243538408701, 38597.998153924724, 26384.066210277822, 37965.60024805072, 31289.827083328615, 26558.633334473772, 24599.34647075492, 0.07542968750000001, 1.0102656250000002, 0.186671875, 192.0, 0.0, 0.0, 0.0, 0.0, 0.0, 0.0, 0.0, 0.0, 0.0, 1.7074740815640965E9, 0.0, 2024-02-09 11:21:21.564
110.0, -18454.293126379627, -7091.426204612995, 12157.762009830716, -4510.537327592055, 44445.996814488986, 14997.01470101055, 31555.72343536895, 5622.715428199223, 24976.17453052694, 4590.735386697696, 38201.32174507639, 26331.22668638548, 37387.27121201411, 31098.049115902082, 26355.65714307513, 24355.041903858415, 0.07542968750000001, 1.0102656250000002, 0.186671875, 192.0, 0.0, 0.0, 0.0, 0.0, 0.0, 0.0, 0.0, 0.0, 0.0, 1.7074740815732458E9, 0.0, 2024-02-09 11:21:21.573
112.0, -18459.79165551563, -7091.806184268736, 12150.900024282935, -4500.501394331622, 44623.93905209769, 15018.15945126527, 31639.20720090952, 5702.488804160214, 25302.800572252345, 4691.854678613506, 38689.595602702575, 26433.307103312865, 37996.8703385437, 31356.055302149693, 26598.665308793225, 24615.126802340368, 0.07542968750000001, 1.0102656250000002, 0.186671875, 192.0, 0.0, 0.0, 0.0, 0.0, 0.0, 0.0, 0.0, 0.0, 0.0, 1.7074740815810668E9, 0.0, 2024-02-09 11:21:21.581
114.0, -18511.37948171848, -7166.170438071542, 12125.217869903789, -4487.872658714373, 44270.78148970383, 14954.166406889726, 31449.28442827278, 5558.700032079224, 24999.04036510472, 4594.535183255099, 38304.29623178199, 26333.998302697935, 37581.23965039726, 31139.891581522417, 26391.59874815926, 24444.627695635285, 0.07471484375000001, 1.0111328125, 0.1893359375, 192.0, 1.0, 40.0, 15.5, 80.0, 3.0, 0.0, 0.0, 0.0, 0.0, 1.7074740815893552E9, 0.0, 2024-02-09 11:21:21.589
116.0, -18428.275695833647, -7035.502139985817, 12203.918362130924, -4503.675342044276, 44681.47244232565, 15036.331419507434, 31700.69684990607, 5720.5043101911915, 25167.751332253378, 4666.753669590195, 38452.06361437603, 26414.106954825755, 37651.35707275356, 31231.66784425591, 26489.633499340238, 24478.22236755161, 0.07471484375000001, 1.0111328125, 0.1893359375, 192.0, 0.0, 0.0, 0.0, 0.0, 0.0, 0.0, 0.0, 0.0, 0.0, 1.7074740815971117E9, 0.0, 2024-02-09 11:21:21.597
118.0, -18525.505784214234, -7176.899275410089, 12123.005047202712, -4487.380920336356, 44394.76661619743, 14953.495854556068, 31523.179295442023, 5584.96333181421, 25208.56561762877, 4649.58752984852, 38617.15359892292, 26394.95150982756, 37982.453463370024, 31292.44223742989, 26562.00844788652, 24606.700194680714, 0.07471484375000001, 1.0111328125, 0.1893359375, 192.0, 0.0, 0.0, 0.0, 0.0, 0.0, 0.0, 0.0, 0.0, 0.0, 1.707474081605308E9, 0.0, 2024-02-09 11:21:21.605
120.0, -18481.115219725994, -7101.037454728777, 12170.971890803801, -4506.22344091218, 44455.83158204932, 14991.113840474349, 31556.885726080625, 5606.577468702491, 24982.321260252153, 4594.199907088269, 38217.12442840629, 26340.860288245713, 37398.156511563844, 31096.77506646813, 26359.99338149946, 24356.53947073692, 0.07471484375000001, 1.0111328125, 0.1893359375, 192.0, 0.0, 0.0, 0.0, 0.0, 0.0, 0.0, 0.0, 0.0, 0.0, 1.7074740816135087E9, 0.0, 2024-02-09 11:21:21.613
122.0, -18515.89453409845, -7131.435827187995, 12151.794094061148, -4511.27493515908, 44629.66109867825, 15001.887381301807, 31626.131430403166, 5674.996158480187, 25288.540159289856, 4671.805163837095, 38687.13691081249, 26422.80178341887, 38001.3183356903, 31338.375072285544, 26593.189131401676, 24600.82168588897, 0.07471484375000001, 1.0111328125, 0.1893359375, 192.0, 0.0, 0.0, 0.0, 0.0, 0.0, 0.0, 0.0, 0.0, 0.0, 1.7074740816201494E9, 0.0, 2024-02-09 11:21:21.620
124.0, -18593.410383869457, -7232.800988292813, 12119.24995413422, -4498.6909030307415, 44280.68331249754, 14944.488101540579, 31471.546765750263, 5550.407534886305, 24979.594347428603, 4555.620796158409, 38299.37884800182, 26313.993491410434, 37597.332906405085, 31127.039328460614, 26407.401431489165, 24439.889125810758, 0.076357421875, 1.01156640625, 0.18966796875, 192.0, 1.0, 56.0, 15.5, 80.0, 2.5, 120.0, 0.0, 0.0, 0.0, 1.707474081629173E9, 0.0, 2024-02-09 11:21:21.629
126.0, -18542.783682678186, -7133.291021977785, 12178.951463574347, -4518.628659084876, 44668.06139565246, 15033.40334098379, 31678.635678128685, 5717.129196778441, 25125.037148599287, 4625.179424903325, 38420.52530294959, 26374.522015395407, 37631.709889377344, 31205.98568987676, 26480.558691091384, 24457.88228009728, 0.076357421875, 1.01156640625, 0.18966796875, 192.0, 0.0, 0.0, 0.0, 0.0, 0.0, 0.0, 0.0, 0.0, 0.0, 1.7074740816372013E9, 0.0, 2024-02-09 11:21:21.637
128.0, -18689.79110596074, -7319.21283235703, 12076.155790824389, -4526.787045811063, 44378.2263253005, 14937.514357270522, 31499.531149808307, 5571.775802585578, 25144.706683719956, 4596.680950722808, 38565.18579306433, 26344.257753402922, 37958.09006191374, 31292.799865341174, 26547.502165735026, 24586.382458970842, 0.076357421875, 1.01156640625, 0.18966796875, 192.0, 0.0, 0.0, 0.0, 0.0, 0.0, 0.0, 0.0, 0.0, 0.0, 1.7074740816451936E9, 0.0, 2024-02-09 11:21:21.645
130.0, -18674.23429181985, -7278.242084770452, 12115.919544210381, -4548.781162355085, 44428.56245381385, 14971.019622209029, 31529.013100744858, 5569.853552562422, 24881.961927647822, 4513.867737515895, 38129.86321805277, 26257.644743638604, 37353.67654009778, 31069.66240044384, 26327.67275901708, 24325.53760117741, 0.076357421875, 1.01156640625, 0.18966796875, 192.0, 0.0, 0.0, 0.0, 0.0, 0.0, 0.0, 0.0, 0.0, 0.0, 1.7074740816522515E9, 0.0, 2024-02-09 11:21:21.652
132.0, -18702.196324133438, -7305.488861261471, 12110.979808685757, -4542.723839607696, 44623.20144453066, 14998.802840566976, 31634.31216887381, 5652.465600069238, 25193.679355821536, 4603.542936270587, 38603.96606969429, 26346.60468657073, 37963.096852671726, 31333.904723394484, 26568.333991567375, 24577.978203055645, 0.076357421875, 1.01156640625, 0.18966796875, 192.0, 0.0, 0.0, 0.0, 0.0, 0.0, 0.0, 0.0, 0.0, 0.0, 1.7074740816612897E9, 0.0, 2024-02-09 11:21:21.661
134.0, -18770.637365655588, -7403.970647331554, 12077.318081536065, -4535.32541219299, 44261.796088432806, 14926.606705976334, 31447.920971861004, 5522.579613039447, 24894.50125628725, 4473.612245751888, 38219.53841680747, 26235.80708930577, 37565.21344962281, 31116.466953333256, 26384.133265511187, 24421.87361977978, 0.076357421875, 1.01156640625, 0.18966796875, 192.0, 0.0, 0.0, 0.0, 0.0, 0.0, 0.0, 0.0, 0.0, 0.0, 1.7074740816692927E9, 0.0, 2024-02-09 11:21:21.669
136.0, -18689.6122920051, -7276.945683592044, 12140.037076477656, -4556.403107214344, 44651.63286347781, 15012.772680851542, 31659.1226052192, 5672.850391012477, 25036.501888811814, 4558.817095615518, 38333.04057515151, 26300.649499970616, 37590.2250516683, 31196.553253716622, 26449.2438971095, 24426.388672159752, 0.084, 1.008, 0.194, 192.0, 1.0, 80.0, 15.5, 64.0, 3.0, 8.0, 0.0, 0.0, 0.0, 1.7074740816762478E9, 0.0, 2024-02-09 11:21:21.676
138.0, -18783.5343222063, -7410.027970078942, 12068.891473876414, -4534.766618581608, 44383.769557925414, 14935.77092120301, 31510.438801102497, 5575.15091599833, 25088.357935948126, 4545.651918131342, 38513.486208139206, 26292.289947544334, 37936.74414595892, 31272.258612186746, 26537.130956307767, 24574.357220453887, 0.084, 1.008, 0.194, 192.0, 0.0, 0.0, 0.0, 0.0, 0.0, 0.0, 0.0, 0.0, 0.0, 1.707474081684301E9, 0.0, 2024-02-09 11:21:21.684
140.0, -18721.66469355401, -7325.113692893231, 12129.241183905744, -4536.4206476713, 44435.5361980839, 14978.44040136819, 31544.882839308124, 5609.863175137422, 24858.000857591735, 4498.847365241929, 38110.327793398836, 26244.90424929908, 37347.82038305049, 31069.975324866216, 26335.182945154065, 24334.38889198171, 0.084, 1.008, 0.194, 192.0, 0.0, 0.0, 0.0, 0.0, 0.0, 0.0, 0.0, 0.0, 0.0, 1.707474081693262E9, 0.0, 2024-02-09 11:21:21.693
142.0, -18726.380911634078, -7327.706495250046, 12116.545393055128, -4541.181569240281, 44619.289889250984, 14993.751346320076, 31624.38799433565, 5677.253684670172, 25180.715344037457, 4599.139642612892, 38594.086598645044, 26341.709654535014, 37956.167811890584, 31325.701633179386, 26575.68771549317, 24587.924729338258, 0.084, 1.008, 0.194, 192.0, 0.0, 0.0, 0.0, 0.0, 0.0, 0.0, 0.0, 0.0, 0.0, 1.7074740817005832E9, 0.0, 2024-02-09 11:21:21.700
144.0, -18774.414810468534, -7406.27287701045, 12087.175200840855, -4528.061095245015, 44263.53952450032, 14932.887546168275, 31443.249457269845, 5538.3599446248945, 24886.521683516705, 4484.408138323801, 38221.01363194152, 26232.543734615298, 37558.8655541975, 31108.73324975172, 26380.914614309626, 24424.377015158774, 0.084, 1.008, 0.194, 192.0, 0.0, 0.0, 0.0, 0.0, 0.0, 0.0, 0.0, 0.0, 0.0, 1.707474081708321E9, 0.0, 2024-02-09 11:21:21.708
146.0, -18666.947623127417, -7255.86798857069, 12160.444219165352, -4538.119380249904, 44660.10417462637, 15029.938820593217, 31665.89518378916, 5702.667618115856, 25046.806043005712, 4568.696566664764, 38341.645996766805, 26310.01488089739, 37589.57685107909, 31200.84478865204, 26457.894022213703, 24435.84346006435, 0.078, 1.012, 0.186, 192.0, 1.0, 56.0, 15.5, 80.0, 2.5, 104.0, 0.0, 0.0, 0.0, 1.707474081717268E9, 0.0, 2024-02-09 11:21:21.717
148.0, -18743.435292653478, -7367.537303869403, 12087.689290963328, -4525.445941143745, 44381.55673522434, 14945.516281785523, 31499.911129464046, 5577.699014866235, 25102.238369254872, 4574.910351623339, 38527.83602807952, 26314.865209444193, 37934.79954419131, 31285.42378967092, 26537.041549329944, 24578.805217600493, 0.078, 1.012, 0.186, 192.0, 0.0, 0.0, 0.0, 0.0, 0.0, 0.0, 0.0, 0.0, 0.0, 1.7074740817243557E9, 0.0, 2024-02-09 11:21:21.724
150.0, -18655.145902055014, -7259.712488617002, 12140.97584974478, -4532.129112735881, 44435.49149459499, 14979.5356368465, 31540.77011832835, 5597.256791264629, 24885.64996548295, 4523.948374265239, 38129.72910758604, 26266.652496654096, 37339.639644579845, 31077.53021449211, 26336.814622499303, 24335.86410711576, 0.078, 1.012, 0.186, 192.0, 0.0, 0.0, 0.0, 0.0, 0.0, 0.0, 0.0, 0.0, 0.0, 1.7074740817322984E9, 0.0, 2024-02-09 11:21:21.732
152.0, -18631.4977564213, -7233.00215399291, 12136.393742131442, -4526.094141732949, 44629.05760157795, 14999.87572430083, 31618.487133799452, 5669.40822236636, 25217.059280521786, 4626.319363870545, 38619.321718135085, 26363.1226257232, 37948.2552943534, 31340.565543242163, 26578.168759127708, 24587.410639215785, 0.078, 1.012, 0.186, 192.0, 0.0, 0.0, 0.0, 0.0, 0.0, 0.0, 0.0, 0.0, 0.0, 1.7074740817403848E9, 0.0, 2024-02-09 11:21:21.740
154.0, -18648.328619996148, -7275.761041135913, 12115.025474432168, -4496.768653007585, 44272.81549844927, 14939.838938693874, 31428.02791929578, 5536.52710157956, 24954.0910070051, 4535.951261037739, 38270.25452497656, 26279.974136349458, 37577.77513000669, 31140.204505944792, 26394.236254004987, 24436.826936820384, 0.078, 1.012, 0.186, 192.0, 0.0, 0.0, 0.0, 0.0, 0.0, 0.0, 0.0, 0.0, 0.0, 1.7074740817493715E9, 0.0, 2024-02-09 11:21:21.749
156.0, -18536.033455852685, -7125.378504440607, 12188.607417179039, -4514.918269505295, 44668.79900321949, 15027.748349636597, 31658.11677671871, 5703.159356493874, 25121.483221230894, 4629.1803871608245, 38393.233822969654, 26355.970067497503, 37605.625403598, 31229.835001210573, 26468.734618274524, 24449.36626545981, 0.07200000000000001, 1.012, 0.19, 192.0, 1.0, 32.0, 15.5, 80.0, 2.5, 120.0, 0.0, 0.0, 0.0, 1.7074740817563624E9, 0.0, 2024-02-09 11:21:21.756
158.0, -18603.200447940882, -7238.299517428818, 12103.894305693426, -4509.732664791663, 44394.744264452966, 14939.190738104671, 31491.261004359843, 5568.95948278421, 25180.827102759733, 4620.038523678604, 38587.045799141626, 26352.97493374049, 37967.67896028506, 31294.364487453044, 26555.191165827655, 24592.77505788506, 0.07200000000000001, 1.012, 0.19, 192.0, 0.0, 0.0, 0.0, 0.0, 0.0, 0.0, 0.0, 0.0, 0.0, 1.7074740817645297E9, 0.0, 2024-02-09 11:21:21.764
160.0, -18522.555353946133, -7131.569937654726, 12162.92526279989, -4510.17969968077, 44447.248512178485, 14989.01277649555, 31534.735147325417, 5619.139149086374, 24958.583707640613, 4564.986177085183, 38178.612372709795, 26300.560092992797, 37375.93887757527, 31084.928641906816, 26344.749491780938, 24338.076929816834, 0.07200000000000001, 1.012, 0.19, 192.0, 0.0, 0.0, 0.0, 0.0, 0.0, 0.0, 0.0, 0.0, 0.0, 1.7074740817733755E9, 0.0, 2024-02-09 11:21:21.773
162.0, -18510.843039851552, -7118.158890981543, 12162.008841277224, -4508.302153146524, 44650.64938672178, 15003.362596435858, 31636.72615727498, 5677.588960837003, 25291.91527270261, 4676.007291794693, 38674.39641647296, 26407.244969277977, 37981.22411742498, 31349.57329625765, 26597.637128548282, 24602.699232423216, 0.07200000000000001, 1.012, 0.19, 192.0, 0.0, 0.0, 0.0, 0.0, 0.0, 0.0, 0.0, 0.0, 0.0, 1.70747408178044E9, 0.0, 2024-02-09 11:21:21.780
164.0, -18544.929450145897, -7186.108194125676, 12137.287811909655, -4481.50241154461, 44293.08853067023, 14960.938985459685, 31459.968562122413, 5562.790401314545, 25022.509696782792, 4578.441927247278, 38320.27772906754, 26314.574636766272, 37609.8275315556, 31149.63694210493, 26413.548161214374, 24449.03098929298, 0.07200000000000001, 1.012, 0.19, 192.0, 0.0, 0.0, 0.0, 0.0, 0.0, 0.0, 0.0, 0.0, 0.0, 1.7074740817884483E9, 0.0, 2024-02-09 11:21:21.788
166.0, -18454.02490544616, -7050.902491915524, 12198.151612061456, -4505.217612411691, 44681.98653244812, 15048.379009768845, 31674.99234378247, 5721.532490436136, 25164.107997907162, 4649.364012403967, 38427.45434373073, 26383.686230622083, 37624.19970324036, 31229.879704699484, 26483.039734725924, 24460.095102798357, 0.07200000000000001, 1.016, 0.188, 192.0, 1.0, 32.0, 15.5, 96.0, 2.5, 112.0, 0.0, 0.0, 0.0, 1.7074740817964458E9, 0.0, 2024-02-09 11:21:21.796
168.0, -18536.27932504169, -7175.714632953958, 12121.552183813117, -4489.929019204262, 44423.622718289225, 14973.500665843567, 31527.403775144077, 5621.597840976458, 25222.378995702147, 4638.657526809875, 38616.77361926718, 26374.276146206397, 37975.055035955316, 31305.76387712525, 26570.43505554617, 24613.472773250673, 0.07200000000000001, 1.016, 0.188, 192.0, 0.0, 0.0, 0.0, 0.0, 0.0, 0.0, 0.0, 0.0, 0.0, 1.707474081805432E9, 0.0, 2024-02-09 11:21:21.805
170.0, -18479.640004591944, -7092.5214400913055, 12165.451009923341, -4503.965914722195, 44470.807250834376, 15009.77754709453, 31573.314258255275, 5656.645376282379, 24988.691507421914, 4580.699453437263, 38201.79113170995, 26316.54159027834, 37379.626915410394, 31097.289156590603, 26373.11385549472, 24371.828063944347, 0.07200000000000001, 1.016, 0.188, 192.0, 0.0, 0.0, 0.0, 0.0, 0.0, 0.0, 0.0, 0.0, 0.0, 1.7074740818125052E9, 0.0, 2024-02-09 11:21:21.812
172.0, -18469.805237031607, -7082.68667253097, 12156.97969877478, -4498.735606519653, 44680.041930680505, 15034.275059017547, 31672.913631548123, 5726.204005027295, 25314.177610180093, 4686.69142564433, 38682.241878776775, 26415.29159728189, 37985.247431426935, 31358.044607406213, 26610.042346720977, 24607.86248539239, 0.07200000000000001, 1.016, 0.188, 192.0, 0.0, 0.0, 0.0, 0.0, 0.0, 0.0, 0.0, 0.0, 0.0, 1.7074740818204913E9, 0.0, 2024-02-09 11:21:21.820
174.0, -18517.973246332796, -7163.152952570075, 12114.891363965437, -4490.957199449205, 44302.72213253047, 14961.140151159783, 31475.346562307666, 5567.171343227786, 25032.925609698967, 4588.544915741077, 38326.96090065967, 26321.10134614722, 37611.54861587866, 31162.913878311385, 26422.913542141145, 24454.261297495523, 0.07200000000000001, 1.016, 0.188, 192.0, 0.0, 0.0, 0.0, 0.0, 0.0, 0.0, 0.0, 0.0, 0.0, 1.7074740818285391E9, 0.0, 2024-02-09 11:21:21.828
176.0, -18427.94041966682, -7024.885061369546, 12177.476248440296, -4514.962972994205, 44694.659971554276, 15048.6025272134, 31681.474349674507, 5725.734618393733, 25167.572518297737, 4654.4155066508665, 38427.07436407499, 26383.50741666644, 37612.26387170123, 31224.939969174862, 26472.57911832084, 24449.053341037434, 0.068, 1.008, 0.188, 192.0, 1.0, 16.0, 15.5, 64.0, 2.5, 112.0, 0.0, 0.0, 0.0, 1.7074740818366754E9, 0.0, 2024-02-09 11:21:21.836
178.0, -18514.75459513123, -7150.770086141835, 12099.803936458104, -4496.835708240951, 44425.008526445454, 14973.210093165648, 31517.837228517204, 5616.501643240648, 25233.890144096633, 4658.975262519749, 38629.89409326245, 26379.662916620127, 37985.0686174713, 31313.743449895795, 26559.437997274163, 24602.92274986777, 0.068, 1.008, 0.188, 192.0, 0.0, 0.0, 0.0, 0.0, 0.0, 0.0, 0.0, 0.0, 0.0, 1.7074740818446324E9, 0.0, 2024-02-09 11:21:21.844
180.0, -18449.107521665996, -7062.279529843275, 12158.477265653286, -4495.248734384624, 44455.58571286032, 15009.643436627799, 31544.324045696743, 5636.618213250425, 24993.005394101787, 4605.15226187137, 38212.76583823751, 26331.718424763494, 37381.035075311076, 31107.570959040044, 26346.0682447038, 24354.639572458218, 0.068, 1.008, 0.188, 192.0, 0.0, 0.0, 0.0, 0.0, 0.0, 0.0, 0.0, 0.0, 0.0, 1.7074740818525488E9, 0.0, 2024-02-09 11:21:21.852
182.0, -18456.774170014163, -7065.58758802266, 12149.983602760269, -4501.708388532208, 44644.189732574196, 15020.662846644265, 31617.861284954703, 5687.870763286443, 25323.855915529242, 4712.418283512388, 38695.07178009412, 26430.42372827813, 37978.20663192352, 31365.06305516518, 26580.135712639778, 24595.926653853257, 0.068, 1.008, 0.188, 192.0, 0.0, 0.0, 0.0, 0.0, 0.0, 0.0, 0.0, 0.0, 0.0, 1.707474081861555E9, 0.0, 2024-02-09 11:21:21.861
184.0, -18524.052920824637, -7162.392993258595, 12120.814576246094, -4492.208897138703, 44277.442309551516, 14960.53665405949, 31452.525431218797, 5571.552285141026, 25033.082071910154, 4596.323322811523, 38335.61102576387, 26321.034290913856, 37611.68272634539, 31160.991628288226, 26400.159466285644, 24446.058207280425, 0.068, 1.008, 0.188, 192.0, 0.0, 0.0, 0.0, 0.0, 0.0, 0.0, 0.0, 0.0, 0.0, 1.7074740818676531E9, 0.0, 2024-02-09 11:21:21.867
186.0, -18456.014210702684, -7046.521550002283, 12189.546190446163, -4514.873566016384, 44663.30047408348, 15043.752198666598, 31657.915611018612, 5720.549013680103, 25157.022494914832, 4652.4262013943435, 38424.41450648481, 26376.84659681876, 37599.5233773617, 31229.633835510474, 26458.028132680432, 24441.856079322824, 0.066, 1.014, 0.184, 192.0, 1.0, 8.0, 15.5, 88.0, 2.5, 96.0, 0.0, 0.0, 0.0, 1.707474081876574E9, 0.0, 2024-02-09 11:21:21.876
188.0, -18569.40461032446, -7193.126641884643, 12114.667846520882, -4496.455728585212, 44394.476043519506, 14965.230520395104, 31483.460245544942, 5601.72714015569, 25216.791059588322, 4634.857730252473, 38626.29546240514, 26370.610460115728, 37972.35047487623, 31317.610301686564, 26554.855889660823, 24598.81002888799, 0.066, 1.014, 0.184, 192.0, 0.0, 0.0, 0.0, 0.0, 0.0, 0.0, 0.0, 0.0, 0.0, 1.7074740818846364E9, 0.0, 2024-02-09 11:21:21.884
190.0, -18555.278307828703, -7141.449408703972, 12154.766876073703, -4508.2574496576135, 44428.04836369138, 14992.186724208204, 31534.891609536604, 5620.122625842408, 24951.900536048477, 4580.095956336971, 38191.71049496061, 26303.73404070545, 37367.37815944888, 31092.841159443997, 26334.579448053773, 24337.696950161095, 0.066, 1.014, 0.184, 192.0, 0.0, 0.0, 0.0, 0.0, 0.0, 0.0, 0.0, 0.0, 0.0, 1.707474081892593E9, 0.0, 2024-02-09 11:21:21.892
192.0, -18617.997302770294, -7194.512450040871, 12126.894250737936, -4525.021257999094, 44638.71355518264, 15008.950532549685, 31641.844706755248, 5703.025246027141, 25250.6092489492, 4659.154076475391, 38648.066061504614, 26382.54629165486, 37960.21347763699, 31347.025197389747, 26582.482645807584, 24584.72842988115, 0.066, 1.014, 0.184, 192.0, 0.0, 0.0, 0.0, 0.0, 0.0, 0.0, 0.0, 0.0, 0.0, 1.707474081900618E9, 0.0, 2024-02-09 11:21:21.900
194.0, -18723.296370899247, -7326.7900737273785, 12075.596997213006, -4520.9979439971385, 44261.41610877706, 14938.028447392995, 31427.960864062414, 5545.311337150495, 24936.053149229665, 4524.931851021272, 38263.59370512888, 26249.53106040133, 37581.887850986466, 31142.998474001706, 26388.581262657794, 24428.22151520509, 0.066, 1.014, 0.184, 192.0, 0.0, 0.0, 0.0, 0.0, 0.0, 0.0, 0.0, 0.0, 0.0, 1.7074740819085765E9, 0.0, 2024-02-09 11:21:21.908
196.0, -18673.921367397474, -7234.119741215675, 12137.243108420744, -4550.681060633786, 44656.68435772471, 15018.897058832295, 31650.226610925987, 5690.12828947643, 25048.81770000669, 4573.502191722655, 38335.11928738586, 26295.01686036788, 37557.39033906345, 31202.878797397472, 26441.33137957232, 24417.17975344417, 0.068, 1.014, 0.182, 192.0, 1.0, 16.0, 15.5, 88.0, 2.5, 88.0, 0.0, 0.0, 0.0, 1.7074740819176686E9, 0.0, 2024-02-09 11:21:21.917
198.0, -18796.565389223742, -7406.049359565897, 12062.297709262099, -4536.8453308159515, 44401.963877912036, 14957.273299369015, 31497.675955018516, 5605.616343690914, 25101.83603785468, 4552.5139036791215, 38529.4453536803, 26279.795322393817, 37936.34181455873, 31284.887347803993, 26534.1134708063, 24570.04333377401, 0.068, 1.014, 0.182, 192.0, 0.0, 0.0, 0.0, 0.0, 0.0, 0.0, 0.0, 0.0, 0.0, 1.7074740819236484E9, 0.0, 2024-02-09 11:21:21.923
200.0, -18754.544109647766, -7350.16999842763, 12118.735864011749, -4542.902653563339, 44424.3379741118, 14996.075927743428, 31516.71964129444, 5638.920442929321, 24848.59077317605, 4483.156440634303, 38101.96824097255, 26213.298882639276, 37340.623121335884, 31073.81982491253, 26328.25390437292, 24330.745557635495, 0.068, 1.014, 0.182, 192.0, 0.0, 0.0, 0.0, 0.0, 0.0, 0.0, 0.0, 0.0, 0.0, 1.7074740819326675E9, 0.0, 2024-02-09 11:21:21.932
202.0, -18753.51592940282, -7349.365335627239, 12122.1109774245, -4546.098953020448, 44645.307319796964, 15013.622047140843, 31625.617340280696, 5715.318705477561, 25173.585137556212, 4576.854953390951, 38584.721217718274, 26310.77484020887, 37934.41956453557, 31328.42854600293, 26570.122131123797, 24574.178406498242, 0.068, 1.014, 0.182, 192.0, 0.0, 0.0, 0.0, 0.0, 0.0, 0.0, 0.0, 0.0, 0.0, 1.7074740819406867E9, 0.0, 2024-02-09 11:21:21.940
204.0, -18797.34770027968, -7426.836481909333, 12093.38898579943, -4532.933775536272, 44281.33151308674, 14946.835034708385, 31441.729538646883, 5571.976968285677, 24896.06587839912, 4474.796888208019, 38250.09325147787, 26211.778964016317, 37582.11136843102, 31132.78372678563, 26399.51126569644, 24435.172907730688, 0.068, 1.014, 0.182, 192.0, 0.0, 0.0, 0.0, 0.0, 0.0, 0.0, 0.0, 0.0, 0.0, 1.7074740819486856E9, 0.0, 2024-02-09 11:21:21.948
206.0, -18688.092373382136, -7274.710509146513, 12155.616242363007, -4553.810304857529, 44663.32282582794, 15030.765835138063, 31641.285913143864, 5703.651094871891, 25032.38916783204, 4543.550854152543, 38337.01918566456, 26269.35705773319, 37559.40199606443, 31184.259794266203, 26445.868783696747, 24416.442145877143, 0.07, 1.012, 0.184, 192.0, 1.0, 24.0, 15.5, 80.0, 2.5, 96.0, 0.0, 0.0, 0.0, 1.7074740819567332E9, 0.0, 2024-02-09 11:21:21.956
208.0, -18739.166109462512, -7373.035833005409, 12089.499782264207, -4523.411932398311, 44417.051305419365, 14971.511360587045, 31498.525321307818, 5621.374323531905, 25116.54348570627, 4553.050345546048, 38566.45984249828, 26283.572767206762, 37952.457422311, 31282.316897191635, 26548.999732613534, 24586.516569437572, 0.07, 1.012, 0.184, 192.0, 0.0, 0.0, 0.0, 0.0, 0.0, 0.0, 0.0, 0.0, 0.0, 1.70747408196472E9, 0.0, 2024-02-09 11:21:21.964
210.0, -18655.68234392194, -7263.556988663315, 12149.380105659975, -4527.3905429113565, 44444.47689586603, 15000.747442334587, 31529.728356567426, 5634.204224849252, 24887.192235850365, 4505.396426367334, 38158.96518933358, 26238.53400212932, 37344.42291789328, 31068.880089387905, 26342.0672824463, 24338.322799005844, 0.07, 1.012, 0.184, 192.0, 0.0, 0.0, 0.0, 0.0, 0.0, 0.0, 0.0, 0.0, 0.0, 1.7074740819717672E9, 0.0, 2024-02-09 11:21:21.971
212.0, -18623.652294117488, -7229.180005691052, 12147.524910870185, -4538.521711650099, 44661.02059614904, 15008.615256382855, 31637.575523564283, 5705.998028039698, 25234.583048174747, 4612.5059857971655, 38649.183648727376, 26350.270372661398, 37931.69265171202, 31316.000976085783, 26587.55649179894, 24577.28529897753, 0.07, 1.012, 0.184, 192.0, 0.0, 0.0, 0.0, 0.0, 0.0, 0.0, 0.0, 0.0, 0.0, 1.7074740819800308E9, 0.0, 2024-02-09 11:21:21.980
214.0, -18644.908803094484, -7284.053538328832, 12109.63870401844, -4516.4158363838005, 44290.518080057875, 14944.733970729587, 31445.529335204286, 5551.905101764811, 24976.46510320486, 4521.221461441692, 38314.89095865381, 26262.71858962996, 37588.99570572325, 31125.54176158211, 26405.121553554724, 24425.36049191481, 0.07, 1.012, 0.184, 192.0, 0.0, 0.0, 0.0, 0.0, 0.0, 0.0, 0.0, 0.0, 0.0, 1.707474081988707E9, 0.0, 2024-02-09 11:21:21.988
216.0, -18541.28611579968, -7134.118036522632, 12166.523893657195, -4538.767580839108, 44673.51522129956, 15031.190518282714, 31660.486061630974, 5709.909583319376, 25105.747593134358, 4601.128947869414, 38401.05693352901, 26333.59597129774, 37558.35146407503, 31188.953660601815, 26458.341057102807, 24418.476154622575, 0.07200000000000001, 1.012, 0.188, 192.0, 1.0, 32.0, 15.5, 80.0, 2.5, 112.0, 0.0, 0.0, 0.0, 1.7074740819967291E9, 0.0, 2024-02-09 11:21:21.996
218.0, -18603.602779341076, -7240.132360474153, 12100.809764958592, -4516.169967194792, 44429.12124742523, 14961.386020348791, 31502.794504498783, 5600.386035488372, 25191.6453470761, 4594.199907088269, 38626.69779380534, 26327.203372383523, 37949.0599571538, 31283.278022203212, 26550.1173198363, 24576.570043154963, 0.07200000000000001, 1.012, 0.188, 192.0, 0.0, 0.0, 0.0, 0.0, 0.0, 0.0, 0.0, 0.0, 0.0, 1.7074740820038176E9, 0.0, 2024-02-09 11:21:22.003
220.0, -18534.71470292982, -7153.429943732017, 12159.080762753578, -4519.366266651901, 44452.076488980834, 14992.432593397212, 31542.2453334624, 5617.507471741137, 24958.22607972933, 4543.32733670799, 38208.00491666853, 26273.894461857613, 37354.458851153715, 31085.73330470721, 26350.650352317138, 24333.4948222035, 0.07200000000000001, 1.012, 0.188, 192.0, 0.0, 0.0, 0.0, 0.0, 0.0, 0.0, 0.0, 0.0, 0.0, 1.7074740820117948E9, 0.0, 2024-02-09 11:21:22.011
222.0, -18501.879990324975, -7116.326047936207, 12167.88735006897, -4512.884260759862, 44679.12550915784, 15027.480128703133, 31643.54343933385, 5705.998028039698, 25290.462409313015, 4662.059803254581, 38691.36139051454, 26387.217806246023, 37940.92392217206, 31337.145726340503, 26595.960747714133, 24578.49229317812, 0.07200000000000001, 1.012, 0.188, 192.0, 0.0, 0.0, 0.0, 0.0, 0.0, 0.0, 0.0, 0.0, 0.0, 1.7074740820208106E9, 0.0, 2024-02-09 11:21:22.020
224.0, -18550.584441493087, -7195.875906452645, 12123.653247791917, -4503.250658899625, 44298.0059144504, 14956.334526101891, 31446.110480560124, 5545.154874939308, 25029.14816488602, 4575.983235357194, 38367.372854634865, 26302.77291569387, 37605.44658964236, 31160.07520676556, 26424.925199142122, 24445.387654946764, 0.07200000000000001, 1.012, 0.188, 192.0, 0.0, 0.0, 0.0, 0.0, 0.0, 0.0, 0.0, 0.0, 0.0, 1.7074740820278065E9, 0.0, 2024-02-09 11:21:22.027
226.0, -18450.538033311135, -7054.165846605998, 12191.60255093605, -4522.026124242083, 44671.995302676594, 15040.645306187309, 31646.091538201756, 5708.724940863245, 25148.372369810626, 4632.913128484861, 38434.361032767425, 26355.50068086394, 37572.857746226524, 31208.690250955853, 26467.10294092929, 24423.72881456957, 0.07, 1.008, 0.19, 192.0, 1.0, 24.0, 15.5, 64.0, 2.5, 120.0, 0.0, 0.0, 0.0, 1.7074740820358064E9, 0.0, 2024-02-09 11:21:22.035
228.0, -18525.66224642542, -7170.640786962604, 12123.07210243608, -4496.098100673927, 44434.30685213886, 14979.580340335411, 31512.673975548027, 5621.150806087352, 25236.41589122008, 4626.498177826188, 38664.27107623471, 26362.40736990063, 37976.932582489564, 31316.827990630627, 26582.706163252136, 24596.39604048682, 0.07, 1.008, 0.19, 192.0, 0.0, 0.0, 0.0, 0.0, 0.0, 0.0, 0.0, 0.0, 0.0, 1.7074740820447805E9, 0.0, 2024-02-09 11:21:22.044
230.0, -18467.055972463604, -7090.733300534881, 12170.770725103705, -4499.383807108857, 44452.143544214196, 15010.559858150466, 31528.722528066937, 5627.744570701668, 24986.61279518757, 4585.862706406439, 38239.23030367259, 26312.183000109555, 37364.181859991775, 31102.385354326412, 26374.276146206397, 24345.900040376193, 0.07, 1.008, 0.19, 192.0, 0.0, 0.0, 0.0, 0.0, 0.0, 0.0, 0.0, 0.0, 0.0, 1.7074740820529916E9, 0.0, 2024-02-09 11:21:22.052
232.0, -18460.126931682462, -7081.457326585928, 12165.763934345716, -4506.759882779108, 44677.06914866795, 15041.137044565327, 31627.606645537217, 5720.169034024362, 25308.164990921618, 4683.517477931676, 38713.981355903314, 26405.434477977095, 37944.47784954045, 31346.399348544997, 26605.951977485656, 24585.019002559067, 0.07, 1.008, 0.19, 192.0, 0.0, 0.0, 0.0, 0.0, 0.0, 0.0, 0.0, 0.0, 0.0, 1.707474082059944E9, 0.0, 2024-02-09 11:21:22.059
234.0, -18515.849830609543, -7170.059641606766, 12124.010875703201, -4497.036873941049, 44295.99425744942, 14973.478314099111, 31440.500192701842, 5581.163535256807, 25042.760377259303, 4595.071625122026, 38383.041427498036, 26311.534799520352, 37610.40867691144, 31162.064512022083, 26432.010702134456, 24455.31182948492, 0.07, 1.008, 0.19, 192.0, 0.0, 0.0, 0.0, 0.0, 0.0, 0.0, 0.0, 0.0, 0.0, 1.7074740820678809E9, 0.0, 2024-02-09 11:21:22.067
236.0, -18422.508945764177, -7030.987087605845, 12188.629768923494, -4523.188414953758, 44662.987549661106, 15055.017477872072, 31629.64065428265, 5724.080589304041, 25144.438462786493, 4645.452457124288, 38435.59037871246, 26359.881622777182, 37556.920952429886, 31208.04205036665, 26455.32357160134, 24423.035910491457, 0.07200000000000001, 1.01, 0.188, 192.0, 1.0, 40.0, 15.5, 80.0, 2.5, 104.0, 0.0, 0.0, 0.0, 1.7074740820768788E9, 0.0, 2024-02-09 11:21:22.076
238.0, -18503.645778136943, -7152.960557098456, 12125.597849559528, -4498.914420475295, 44441.168837686644, 14989.549218362477, 31537.68557759352, 5648.822265723022, 25249.491661726435, 4652.180332205336, 38678.129157797, 26377.584204385785, 37970.51763183089, 31315.28572026321, 26579.30869809493, 24603.548598712518, 0.07200000000000001, 1.01, 0.188, 192.0, 0.0, 0.0, 0.0, 0.0, 0.0, 0.0, 0.0, 0.0, 0.0, 1.7074740820838695E9, 0.0, 2024-02-09 11:21:22.083
240.0, -18455.187196157836, -7085.793565010258, 12163.908739555925, -4512.504281104121, 44444.56630284385, 15003.139078991304, 31546.08983350871, 5640.842692952478, 24990.79257140071, 4579.984197614694, 38238.13506819428, 26310.283101830853, 37353.29656044204, 31097.691487990796, 26366.721256580506, 24344.20130779759, 0.07200000000000001, 1.01, 0.188, 192.0, 0.0, 0.0, 0.0, 0.0, 0.0, 0.0, 0.0, 0.0, 0.0, 1.7074740820919359E9, 0.0, 2024-02-09 11:21:22.091
242.0, -18444.905393708395, -7068.582721779671, 12163.64051862246, -4508.279801402068, 44677.22561087914, 15036.510233463077, 31651.657122571127, 5721.644249158412, 25318.469145115512, 4693.888687358938, 38712.37203030253, 26418.17497231662, 37930.59741623371, 31351.20497360289, 26604.677928051704, 24582.58266241344, 0.07200000000000001, 1.01, 0.188, 192.0, 0.0, 0.0, 0.0, 0.0, 0.0, 0.0, 0.0, 0.0, 0.0, 1.7074740821009011E9, 0.0, 2024-02-09 11:21:22.100
244.0, -18506.439746193857, -7161.878903136123, 12127.810672260604, -4492.70063551672, 44305.44904535402, 14970.572587319923, 31459.387416766574, 5570.837029318456, 25048.594182562138, 4593.685816965797, 38392.607974124905, 26327.516296805898, 37617.96356653733, 31163.472671922766, 26442.38191156172, 24454.93184982918, 0.07200000000000001, 1.01, 0.188, 192.0, 0.0, 0.0, 0.0, 0.0, 0.0, 0.0, 0.0, 0.0, 0.0, 1.7074740821089604E9, 0.0, 2024-02-09 11:21:22.108
246.0, -18416.87630616144, -7032.194081806431, 12201.41496675193, -4511.856080514918, 44685.02636969404, 15058.54905349601, 31669.560869879828, 5724.527624193147, 25152.954477423966, 4652.649718838897, 38454.29878882156, 26388.55891091334, 37570.6672752699, 31212.22182657979, 26484.783170793435, 24438.30215195443, 0.07200000000000001, 1.0110000000000001, 0.189, 192.0, 1.0, 32.0, 15.5, 80.0, 2.5, 120.0, 0.0, 0.0, 0.0, 1.7074740821160018E9, 0.0, 2024-02-09 11:21:22.116
248.0, -18502.841115336552, -7155.531007710816, 12129.2635356502, -4488.230286625658, 44446.555608100374, 14985.212979938147, 31521.078231463223, 5617.909803141332, 25245.08836806874, 4660.562236376076, 38689.863823636035, 26395.219730761022, 37988.93546926206, 31327.2439035468, 26591.289233122974, 24606.163752813787, 0.07200000000000001, 1.0110000000000001, 0.189, 192.0, 0.0, 0.0, 0.0, 0.0, 0.0, 0.0, 0.0, 0.0, 0.0, 1.7074740821253512E9, 0.0, 2024-02-09 11:21:22.125
250.0, -18457.779998514652, -7088.565181322716, 12163.081725011078, -4492.812394238996, 44444.722765055034, 15012.54916340699, 31544.43580441902, 5625.576451489503, 24982.61183293007, 4595.183383844303, 38247.45574563214, 26331.249038129932, 37378.03994155407, 31109.336746852012, 26372.286840949877, 24351.711493934574, 0.07200000000000001, 1.0110000000000001, 0.189, 192.0, 0.0, 0.0, 0.0, 0.0, 0.0, 0.0, 0.0, 0.0, 0.0, 1.7074740821329832E9, 0.0, 2024-02-09 11:21:22.132
252.0, -18450.22510888876, -7074.371823593596, 12164.109905256022, -4498.825013497474, 44686.7474540171, 15035.616163684865, 31663.145919221155, 5717.0397898006195, 25309.81902001131, 4700.102472317514, 38719.90456818397, 26435.18464984711, 37954.491431056435, 31356.16706087197, 26609.796477531967, 24593.311499751988, 0.07200000000000001, 1.0110000000000001, 0.189, 192.0, 0.0, 0.0, 0.0, 0.0, 0.0, 0.0, 0.0, 0.0, 0.0, 1.7074740821400032E9, 0.0, 2024-02-09 11:21:22.140
254.0, -18513.413490463914, -7171.84778116319, 12119.473471578774, -4492.208897138703, 44296.933030716544, 14952.020639422017, 31451.36314050712, 5544.484322605649, 25047.76716801729, 4600.927782169317, 38403.29210797454, 26343.49779409144, 37642.95281683836, 31168.233593491746, 26443.298333084385, 24459.022219064504, 0.07200000000000001, 1.0110000000000001, 0.189, 192.0, 0.0, 0.0, 0.0, 0.0, 0.0, 0.0, 0.0, 0.0, 0.0, 1.7074740821479676E9, 0.0, 2024-02-09 11:21:22.147
0.0, -18418.73150095123, -7032.596413206627, 12200.878524885002, -4505.08350194496, 44670.341273586906, 15042.522852721555, 31666.49868088945, 5714.17876651034, 25145.533698264804, 4651.420372893855, 38455.952817911246, 26394.616233660727, 37581.753740519736, 31209.56196898961, 26475.686010800127, 24425.293436681444, 0.07400000000000001, 1.0105, 0.1895, 192.0, 1.0, 48.0, 15.5, 72.0, 2.5, 120.0, 0.0, 0.0, 0.0, 1.707474082156985E9, 0.0, 2024-02-09 11:21:22.156
2.0, -18503.221094992292, -7160.448391490983, 12136.751370042726, -4483.044681912027, 44440.5876923308, 14973.612424565843, 31541.99946427339, 5630.717352714223, 25247.077673325264, 4676.029643539148, 38704.01247787625, 26413.391699003187, 38004.402876425134, 31323.71232792286, 26601.0792971944, 24613.092793594933, 0.07400000000000001, 1.0105, 0.1895, 192.0, 0.0, 0.0, 0.0, 0.0, 0.0, 0.0, 0.0, 0.0, 0.0, 1.707474082165022E9, 0.0, 2024-02-09 11:21:22.165
4.0, -18472.398039388423, -7106.714797820426, 12173.944672816358, -4489.79490873753, 44430.819980003835, 15011.11865176185, 31554.0470545348, 5648.084658155997, 24980.957803840378, 4601.844203691984, 38256.79877481446, 26344.280105147376, 37384.99133407966, 31105.939281694806, 26385.250852733952, 24365.256651074487, 0.07400000000000001, 1.0105, 0.1895, 192.0, 0.0, 0.0, 0.0, 0.0, 0.0, 0.0, 0.0, 0.0, 0.0, 1.7074740821719792E9, 0.0, 2024-02-09 11:21:22.171
6.0, -18490.90528379742, -7115.342571180174, 12160.734791843272, -4506.0893304454485, 44667.45789855217, 15028.284791503525, 31662.20714595403, 5720.414903213371, 25300.58774955127, 4694.514536203687, 38718.76462921675, 26434.9387806581, 37953.21738162248, 31358.916325439972, 26620.860591037344, 24602.252197534108, 0.07400000000000001, 1.0105, 0.1895, 192.0, 0.0, 0.0, 0.0, 0.0, 0.0, 0.0, 0.0, 0.0, 0.0, 1.7074740821800249E9, 0.0, 2024-02-09 11:21:22.180
