%OpenBCI Raw EXG Data
%Number of channels = 16
%Sample Rate = 125 Hz
%Board = OpenBCI_GUI$BoardCytonSerialDaisy
Sample Index, EXG Channel 0, EXG Channel 1, EXG Channel 2, EXG Channel 3, EXG Channel 4, EXG Channel 5, EXG Channel 6, EXG Channel 7, EXG Channel 8, EXG Channel 9, EXG Channel 10, EXG Channel 11, EXG Channel 12, EXG Channel 13, EXG Channel 14, EXG Channel 15, Accel Channel 0, Accel Channel 1, Accel Channel 2, Other, Other, Other, Other, Other, Other, Other, Analog Channel 0, Analog Channel 1, Analog Channel 2, Timestamp, Other, Timestamp (Formatted)
0.0, -23215.907599438146, -24595.613729430883, 8148.551958626743, -6634.489492713153, 41789.82726214257, 12353.473884281384, 27677.494606673077, 894.0027229789166, 0.0, 0.0, 0.0, 0.0, 0.0, 0.0, 0.0, 0.0, 0.0, 0.0, 0.0, 192.0, 0.0, 0.0, 0.0, 0.0, 0.0, 0.0, 0.0, 0.0, 0.0, 1.707473984717909E9, 0.0, 2024-02-09 11:19:44.717
240.0, -23264.209719206065, -24630.013064147603, 8095.466565545388, -6625.861719353405, 41725.4989416002, 12300.34378771112, 27631.71823402861, 851.9814434029394, 18888.922797313073, 762.9767969819065, 37943.33791057324, 24452.853137594837, 37303.11689413988, 28413.67166205307, 26363.03321874538, 25522.42881327019, 0.0, 0.0, 0.0, 192.0, 0.0, 0.0, 0.0, 0.0, 0.0, 0.0, 0.0, 0.0, 0.0, 1.7074739847179575E9, 0.0, 2024-02-09 11:19:44.717
0.0, -8066.163428564481, -1991.96511411251, 5014.7703307593265, -2805.9038884525166, 21437.423996618272, 6771.237465290722, 14976.942834489684, 1617.5286909972062, 9288.960312480964, 352.0399751710862, 18674.927195897963, 12181.656024653439, 18282.341156284947, 14055.693335019749, 13012.783290479576, 12567.603596163226, 0.10400000000000001, 1.012, 0.222, 192.0, 1.5, 32.0, 15.5, 80.0, 3.0, 120.0, 0.0, 0.0, 0.0, 1.7074739848225884E9, 0.0, 2024-02-09 11:19:44.822
2.0, -16077.743897169103, -3900.290000473261, 10083.631883100496, -5626.604631734447, 43260.974378701976, 13637.60395498323, 30175.59262223156, 3406.9870003446345, 22301.050698882427, 5502.395987796305, 37783.67939992898, 25276.246699839437, 36180.25465968307, 29486.26482322989, 26132.005588055326, 24555.46999638915, 0.10400000000000001, 1.012, 0.222, 192.0, 0.0, 0.0, 0.0, 0.0, 0.0, 0.0, 0.0, 0.0, 0.0, 1.707473984828518E9, 0.0, 2024-02-09 11:19:44.828
4.0, -16150.05179048202, -4017.03316176333, 10027.305487073123, -5607.53859371407, 43078.427681735484, 13595.247399240423, 30064.75032147769, 3347.352546137875, 22442.827813962438, 5529.419246842772, 38087.77488324343, 25291.445886069047, 36669.422587087465, 29619.615330650253, 26294.569825478775, 24774.539443795617, 0.10400000000000001, 1.012, 0.222, 192.0, 0.0, 0.0, 0.0, 0.0, 0.0, 0.0, 0.0, 0.0, 0.0, 1.707473984836389E9, 0.0, 2024-02-09 11:19:44.836
6.0, -16117.798223233012, -3962.1819808700066, 10064.409382868933, -5609.863175137422, 43023.77766654226, 13600.142431276136, 30034.419004251842, 3308.0134758965346, 22169.555386251854, 5432.658545095747, 37617.44947641486, 25211.78426883033, 36043.08200396085, 29401.350546044177, 26047.136014358523, 24502.965748663635, 0.10400000000000001, 1.012, 0.222, 192.0, 0.0, 0.0, 0.0, 0.0, 0.0, 0.0, 0.0, 0.0, 0.0, 1.707473984844345E9, 0.0, 2024-02-09 11:19:44.844
8.0, -16108.656359750792, -3949.3073760637494, 10064.342327635566, -5635.791198705578, 43314.35034446124, 13606.780899379362, 30159.566421457104, 3364.6974998351934, 22478.389439390834, 5540.840988259433, 38075.59318251529, 25317.26215091493, 36589.7386181043, 29635.373310491243, 26281.695220672515, 24707.953597063257, 0.082, 1.024, 0.20600000000000002, 192.0, 1.0, 72.0, 16.0, 0.0, 3.0, 56.0, 0.0, 0.0, 0.0, 1.7074739848524196E9, 0.0, 2024-02-09 11:19:44.852
10.0, -16155.997354507132, -4025.638583378623, 10025.852623683528, -5609.237326292673, 42916.42223792341, 13553.024953964348, 29955.047959691045, 3223.456826622108, 22249.619334890765, 5436.570100375427, 37803.59480423866, 25226.156440515097, 36367.53992647409, 29476.586517880743, 26137.638227658063, 24606.655491191807, 0.082, 1.024, 0.20600000000000002, 192.0, 0.0, 0.0, 0.0, 0.0, 0.0, 0.0, 0.0, 0.0, 0.0, 1.7074739848614173E9, 0.0, 2024-02-09 11:19:44.861
12.0, -16083.309481538474, -3907.1743377654957, 10097.847592574071, -5629.756227702645, 43281.67209406759, 13635.145263093145, 30155.051369077133, 3345.51970309254, 22322.955408448626, 5495.690464459713, 37803.10306586064, 25276.80549345082, 36225.2487212716, 29483.157930750604, 26141.08039630418, 24534.1911356677, 0.082, 1.024, 0.20600000000000002, 192.0, 0.0, 0.0, 0.0, 0.0, 0.0, 0.0, 0.0, 0.0, 0.0, 1.7074739848674412E9, 0.0, 2024-02-09 11:19:44.867
14.0, -16154.633898095359, -4018.2401559639165, 10025.070312627591, -5611.137224571375, 43101.15940584653, 13569.229968694446, 30038.062338598054, 3271.2225045230994, 22460.95507871569, 5490.035473112521, 38115.51339811247, 25300.721860018, 36719.73636385636, 29622.901037085183, 26304.04696512782, 24752.970010396246, 0.082, 1.024, 0.20600000000000002, 192.0, 0.0, 0.0, 0.0, 0.0, 0.0, 0.0, 0.0, 0.0, 0.0, 1.7074739848764048E9, 0.0, 2024-02-09 11:19:44.876
16.0, -16102.509630025583, -3935.8292741571995, 10087.096403491068, -5584.046910291542, 43048.07401276517, 13608.323169746778, 30032.94378911779, 3288.0757198424008, 22184.039316658895, 5437.978260276111, 37655.20157279987, 25231.27498999536, 36092.18878652916, 29396.366107030644, 26064.793892478217, 24491.901635158258, 0.082, 1.024, 0.20600000000000002, 192.0, 0.0, 0.0, 0.0, 0.0, 0.0, 0.0, 0.0, 0.0, 0.0, 1.7074739848844087E9, 0.0, 2024-02-09 11:19:44.884
18.0, -16094.820629932956, -3919.6689629160123, 10090.203295970357, -5594.351064485439, 43332.701126659056, 13640.979068395982, 30160.169918557396, 3388.0997762798997, 22511.201800251223, 5570.501753151626, 38136.14405824472, 25343.480747161004, 36649.17190661096, 29657.076854357347, 26314.887561188647, 24725.41030948285, 0.088, 1.034, 0.202, 192.0, 1.0, 96.0, 16.0, 40.0, 3.0, 40.0, 0.0, 0.0, 0.0, 1.7074739848925736E9, 0.0, 2024-02-09 11:19:44.892
20.0, -16146.274345669073, -4010.7970250602993, 10054.306394375133, -5563.460953648205, 42924.82649383861, 13580.517599644376, 29944.654398519328, 3258.2361409945656, 22279.905948627707, 5459.74885937558, 37863.899810779076, 25252.419740250083, 36413.45040958529, 29513.109268320713, 26164.1250448376, 24637.456195051218, 0.088, 1.034, 0.202, 192.0, 0.0, 0.0, 0.0, 0.0, 0.0, 0.0, 0.0, 0.0, 0.0, 1.7074739849004664E9, 0.0, 2024-02-09 11:19:44.900
22.0, -16069.65256567628, -3890.5669916352026, 10118.210031772856, -5591.288875495062, 43279.16869868859, 13638.207452083523, 30125.10003150702, 3357.299072420487, 22333.3713213648, 5512.1189966343645, 37843.894999491575, 25299.648976284145, 36260.586829255444, 29515.344442766243, 26163.83447215968, 24562.10846449238, 0.088, 1.034, 0.202, 192.0, 0.0, 0.0, 0.0, 0.0, 0.0, 0.0, 0.0, 0.0, 0.0, 1.7074739849086227E9, 0.0, 2024-02-09 11:19:44.908
24.0, -16137.423054864772, -3988.847612005188, 10048.450237327843, -5578.973064300188, 43110.56949026221, 13602.846992355227, 30033.256713540166, 3309.3098770749425, 22470.141645686825, 5541.444485359727, 38155.03128230945, 25317.150392192652, 36751.02880609379, 29660.563726492375, 26320.25197985792, 24767.297478592096, 0.088, 1.034, 0.202, 192.0, 0.0, 0.0, 0.0, 0.0, 0.0, 0.0, 0.0, 0.0, 0.0, 1.7074739849175136E9, 0.0, 2024-02-09 11:19:44.917
26.0, -16107.181144616741, -3963.098402392674, 10086.001168012759, -5590.238343505663, 43032.71836432438, 13596.856724841206, 30004.490018426182, 3261.275978240488, 22182.094714891282, 5479.105470073876, 37677.35215155508, 25235.745338886423, 36104.057562834925, 29418.449630552488, 26069.10777915809, 24484.57026297692, 0.088, 1.034, 0.202, 192.0, 0.0, 0.0, 0.0, 0.0, 0.0, 0.0, 0.0, 0.0, 0.0, 1.707473984923509E9, 0.0, 2024-02-09 11:19:44.923
28.0, -16093.501877010094, -3947.519236507325, 10094.338368694589, -5601.816547133511, 43334.355155748744, 13620.750739663928, 30150.603371930527, 3339.8870634898026, 22501.992881535636, 5544.529026094559, 38137.90984605668, 25341.647904115667, 36651.56354326767, 29648.404377508687, 26313.457049543507, 24696.84478006897, 0.078, 1.038, 0.224, 192.0, 1.0, 56.0, 16.0, 56.0, 3.5, 0.0, 0.0, 0.0, 0.0, 1.7074739849325204E9, 0.0, 2024-02-09 11:19:44.932
30.0, -16145.648496824326, -4039.4072579630924, 10048.539644305665, -5583.644578891347, 42923.79831359367, 13558.031744722337, 29921.67680521927, 3198.3111141098875, 22281.671736439675, 5465.582664678414, 37873.175784728024, 25259.795815920334, 36447.13448847944, 29502.93922459355, 26170.718809451915, 24616.937293641247, 0.078, 1.038, 0.224, 192.0, 0.0, 0.0, 0.0, 0.0, 0.0, 0.0, 0.0, 0.0, 0.0, 1.7074739849405303E9, 0.0, 2024-02-09 11:19:44.940
32.0, -16073.161789555765, -3899.8206138397, 10111.437453202898, -5607.739759414168, 43268.97630321697, 13620.08018733027, 30087.213824655275, 3294.1106908453335, 22332.812527753416, 5512.454272801194, 37846.71131929295, 25302.4205925966, 36277.12712015237, 29498.69239314704, 26139.761643381316, 24512.71110924615, 0.078, 1.038, 0.224, 192.0, 0.0, 0.0, 0.0, 0.0, 0.0, 0.0, 0.0, 0.0, 0.0, 1.7074739849485333E9, 0.0, 2024-02-09 11:19:44.948
34.0, -16143.078046211964, -4016.1167402406622, 10055.356926364533, -5578.123698010886, 43110.99417340686, 13614.22403028298, 30028.629902437915, 3302.380836293797, 22487.218378450678, 5542.651479560313, 38174.11967207428, 25328.97446500951, 36798.190986894486, 29667.78333995144, 26321.235456613955, 24761.03899014461, 0.078, 1.038, 0.224, 192.0, 0.0, 0.0, 0.0, 0.0, 0.0, 0.0, 0.0, 0.0, 0.0, 1.7074739849565597E9, 0.0, 2024-02-09 11:19:44.956
36.0, -16112.389101074828, -3978.744623511389, 10079.742679565274, -5586.304436481529, 43018.39089612853, 13606.400919723621, 29980.93127977029, 3243.8863210542586, 22207.128668681227, 5467.281397257018, 37700.17328264395, 25270.14467360314, 36137.898103940264, 29437.739186017418, 26064.77154073376, 24479.027030352, 0.078, 1.038, 0.224, 192.0, 0.0, 0.0, 0.0, 0.0, 0.0, 0.0, 0.0, 0.0, 0.0, 1.7074739849645648E9, 0.0, 2024-02-09 11:19:44.964
38.0, -16110.466851051671, -3968.574579784224, 10075.607606841042, -5612.523032727603, 43323.15693177664, 13628.17151882309, 30117.478086647763, 3309.46633928613, 22524.232867268667, 5546.630090073359, 38154.919523587174, 25370.526357951923, 36662.15827013949, 29662.284810815432, 26307.131505862657, 24693.42496316731, 0.064, 1.008, 0.252, 192.0, 1.0, 0.0, 15.5, 64.0, 3.5, 112.0, 0.0, 0.0, 0.0, 1.7074739849725592E9, 0.0, 2024-02-09 11:19:44.972
40.0, -16190.73196539068, -4080.6238747386788, 10012.016893865693, -5596.139204041863, 42916.19872047886, 13560.579843590242, 29951.2705148781, 3192.656122762695, 22285.85151265282, 5467.3931559792945, 37883.457587177465, 25274.190339349552, 36436.31624416307, 29521.625282958186, 26156.167823811513, 24592.3056712515, 0.064, 1.008, 0.252, 192.0, 0.0, 0.0, 0.0, 0.0, 0.0, 0.0, 0.0, 0.0, 0.0, 1.707473984979667E9, 0.0, 2024-02-09 11:19:44.979
42.0, -16124.034359936042, -3974.2072193869617, 10087.18581046889, -5613.282992039084, 43275.301846897826, 13662.61555702872, 30184.287450824675, 3385.0152355450673, 22333.3713213648, 5493.812917925467, 37839.82698200071, 25314.11055494673, 36257.725805965165, 29521.69233819155, 26160.258193046833, 24517.762603493047, 0.064, 1.008, 0.252, 192.0, 0.0, 0.0, 0.0, 0.0, 0.0, 0.0, 0.0, 0.0, 0.0, 1.70747398498866E9, 0.0, 2024-02-09 11:19:44.988
44.0, -16208.143974321363, -4101.410997082115, 10004.439652495343, -5616.792215918567, 43093.26924005381, 13586.865495069684, 30056.502527773682, 3338.9259384782245, 22473.472055610666, 5542.33855513794, 38166.005988837, 25341.625552371213, 36777.94030641798, 29671.426674297654, 26333.618323042196, 24740.45303350127, 0.064, 1.008, 0.252, 192.0, 0.0, 0.0, 0.0, 0.0, 0.0, 0.0, 0.0, 0.0, 0.0, 1.7074739849966242E9, 0.0, 2024-02-09 11:19:44.996
46.0, -16183.91468333181, -4077.4722787704804, 10029.518309774197, -5631.901995170355, 42996.3967795845, 13592.274617227868, 30022.706690157258, 3378.868505819858, 22166.694362961574, 5447.678917369713, 37656.20740130036, 25249.961048359997, 36129.98558640308, 29408.63721473661, 26060.34589533161, 24437.02810252048, 0.064, 1.008, 0.252, 192.0, 0.0, 0.0, 0.0, 0.0, 0.0, 0.0, 0.0, 0.0, 0.0, 1.7074739850046377E9, 0.0, 2024-02-09 11:19:45.004
48.0, -16177.723250117691, -4063.7930111638325, 10036.335591833067, -5643.100219142463, 43314.797379350355, 13624.438777499054, 30189.294241582662, 3550.373441025429, 22487.86657903988, 5555.123752966375, 38104.315174140356, 25354.097825777273, 36666.18158414144, 29658.44031076912, 26314.01584315489, 24670.559128589528, 0.064, 0.936, 0.29, 192.0, 1.0, 0.0, 14.5, 32.0, 4.5, 8.0, 0.0, 0.0, 0.0, 1.7074739850116715E9, 0.0, 2024-02-09 11:19:45.011
50.0, -16235.793082212578, -4170.3884804711915, 9988.234637765247, -5617.35100952995, 42902.050066238655, 13537.82576773474, 29978.919622769314, 3393.5983054159055, 22256.7048378831, 5459.502990186571, 37840.743403523375, 25268.848272424733, 36457.9080293069, 29508.035422329358, 26175.502082765353, 24595.680784664248, 0.064, 0.936, 0.29, 192.0, 0.0, 0.0, 0.0, 0.0, 0.0, 0.0, 0.0, 0.0, 0.0, 1.707473985020631E9, 0.0, 2024-02-09 11:19:45.020
52.0, -16152.801055050024, -4056.8863221271426, 10071.539589350175, -5624.660029966835, 43267.47873633847, 13625.31049553281, 30210.193122648376, 3516.21997549772, 22299.59783549283, 5533.643726544825, 37783.500585973336, 25319.653787571646, 36245.18647732574, 29513.913931121104, 26161.59929771415, 24509.984196422603, 0.064, 0.936, 0.29, 192.0, 0.0, 0.0, 0.0, 0.0, 0.0, 0.0, 0.0, 0.0, 0.0, 1.7074739850286753E9, 0.0, 2024-02-09 11:19:45.028
54.0, -16213.195468568263, -4168.130954281206, 10009.3123327866, -5607.806814647533, 43113.29640308576, 13575.130829230648, 30133.750156611226, 3429.8304831779583, 22465.134854928834, 5551.122790708875, 38120.00609874798, 25348.44283443008, 36757.04142535227, 29655.221659567556, 26355.746550052947, 24784.508321822683, 0.064, 0.936, 0.29, 192.0, 0.0, 0.0, 0.0, 0.0, 0.0, 0.0, 0.0, 0.0, 0.0, 1.7074739850356765E9, 0.0, 2024-02-09 11:19:45.035
56.0, -16172.425886681784, -4124.746218293455, 10053.837007741573, -5601.3471604999495, 43016.401590872, 13579.712936843986, 30095.796894526113, 3360.383613155319, 22161.017019869927, 5476.9597026061665, 37629.38530795399, 25263.126225844175, 36106.42684774719, 29395.87436865263, 26081.78121826425, 24497.780143950004, 0.064, 0.936, 0.29, 192.0, 0.0, 0.0, 0.0, 0.0, 0.0, 0.0, 0.0, 0.0, 0.0, 1.7074739850446951E9, 0.0, 2024-02-09 11:19:45.044
58.0, -16147.280174169562, -4100.516927303902, 10073.081859717591, -5605.72810241319, 43355.16462983664, 13639.70501896203, 30285.496149718303, 3500.5514026345495, 22487.93363427325, 5606.488061724671, 38086.9925721875, 25381.322250523837, 36636.274950060244, 29690.1574361512, 26340.189735912056, 24753.886431918912, 0.06, 0.9440000000000001, 0.306, 192.0, 0.5, 112.0, 14.5, 64.0, 4.5, 72.0, 0.0, 0.0, 0.0, 1.707473985052709E9, 0.0, 2024-02-09 11:19:45.052
60.0, -16213.083709845987, -4202.9102686536635, 10018.185975335356, -5591.713558639713, 42933.94600557638, 13553.516692342364, 30048.47825151423, 3336.4448948436852, 22262.985678075038, 5502.7312639631355, 37838.06119418874, 25286.595557522247, 36443.53585762213, 29513.93628286556, 26200.871312722127, 24682.36084966193, 0.06, 0.9440000000000001, 0.306, 192.0, 0.0, 0.0, 0.0, 0.0, 0.0, 0.0, 0.0, 0.0, 0.0, 1.7074739850598464E9, 0.0, 2024-02-09 11:19:45.059
62.0, -16140.95463048871, -4088.357578320215, 10081.776688310705, -5633.667782982324, 43288.98111450447, 13621.443643742043, 30246.55941087716, 3572.948702925289, 22284.935091130148, 5526.692334019224, 37768.50256544382, 25311.361290378725, 36216.17391302275, 29495.876073345673, 26159.475881990897, 24561.549670880995, 0.06, 0.9440000000000001, 0.306, 192.0, 0.0, 0.0, 0.0, 0.0, 0.0, 0.0, 0.0, 0.0, 0.0, 1.7074739850677376E9, 0.0, 2024-02-09 11:19:45.067
64.0, -16199.829125383989, -4181.117317809739, 10023.952725404826, -5605.214012290718, 43138.95620572045, 13587.536047403342, 30150.335150997063, 3550.8428276589907, 22450.852090221895, 5537.041191702032, 38110.23838642101, 25332.573095866814, 36743.04923332325, 29643.710511173074, 26346.78350052637, 24816.650130349415, 0.06, 0.9440000000000001, 0.306, 192.0, 0.0, 0.0, 0.0, 0.0, 0.0, 0.0, 0.0, 0.0, 0.0, 1.7074739850767012E9, 0.0, 2024-02-09 11:19:45.076
66.0, -16165.698011600736, -4128.277793917393, 10054.79813275315, -5605.057550079531, 43015.775742027254, 13598.26488474189, 30104.603481841503, 3561.191685341798, 22153.842109899775, 5473.651644426781, 37618.92469154891, 25266.255470067917, 36091.42882721768, 29416.48267704042, 26066.090293656624, 24520.37775759432, 0.06, 0.9440000000000001, 0.306, 192.0, 0.0, 0.0, 0.0, 0.0, 0.0, 0.0, 0.0, 0.0, 0.0, 1.7074739850837517E9, 0.0, 2024-02-09 11:19:45.083
68.0, -16148.509520114605, -4093.7667004783993, 10063.112981690525, -5626.984611390187, 43331.94116734757, 13631.41252176911, 30256.729454604323, 3663.5179714581936, 22462.49734908311, 5579.129526511375, 38064.171441098624, 25372.11333180825, 36590.27505997122, 29641.855316383284, 26310.372508808676, 24749.08080686102, 0.052000000000000005, 0.97, 0.312, 192.0, 0.5, 80.0, 15.0, 40.0, 4.5, 96.0, 0.0, 0.0, 0.0, 1.7074739850917475E9, 0.0, 2024-02-09 11:19:45.091
70.0, -16186.529837433081, -4171.439012460592, 10015.146138089436, -5603.314114012017, 42901.15599646044, 13565.49722737041, 30019.242169766687, 3453.2998148560305, 22267.634840921743, 5496.875106915844, 37838.28471163329, 25280.38177256367, 36412.04224968461, 29493.618547155686, 26169.243594317868, 24660.74671277365, 0.052000000000000005, 0.97, 0.312, 192.0, 0.0, 0.0, 0.0, 0.0, 0.0, 0.0, 0.0, 0.0, 0.0, 1.7074739850997872E9, 0.0, 2024-02-09 11:19:45.099
72.0, -16118.558182544493, -4049.286729012338, 10090.002130270259, -5615.249945551151, 43258.1133554117, 13646.857577187728, 30241.619675352536, 3546.0148508566444, 22297.474419769576, 5531.1403311658305, 37776.52684170328, 25328.438023142582, 36185.864947541355, 29495.272576245377, 26142.421500971497, 24544.942324750704, 0.052000000000000005, 0.97, 0.312, 192.0, 0.0, 0.0, 0.0, 0.0, 0.0, 0.0, 0.0, 0.0, 0.0, 1.707473985108796E9, 0.0, 2024-02-09 11:19:45.108
74.0, -16180.450162941237, -4136.570291110313, 10036.492054044254, -5598.48613720967, 43126.305118358745, 13588.787745092839, 30151.743310897746, 3439.2182158491873, 22463.480825839142, 5590.215991761207, 38128.723279085556, 25358.657581646155, 36758.203716063945, 29676.120540633267, 26342.78253826887, 24803.82022903207, 0.052000000000000005, 0.97, 0.312, 192.0, 0.0, 0.0, 0.0, 0.0, 0.0, 0.0, 0.0, 0.0, 0.0, 1.7074739851157916E9, 0.0, 2024-02-09 11:19:45.115
76.0, -16144.776778790569, -4097.432386569069, 10076.725194063807, -5579.911837567311, 43017.2062536724, 13628.976181623482, 30128.63160713096, 3474.1763441772873, 22180.217168357038, 5503.111243618875, 37648.428994229915, 25287.891958700653, 36123.30241481095, 29435.034624938326, 26081.758866519795, 24520.891847716794, 0.052000000000000005, 0.97, 0.312, 192.0, 0.0, 0.0, 0.0, 0.0, 0.0, 0.0, 0.0, 0.0, 0.0, 1.7074739851237986E9, 0.0, 2024-02-09 11:19:45.123
78.0, -16124.704912269703, -4063.927121630564, 10106.14008976699, -5595.379244730383, 43344.86047564274, 13646.119969620702, 30274.56614667966, 3595.0992816804987, 22495.175599476766, 5611.338390271472, 38105.857444507776, 25400.008308888475, 36634.71032794837, 29707.88236950426, 26330.15380265162, 24765.71050473577, 0.047, 0.978, 0.315, 192.0, 0.5, 40.0, 15.0, 104.0, 4.5, 120.0, 0.0, 0.0, 0.0, 1.70747398513291E9, 0.0, 2024-02-09 11:19:45.132
80.0, -16173.409363437817, -4154.5410936523795, 10058.396763610455, -5565.562017627003, 42915.77403733421, 13583.423326423566, 30048.433548025318, 3454.8197334789916, 22294.009899379005, 5556.442505889238, 37887.88323257962, 25319.877305016198, 36463.00422704271, 29550.347274583255, 26190.142475383578, 24683.724306073706, 0.047, 0.978, 0.315, 192.0, 0.0, 0.0, 0.0, 0.0, 0.0, 0.0, 0.0, 0.0, 0.0, 1.7074739851400607E9, 0.0, 2024-02-09 11:19:45.140
82.0, -16105.460060293683, -4056.819266893777, 10119.886412607004, -5605.281067524084, 43259.476811823464, 13656.535882536875, 30244.1901259649, 3586.7844327431244, 22320.966103192106, 5582.616398646403, 37810.277975830795, 25345.939439051086, 36220.107820046884, 29538.836126188773, 26158.31359127922, 24583.81200835848, 0.047, 0.978, 0.315, 192.0, 0.0, 0.0, 0.0, 0.0, 0.0, 0.0, 0.0, 0.0, 0.0, 1.7074739851477787E9, 0.0, 2024-02-09 11:19:45.147
84.0, -16179.086706529464, -4163.72766062351, 10039.017801167704, -5599.491965710159, 43109.02721989479, 13570.772239061862, 30133.660749633404, 3445.543759530039, 22473.047372466015, 5584.493945180649, 38148.214000250584, 25361.25038400297, 36750.022977593304, 29694.40426759771, 26335.74173876545, 24826.77547058767, 0.047, 0.978, 0.315, 192.0, 0.0, 0.0, 0.0, 0.0, 0.0, 0.0, 0.0, 0.0, 0.0, 1.7074739851558983E9, 0.0, 2024-02-09 11:19:45.155
86.0, -16159.461874897705, -4127.517834605913, 10061.637766556474, -5599.91664885481, 42983.23160210033, 13592.11815501668, 30092.66765030237, 3404.9529915992016, 22180.708906735053, 5514.689447246725, 37646.17146803993, 25275.307926572317, 36091.78645512897, 29414.78394446182, 26040.72106369985, 24502.742231219083, 0.047, 0.978, 0.315, 192.0, 0.0, 0.0, 0.0, 0.0, 0.0, 0.0, 0.0, 0.0, 0.0, 1.7074739851647987E9, 0.0, 2024-02-09 11:19:45.164
88.0, -16145.804959035511, -4089.4304620540697, 10068.253882915245, -5613.327695527994, 43335.33863250478, 13653.920728435603, 30282.031629327732, 3552.094525348488, 22489.274738940567, 5597.547363942548, 38085.62911577572, 25372.31449750835, 36599.12635077552, 29673.72890397655, 26302.415287782587, 24749.170213838843, 0.0495, 0.977, 0.3205, 192.0, 0.5, 80.0, 15.0, 64.0, 5.0, 24.0, 0.0, 0.0, 0.0, 1.707473985171872E9, 0.0, 2024-02-09 11:19:45.171
90.0, -16211.519087734116, -4185.051224833873, 10000.93042861586, -5597.480308709181, 42900.217223193315, 13560.021049978859, 30030.79802165008, 3345.653813559272, 22273.26748052448, 5517.952801937199, 37863.67629333452, 25291.110609902218, 36433.36581389497, 29547.1733268706, 26165.622611716106, 24670.067390211512, 0.0495, 0.977, 0.3205, 192.0, 0.0, 0.0, 0.0, 0.0, 0.0, 0.0, 0.0, 0.0, 0.0, 1.707473985179879E9, 0.0, 2024-02-09 11:19:45.179
92.0, -16148.397761392327, -4079.4839357714577, 10070.444353871866, -5627.789274190578, 43256.973416444474, 13658.3240220933, 30254.382521436517, 3529.1616355373426, 22285.739753930542, 5542.0032789711095, 37767.31792298769, 25311.741270034465, 36185.59672660789, 29512.103439820225, 26118.326320448676, 24532.492403089098, 0.0495, 0.977, 0.3205, 192.0, 0.0, 0.0, 0.0, 0.0, 0.0, 0.0, 0.0, 0.0, 0.0, 1.707473985187927E9, 0.0, 2024-02-09 11:19:45.187
94.0, -16215.20712556924, -4174.411794473147, 10007.367731018989, -5618.289782797073, 43125.83573172519, 13599.851858598216, 30169.892927395456, 3512.286068473586, 22470.812198020485, 5569.272407206584, 38126.30929068438, 25335.054139501353, 36764.88688765608, 29677.64045925623, 26332.59014279725, 24812.313891925085, 0.0495, 0.977, 0.3205, 192.0, 0.0, 0.0, 0.0, 0.0, 0.0, 0.0, 0.0, 0.0, 0.0, 1.7074739851958747E9, 0.0, 2024-02-09 11:19:45.195
96.0, -16181.455991441726, -4126.936689250075, 10046.550339049141, -5610.77959666009, 42985.734997479325, 13607.74202439094, 30105.229330686252, 3477.842030267958, 22162.313421048337, 5500.876069173345, 37625.853732330055, 25249.80458614881, 36113.937033884176, 29431.59245629221, 26033.59085721861, 24486.47016125562, 0.0495, 0.977, 0.3205, 192.0, 0.0, 0.0, 0.0, 0.0, 0.0, 0.0, 0.0, 0.0, 0.0, 1.7074739852038932E9, 0.0, 2024-02-09 11:19:45.203
98.0, -16169.274290713585, -4108.608258796723, 10059.581406066585, -5629.867986424922, 43341.10538257425, 13654.099542391246, 30305.702126705903, 3632.2925844541296, 22464.710171784183, 5610.600782704447, 38072.73215922501, 25367.464168961546, 36611.08453405911, 29671.761950464483, 26293.899273145114, 24728.964236851247, 0.05475, 0.9684999999999999, 0.32725000000000004, 192.0, 0.5, 112.0, 15.0, 0.0, 5.0, 56.0, 0.0, 0.0, 0.0, 1.7074739852120738E9, 0.0, 2024-02-09 11:19:45.212
100.0, -16219.118680848918, -4197.031759861918, 10010.608733965008, -5594.731044141179, 42909.180272719896, 13571.420439651065, 30078.8989757179, 3416.5311952270504, 22284.26453879649, 5515.516461791571, 37867.40903465856, 25288.070772656298, 36461.998398542215, 29547.665065248617, 26162.292201792265, 24667.720457043702, 0.05475, 0.9684999999999999, 0.32725000000000004, 192.0, 0.0, 0.0, 0.0, 0.0, 0.0, 0.0, 0.0, 0.0, 0.0, 1.707473985220922E9, 0.0, 2024-02-09 11:19:45.220
102.0, -16153.00222075012, -4075.99706363643, 10082.782516811194, -5611.517204227114, 43267.4116811051, 13681.905112493649, 30332.81479273019, 3620.155587214898, 22285.046849852428, 5555.52608436657, 37771.3635887341, 25319.09499396026, 36184.657953340764, 29539.70784422253, 26128.272846731288, 24556.43112140073, 0.05475, 0.9684999999999999, 0.32725000000000004, 192.0, 0.0, 0.0, 0.0, 0.0, 0.0, 0.0, 0.0, 0.0, 0.0, 1.7074739852278948E9, 0.0, 2024-02-09 11:19:45.227
104.0, -16200.16440155082, -4152.6635471181335, 10030.32297257459, -5592.294703995551, 43141.973691221916, 13636.575774738285, 30235.204724693864, 3574.80389771508, 22468.331154385945, 5590.841840605955, 38150.31506422938, 25356.847090345276, 36770.74304470337, 29692.63847978574, 26340.413253356608, 24853.06112206711, 0.05475, 0.9684999999999999, 0.32725000000000004, 192.0, 0.0, 0.0, 0.0, 0.0, 0.0, 0.0, 0.0, 0.0, 0.0, 1.707473985235955E9, 0.0, 2024-02-09 11:19:45.235
106.0, -16181.143067019353, -4130.8258927852985, 10058.709688032828, -5590.640674905858, 43010.970116969365, 13635.569946237798, 30193.563424773627, 3534.3695919954293, 22192.600034785275, 5524.613621784881, 37661.281247291714, 25285.701487744034, 36125.89521716777, 29456.31348565978, 26060.770578476262, 24540.606086326374, 0.05475, 0.9684999999999999, 0.32725000000000004, 192.0, 0.0, 0.0, 0.0, 0.0, 0.0, 0.0, 0.0, 0.0, 0.0, 1.7074739852439222E9, 0.0, 2024-02-09 11:19:45.243
108.0, -16172.58234889297, -4100.33811334826, 10068.99149048227, -5617.507471741137, 43378.07516790333, 13667.08590591978, 30388.671802124, 3677.085480342565, 22484.60322434941, 5608.075035580997, 38079.571793028335, 25377.410695244158, 36609.3410979916, 29675.740560977527, 26322.129526392167, 24770.314964093563, 0.068375, 0.95225, 0.33862500000000006, 192.0, 1.0, 72.0, 14.5, 32.0, 5.0, 120.0, 0.0, 0.0, 0.0, 1.7074739852520049E9, 0.0, 2024-02-09 11:19:45.252
110.0, -16236.597745012969, -4215.226079848538, 10012.754501432717, -5597.100329053442, 42943.49020045879, 13581.746945589417, 30134.286598478153, 3515.191795252776, 22271.345230501323, 5525.887671218833, 37867.36433116965, 25292.362307591717, 36469.08390153455, 29532.644692974653, 26199.23963537689, 24711.865152342936, 0.068375, 0.95225, 0.33862500000000006, 192.0, 0.0, 0.0, 0.0, 0.0, 0.0, 0.0, 0.0, 0.0, 0.0, 1.7074739852599864E9, 0.0, 2024-02-09 11:19:45.259
112.0, -16176.315090217005, -4115.4478926000465, 10073.528894606698, -5627.386942790383, 43280.6662655671, 13658.435780815576, 30341.688435278946, 3699.727797475791, 22279.101285827313, 5532.056752688498, 37738.908855785, 25306.063926942817, 36201.33235470443, 29498.89355884714, 26134.84425960115, 24568.925746551246, 0.068375, 0.95225, 0.33862500000000006, 192.0, 0.0, 0.0, 0.0, 0.0, 0.0, 0.0, 0.0, 0.0, 0.0, 1.7074739852680118E9, 0.0, 2024-02-09 11:19:45.268
114.0, -16245.113759650441, -4215.74016997101, 10005.289018784646, -5617.574526974503, 43152.188438437996, 13608.591390680242, 30234.534172360203, 3640.406267691406, 22438.066892393457, 5570.032366518065, 38097.9896304595, 25331.231991199493, 36756.41557650752, 29671.180805108645, 26338.73687252246, 24857.375008746985, 0.068375, 0.95225, 0.33862500000000006, 192.0, 0.0, 0.0, 0.0, 0.0, 0.0, 0.0, 0.0, 0.0, 0.0, 1.7074739852770047E9, 0.0, 2024-02-09 11:19:45.277
116.0, -16215.676512202803, -4183.955989355563, 10037.65434475593, -5605.437529735271, 43006.25389888929, 13629.870251401693, 30203.912282456433, 3619.529738370149, 22126.70709213103, 5483.709929431669, 37595.030676726186, 25241.065054066785, 36095.98858308656, 29393.952118629473, 26046.73368295833, 24546.52929860703, 0.068375, 0.95225, 0.33862500000000006, 192.0, 0.0, 0.0, 0.0, 0.0, 0.0, 0.0, 0.0, 0.0, 0.0, 1.7074739852830305E9, 0.0, 2024-02-09 11:19:45.283
118.0, -16199.24798002815, -4155.502218663957, 10053.367621108011, -5630.9855736476875, 43366.20639159756, 13663.397868084654, 30386.995421289856, 3752.2320452013073, 22437.619857504353, 5579.397747444838, 38023.17834176759, 25341.178517482105, 36561.3295509016, 29640.223639038046, 26301.275348815365, 24782.451961332794, 0.0731875, 0.9501250000000001, 0.3513125, 192.0, 1.0, 56.0, 14.5, 80.0, 5.5, 48.0, 0.0, 0.0, 0.0, 1.707473985292014E9, 0.0, 2024-02-09 11:19:45.292
120.0, -16243.347971838471, -4255.41451637918, 9997.018873336181, -5604.29759076805, 42913.53886288868, 13583.758602590395, 30097.115647448976, 3532.2908797610858, 22247.004180789492, 5506.352246564895, 37827.62292952811, 25266.389580534647, 36445.97219776776, 29525.80505917133, 26168.640097217572, 24720.872905358425, 0.0731875, 0.9501250000000001, 0.3513125, 192.0, 0.0, 0.0, 0.0, 0.0, 0.0, 0.0, 0.0, 0.0, 0.0, 1.7074739853000681E9, 0.0, 2024-02-09 11:19:45.300
122.0, -16171.10713375892, -4143.231110957993, 10077.842781286572, -5626.157596845341, 43260.8626199797, 13686.353109640255, 30346.359949870104, 3695.279800329185, 22269.69120141163, 5528.301659620007, 37711.013878704776, 25295.335089604272, 36151.733833758095, 29482.554433650308, 26105.004680753314, 24572.837301830925, 0.0731875, 0.9501250000000001, 0.3513125, 192.0, 0.0, 0.0, 0.0, 0.0, 0.0, 0.0, 0.0, 0.0, 0.0, 1.7074739853072948E9, 0.0, 2024-02-09 11:19:45.307
124.0, -16225.7795006966, -4232.392219590213, 10005.333722273555, -5627.498701512659, 43139.42559235401, 13605.506849945408, 30252.326160946628, 3611.080778966043, 22454.920107712762, 5556.554264611515, 38092.848729234785, 25322.268941672915, 36735.203771019434, 29675.785264466438, 26330.489078818453, 24873.289450799162, 0.0731875, 0.9501250000000001, 0.3513125, 192.0, 0.0, 0.0, 0.0, 0.0, 0.0, 0.0, 0.0, 0.0, 0.0, 1.7074739853161252E9, 0.0, 2024-02-09 11:19:45.316
126.0, -16216.704692447745, -4204.743111698998, 10027.014914395204, -5624.503567755648, 42975.654360729975, 13622.158899564613, 30184.98035490279, 3585.532735053627, 22139.89462135966, 5483.776984665034, 37582.848975998044, 25231.476155695458, 36077.19076599965, 29406.558502502266, 26024.96308385886, 24528.58084780942, 0.0731875, 0.9501250000000001, 0.3513125, 192.0, 0.0, 0.0, 0.0, 0.0, 0.0, 0.0, 0.0, 0.0, 0.0, 1.7074739853241286E9, 0.0, 2024-02-09 11:19:45.324
128.0, -16195.738756148668, -4169.717928137533, 10051.89240597396, -5642.519073786625, 43354.60583622525, 13683.782659027895, 30398.59597666216, 3761.798591828179, 22431.450776034686, 5593.412291218316, 38010.773123594896, 25340.619723870725, 36538.821344235104, 29653.34411303331, 26283.72922941795, 24773.086580406023, 0.06859375000000001, 0.9450625000000001, 0.36165625, 192.0, 1.0, 0.0, 14.5, 48.0, 5.5, 80.0, 0.0, 0.0, 0.0, 1.7074739853321235E9, 0.0, 2024-02-09 11:19:45.332
130.0, -16248.198300385273, -4265.2492839395145, 9992.302655256111, -5610.287858282073, 42915.14818848946, 13590.799402093817, 30140.34392122554, 3559.4929527631944, 22248.524099412454, 5510.084987888931, 37826.03595567178, 25267.641278224146, 36417.58548230952, 29560.070283421315, 26171.2776030633, 24733.009902597656, 0.06859375000000001, 0.9450625000000001, 0.36165625, 192.0, 0.0, 0.0, 0.0, 0.0, 0.0, 0.0, 0.0, 0.0, 0.0, 1.7074739853391E9, 0.0, 2024-02-09 11:19:45.339
132.0, -16176.985642550666, -4158.273834976415, 10067.382164881488, -5632.840768437478, 43256.839305977745, 13674.082001934292, 30345.510583580803, 3703.818166711112, 22252.234488992035, 5549.9828517416545, 37704.1965966459, 25294.44101982606, 36122.184827588186, 29513.779820654374, 26102.389526652045, 24569.61865062936, 0.06859375000000001, 0.9450625000000001, 0.36165625, 192.0, 0.0, 0.0, 0.0, 0.0, 0.0, 0.0, 0.0, 0.0, 0.0, 1.7074739853481276E9, 0.0, 2024-02-09 11:19:45.348
134.0, -16234.563736267537, -4243.724554029054, 10007.434786252355, -5616.3675327739165, 43158.67044433003, 13640.375571295688, 30261.065693028653, 3672.436317495861, 22431.40607254578, 5573.5192386530925, 38082.7904442299, 25324.81704054082, 36695.082389722156, 29671.96311616458, 26334.40063409813, 24875.949308389343, 0.06859375000000001, 0.9450625000000001, 0.36165625, 192.0, 0.0, 0.0, 0.0, 0.0, 0.0, 0.0, 0.0, 0.0, 0.0, 1.7074739853561244E9, 0.0, 2024-02-09 11:19:45.356
136.0, -16222.963180895233, -4230.425266078147, 10036.849681955538, -5620.748474687157, 43004.46575933287, 13623.857632143216, 30222.710099543347, 3598.541450326616, 22130.551592177344, 5497.344493549406, 37583.36306612052, 25240.841536622233, 36051.44155638714, 29434.453479582487, 26045.43728177992, 24562.980182526135, 0.06859375000000001, 0.9450625000000001, 0.36165625, 192.0, 0.0, 0.0, 0.0, 0.0, 0.0, 0.0, 0.0, 0.0, 0.0, 1.707473985363141E9, 0.0, 2024-02-09 11:19:45.363
138.0, -16197.862171871922, -4179.977378842518, 10057.793266510162, -5627.990439890676, 43382.50081330548, 13691.672824820618, 30433.598808479168, 3781.602237415581, 22422.35361604138, 5566.657253105313, 37999.75371357843, 25337.758700580445, 36509.674669465385, 29647.085624585823, 26296.02268886837, 24790.990327714724, 0.061296875, 0.9415312500000002, 0.369828125, 192.0, 0.5, 88.0, 14.5, 40.0, 5.5, 104.0, 0.0, 0.0, 0.0, 1.70747398537219E9, 0.0, 2024-02-09 11:19:45.372
140.0, -16258.390695856893, -4286.192868494138, 9992.861448867494, -5617.798044419056, 42948.1393633055, 13597.571980663775, 30173.24568906375, 3542.2597577881525, 22247.87589882325, 5510.599078011403, 37822.77260098131, 25258.342952530737, 36414.1433136634, 29507.342518251244, 26182.922861924515, 24742.93407713581, 0.061296875, 0.9415312500000002, 0.369828125, 192.0, 0.0, 0.0, 0.0, 0.0, 0.0, 0.0, 0.0, 0.0, 0.0, 1.7074739853801217E9, 0.0, 2024-02-09 11:19:45.380
142.0, -16182.461819942215, -4165.53815192439, 10071.383127138988, -5626.314059056528, 43292.42328315059, 13688.834153274795, 30400.40646796304, 3715.3293151055955, 22238.376407429747, 5540.259842903596, 37682.895384179996, 25282.169912120095, 36113.8252751619, 29480.36396269369, 26117.164029737, 24580.414543201274, 0.061296875, 0.9415312500000002, 0.369828125, 192.0, 0.0, 0.0, 0.0, 0.0, 0.0, 0.0, 0.0, 0.0, 0.0, 1.707473985387188E9, 0.0, 2024-02-09 11:19:45.387
144.0, -16230.78629145459, -4241.869359239264, 10016.733111945763, -5609.952582115243, 43203.88802336312, 13636.575774738285, 30311.20065584191, 3634.125427499465, 22442.760758729073, 5570.188828729252, 38091.14999665618, 25329.689720832077, 36713.47787540888, 29694.001936197514, 26355.768901797404, 24890.902625429946, 0.061296875, 0.9415312500000002, 0.369828125, 192.0, 0.0, 0.0, 0.0, 0.0, 0.0, 0.0, 0.0, 0.0, 0.0, 1.707473985395358E9, 0.0, 2024-02-09 11:19:45.395
146.0, -16220.146861093863, -4224.278536352937, 10031.597022008542, -5623.788311933078, 43025.94578575442, 13615.45337622802, 30225.884047256, 3559.6941184632924, 22137.592391680766, 5494.908153403778, 37593.756627292234, 25247.010618091896, 36054.72726282207, 29418.11435438566, 26053.416854550465, 24555.358237666875, 0.061296875, 0.9415312500000002, 0.369828125, 192.0, 0.0, 0.0, 0.0, 0.0, 0.0, 0.0, 0.0, 0.0, 0.0, 1.7074739854041808E9, 0.0, 2024-02-09 11:19:45.404
148.0, -16189.413212467816, -4174.7917741288875, 10056.854493243038, -5627.386942790383, 43419.67176433466, 13684.252045661457, 30461.247916370383, 3737.949280494366, 22433.127156868835, 5576.179096243274, 37997.60794611072, 25329.421499898614, 36501.87391065049, 29639.933066360125, 26300.1577615926, 24773.243042617207, 0.0606484375, 0.9397656250000002, 0.37791406250000004, 192.0, 0.5, 112.0, 14.5, 40.0, 6.0, 8.0, 0.0, 0.0, 0.0, 1.7074739854121768E9, 0.0, 2024-02-09 11:19:45.412
150.0, -16249.561756797048, -4279.80026957992, 9992.414413978388, -5607.4491867362485, 42984.43859630091, 13590.575884649264, 30213.009442449744, 3550.08286834751, 22262.02455306346, 5504.117072119364, 37846.80072627076, 25261.9639351325, 36433.7010900618, 29538.769070955404, 26201.675975522518, 24749.639600472405, 0.0606484375, 0.9397656250000002, 0.37791406250000004, 192.0, 0.0, 0.0, 0.0, 0.0, 0.0, 0.0, 0.0, 0.0, 0.0, 1.7074739854191954E9, 0.0, 2024-02-09 11:19:45.419
152.0, -16182.01478505311, -4164.532323423901, 10076.434621385888, -5623.4753875107035, 43313.43392293858, 13690.37642364221, 30420.12070657262, 3720.5819750525925, 22243.405549932188, 5529.173377653763, 37702.2966983672, 25278.303060329326, 36105.264557035516, 29492.009221554905, 26123.489573417854, 24586.53892118203, 0.0606484375, 0.9397656250000002, 0.37791406250000004, 192.0, 0.0, 0.0, 0.0, 0.0, 0.0, 0.0, 0.0, 0.0, 0.0, 1.7074739854281795E9, 0.0, 2024-02-09 11:19:45.428
154.0, -16242.252736360162, -4253.469914611568, 10006.585419963052, -5616.948678129755, 43224.36222128418, 13630.98783862446, 30340.727310267368, 3665.5072767147158, 22444.3477325854, 5563.729174581668, 38099.844825249296, 25314.6246450692, 36714.03666902026, 29687.36346809429, 26360.26160243292, 24883.079514870587, 0.0606484375, 0.9397656250000002, 0.37791406250000004, 192.0, 0.0, 0.0, 0.0, 0.0, 0.0, 0.0, 0.0, 0.0, 0.0, 1.7074739854365208E9, 0.0, 2024-02-09 11:19:45.436
156.0, -16223.58902973998, -4230.760542244976, 10015.369655533988, -5622.290745054573, 43029.58912010064, 13619.11906231869, 30246.961742277355, 3576.435575060317, 22133.434967212077, 5514.1753571242525, 37581.306705630624, 25221.596684646214, 36066.886611805756, 29401.283490810813, 26053.327447572643, 24550.306743419977, 0.0606484375, 0.9397656250000002, 0.37791406250000004, 192.0, 0.0, 0.0, 0.0, 0.0, 0.0, 0.0, 0.0, 0.0, 0.0, 1.7074739854432063E9, 0.0, 2024-02-09 11:19:45.443
158.0, -16195.336424748473, -4186.057053334362, 10041.387086079965, -5640.015678407631, 43413.25681367598, 13692.835115532294, 30456.21877386794, 3757.2835394482067, 22429.461470778166, 5600.63190467738, 37984.0180854819, 25314.512886346925, 36506.254852563725, 29663.402398038197, 26292.602871966705, 24767.588051270017, 0.06032421875, 0.9458828125000001, 0.38695703125, 192.0, 0.5, 112.0, 14.5, 96.0, 6.0, 48.0, 0.0, 0.0, 0.0, 1.7074739854512072E9, 0.0, 2024-02-09 11:19:45.451
160.0, -16260.894091235888, -4295.871173843286, 9972.946044557815, -5621.374323531905, 42967.7418431928, 13589.88298057115, 30210.01430869273, 3553.6814992048144, 22253.754407614997, 5492.203592324686, 37829.567531295725, 25234.6053999192, 36436.562113352076, 29537.22680058799, 26197.47384756492, 24744.85632715897, 0.06032421875, 0.9458828125000001, 0.38695703125, 192.0, 0.0, 0.0, 0.0, 0.0, 0.0, 0.0, 0.0, 0.0, 0.0, 1.7074739854602356E9, 0.0, 2024-02-09 11:19:45.460
162.0, -16181.7689158641, -4171.416660716136, 10059.335536877577, -5632.930175415298, 43284.35430340222, 13679.75934502594, 30405.10033429865, 3737.993983983277, 22225.501802623487, 5528.480473575649, 37680.526099267736, 25259.996981620432, 36097.59790868734, 29479.648706871118, 26106.59165460964, 24567.048200017, 0.06032421875, 0.9458828125000001, 0.38695703125, 192.0, 0.0, 0.0, 0.0, 0.0, 0.0, 0.0, 0.0, 0.0, 0.0, 1.707473985468255E9, 0.0, 2024-02-09 11:19:45.468
164.0, -16230.339256565483, -4249.6030628208, 10003.970265861783, -5610.9137071268215, 43203.910375107575, 13637.514548005409, 30343.163650412997, 3709.026123169199, 22450.405055332787, 5590.886544094867, 38099.263679893455, 25315.80928752533, 36709.43220966247, 29681.931994191647, 26353.82430002979, 24888.913320173422, 0.06032421875, 0.9458828125000001, 0.38695703125, 192.0, 0.0, 0.0, 0.0, 0.0, 0.0, 0.0, 0.0, 0.0, 0.0, 1.707473985475288E9, 0.0, 2024-02-09 11:19:45.475
166.0, -16216.436471514282, -4230.179396889138, 10024.17624284938, -5600.900125610844, 43010.03134370224, 13626.003399610925, 30256.79650983769, 3626.8834622959453, 22133.56907767881, 5505.346418064406, 37598.00345873874, 25231.364396973182, 36076.67667587718, 29433.179430148535, 26047.11366261407, 24564.544804638008, 0.06032421875, 0.9458828125000001, 0.38695703125, 192.0, 0.0, 0.0, 0.0, 0.0, 0.0, 0.0, 0.0, 0.0, 0.0, 1.7074739854835207E9, 0.0, 2024-02-09 11:19:45.483
168.0, -16193.950616592243, -4186.459384734558, 10054.395801352955, -5623.855367166444, 43397.699999535085, 13682.41920261612, 30470.50153857488, 3780.104670537075, 22427.181592843725, 5609.259678037129, 38001.49714964595, 25334.472994145515, 36505.67370720788, 29649.54431647591, 26296.782648179847, 24780.797932243102, 0.063162109375, 0.95294140625, 0.390478515625, 192.0, 1.0, 8.0, 15.0, 0.0, 6.0, 40.0, 0.0, 0.0, 0.0, 1.7074739854923606E9, 0.0, 2024-02-09 11:19:45.492
170.0, -16246.45486431776, -4289.523278417978, 9998.136460558946, -5594.39576797435, 42957.30357853217, 13595.605027151709, 30222.441878609883, 3561.951644653278, 22256.794244860917, 5520.769121738568, 37848.790031527285, 25256.37599901867, 36456.87984906195, 29536.489193020963, 26203.55352205676, 24757.440359287306, 0.063162109375, 0.95294140625, 0.390478515625, 192.0, 0.0, 0.0, 0.0, 0.0, 0.0, 0.0, 0.0, 0.0, 0.0, 1.7074739854993136E9, 0.0, 2024-02-09 11:19:45.499
172.0, -16174.303433216028, -4176.535210196401, 10066.778667781195, -5614.579393217492, 43265.73530027096, 13694.891476022181, 30411.895264613067, 3725.2311378992963, 22248.345285456813, 5538.024668458065, 37689.55620402768, 25279.91238593011, 36113.489998995065, 29469.88099454415, 26110.480858144863, 24575.966546054668, 0.063162109375, 0.95294140625, 0.390478515625, 192.0, 0.0, 0.0, 0.0, 0.0, 0.0, 0.0, 0.0, 0.0, 0.0, 1.7074739855073211E9, 0.0, 2024-02-09 11:19:45.507
174.0, -16220.348026793961, -4253.849894267309, 10022.812786437606, -5596.876811608889, 43191.12517727914, 13651.08205688978, 30345.309417880708, 3688.663683970414, 22459.502215326098, 5567.551322883525, 38105.58922357431, 25318.022110226408, 36726.35248021513, 29690.984450696047, 26351.29855290634, 24902.369070335517, 0.063162109375, 0.95294140625, 0.390478515625, 192.0, 0.0, 0.0, 0.0, 0.0, 0.0, 0.0, 0.0, 0.0, 0.0, 1.7074739855163329E9, 0.0, 2024-02-09 11:19:45.516
176.0, -16203.338349263473, -4234.716801013566, 10044.650440770441, -5592.697035395746, 42991.43469231542, 13633.692399703552, 30259.076387772133, 3600.6872177943255, 22156.300801789857, 5512.0072379120875, 37609.04522049966, 25244.350760501715, 36080.61058290131, 29430.16194464707, 26054.668552239964, 24579.14049376732, 0.063162109375, 0.95294140625, 0.390478515625, 192.0, 0.0, 0.0, 0.0, 0.0, 0.0, 0.0, 0.0, 0.0, 0.0, 1.7074739855233667E9, 0.0, 2024-02-09 11:19:45.523
178.0, -16175.063392527509, -4176.602265429767, 10070.220836427312, -5610.712541426724, 43387.574659296835, 13702.312255181343, 30492.048620229798, 3786.3631589845613, 22439.20683136068, 5598.374378487394, 38006.14631249265, 25346.16295649564, 36511.52986425518, 29655.422825267655, 26299.3083953033, 24786.609385801483, 0.063162109375, 0.95294140625, 0.390478515625, 192.0, 0.0, 0.0, 0.0, 0.0, 0.0, 0.0, 0.0, 0.0, 0.0, 1.7074739855323594E9, 0.0, 2024-02-09 11:19:45.532
180.0, -16247.103064906963, -4296.675836643677, 9989.240466265735, -5601.973009344699, 42932.29197648668, 13591.469954427475, 30193.719886984814, 3547.3559555239626, 22267.83600662184, 5520.143272893819, 37854.98146474141, 25264.33322004476, 36455.06935776107, 29554.169422885112, 26196.870350464626, 24764.168234368353, 0.074, 0.9480000000000001, 0.396, 192.0, 1.0, 40.0, 14.5, 80.0, 6.0, 48.0, 0.0, 0.0, 0.0, 1.7074739855394022E9, 0.0, 2024-02-09 11:19:45.539
182.0, -16182.595930408948, -4192.919038882142, 10065.75048753625, -5625.799968934056, 43245.95400642801, 13670.75159201045, 30387.576566645694, 3708.73555049128, 22231.96145677107, 5530.335668365439, 37674.55818349817, 25270.256432325416, 36095.98858308656, 29468.003448009906, 26090.16312243499, 24564.500101149097, 0.074, 0.9480000000000001, 0.396, 192.0, 0.0, 0.0, 0.0, 0.0, 0.0, 0.0, 0.0, 0.0, 0.0, 1.7074739855474153E9, 0.0, 2024-02-09 11:19:45.547
184.0, -16235.793082212578, -4270.904275286707, 10004.283190284157, -5622.44720726576, 43174.9425142935, 13621.130719319668, 30320.23076060185, 3663.6073784360146, 22446.02411341955, 5560.041136746542, 38083.4386448191, 25308.835543255278, 36707.733477083864, 29678.199252867613, 26337.35106436623, 24883.861825926524, 0.074, 0.9480000000000001, 0.396, 192.0, 0.0, 0.0, 0.0, 0.0, 0.0, 0.0, 0.0, 0.0, 0.0, 1.7074739855553741E9, 0.0, 2024-02-09 11:19:45.555
186.0, -16213.64250345737, -4245.155065674194, 10029.160681862913, -5609.527898970592, 42969.10529960458, 13632.530108991876, 30225.571122833626, 3632.247880965219, 22134.70901664603, 5510.196746611207, 37582.089016686565, 25223.742452113922, 36058.50470763501, 29413.15226711658, 26031.176868817434, 24561.28144994753, 0.074, 0.9480000000000001, 0.396, 192.0, 0.0, 0.0, 0.0, 0.0, 0.0, 0.0, 0.0, 0.0, 0.0, 1.7074739855644195E9, 0.0, 2024-02-09 11:19:45.564
188.0, -16180.137238518864, -4197.232925562015, 10055.066353686614, -5632.30432657055, 43373.58246726781, 13681.055746204347, 30473.340210120707, 3806.2785632942396, 22420.453717762677, 5603.448224478749, 37978.65366681262, 25329.846183043264, 36474.47067194828, 29647.420900752655, 26272.083970556734, 24774.47238856225, 0.074, 0.9480000000000001, 0.396, 192.0, 0.0, 0.0, 0.0, 0.0, 0.0, 0.0, 0.0, 0.0, 0.0, 1.7074739855714085E9, 0.0, 2024-02-09 11:19:45.571
190.0, -16244.197338127773, -4301.570868679389, 9994.426070979365, -5602.174175044796, 42946.93236910491, 13593.727480617463, 30240.993826507787, 3595.6133718029705, 22269.44533222262, 5503.379464552339, 37840.274016889816, 25252.263278038896, 36455.561096139085, 29530.789498184862, 26190.701268994962, 24760.56960351105, 0.07200000000000001, 0.9540000000000001, 0.394, 192.0, 1.0, 32.0, 14.5, 104.0, 6.0, 40.0, 0.0, 0.0, 0.0, 1.7074739855794249E9, 0.0, 2024-02-09 11:19:45.579
192.0, -16174.191674493752, -4187.286399279404, 10069.28206316019, -5622.581317732492, 43256.70519551101, 13693.393909143677, 30418.287863527283, 3738.97746073931, 22237.68350335163, 5557.269520434084, 37663.65053220398, 25273.05040038233, 36112.75239142805, 29490.668116887584, 26088.911424745493, 24572.43497043073, 0.07200000000000001, 0.9540000000000001, 0.394, 192.0, 0.0, 0.0, 0.0, 0.0, 0.0, 0.0, 0.0, 0.0, 0.0, 1.7074739855884614E9, 0.0, 2024-02-09 11:19:45.588
194.0, -16212.346102278962, -4254.341632645325, 10033.005181909226, -5595.245134263651, 43209.96769785496, 13664.738972751973, 30374.746665328345, 3722.660687286936, 22462.609107805387, 5591.735910384168, 38102.92936598413, 25329.48855513198, 36724.229064491876, 29709.60345382732, 26339.78740451186, 24901.83262846859, 0.07200000000000001, 0.9540000000000001, 0.394, 192.0, 0.0, 0.0, 0.0, 0.0, 0.0, 0.0, 0.0, 0.0, 0.0, 1.7074739855956788E9, 0.0, 2024-02-09 11:19:45.595
196.0, -16202.77955565209, -4235.476760325046, 10049.925452461894, -5596.63094241988, 42995.435654572924, 13634.050027614836, 30264.28434423022, 3625.363543672984, 22147.427159241102, 5523.47368281766, 37608.10644723254, 25242.272048267372, 36080.7670451125, 29446.702235543995, 26045.86196492457, 24578.67110713376, 0.07200000000000001, 0.9540000000000001, 0.394, 192.0, 0.0, 0.0, 0.0, 0.0, 0.0, 0.0, 0.0, 0.0, 0.0, 1.707473985603446E9, 0.0, 2024-02-09 11:19:45.603
198.0, -16166.323860445484, -4181.810221887854, 10077.976891753304, -5607.382131502883, 43401.745665281494, 13698.110127223747, 30488.070009716754, 3812.246479063807, 22433.373026057845, 5616.211070562729, 37998.90434728913, 25345.11242450624, 36486.49591046523, 29654.886383400728, 26276.442560725518, 24776.752266496693, 0.07200000000000001, 0.9540000000000001, 0.394, 192.0, 0.0, 0.0, 0.0, 0.0, 0.0, 0.0, 0.0, 0.0, 0.0, 1.707473985611453E9, 0.0, 2024-02-09 11:19:45.611
200.0, -16232.954410666754, -4296.206450010115, 10012.262763054701, -5588.897238838344, 42970.58051473863, 13608.434928469054, 30224.36412863304, 3602.7882817731243, 22282.18582656215, 5529.665116031781, 37876.26032546286, 25276.15729286162, 36459.42794792986, 29536.64565523215, 26201.631272033606, 24774.785312984626, 0.064, 0.96, 0.39, 192.0, 1.0, 0.0, 15.0, 0.0, 6.0, 24.0, 0.0, 0.0, 0.0, 1.7074739856204824E9, 0.0, 2024-02-09 11:19:45.620
202.0, -16173.208197737718, -4194.416605760647, 10074.51237136273, -5612.858308894433, 43274.3630736307, 13689.504705608453, 30418.51138097184, 3737.055210716154, 22236.11888123976, 5531.967345710676, 37676.189860843406, 25272.938641660054, 36080.364713712304, 29476.139482991635, 26095.572244593175, 24577.1511885108, 0.064, 0.96, 0.39, 192.0, 0.0, 0.0, 0.0, 0.0, 0.0, 0.0, 0.0, 0.0, 0.0, 1.707473985627531E9, 0.0, 2024-02-09 11:19:45.627
204.0, -16229.646352487369, -4281.499002158524, 10008.373559519478, -5616.211070562729, 43221.03181136034, 13629.780844423873, 30353.467804606895, 3655.2925294986403, 22453.802520489993, 5578.77189860009, 38096.15678741417, 25319.139697449173, 36697.317564167686, 29686.335287849342, 26336.88167773267, 24889.203892851343, 0.064, 0.96, 0.39, 192.0, 0.0, 0.0, 0.0, 0.0, 0.0, 0.0, 0.0, 0.0, 0.0, 1.7074739856354964E9, 0.0, 2024-02-09 11:19:45.635
206.0, -16217.151727336852, -4267.596217107322, 10031.55231851963, -5606.912744869322, 42994.42982607244, 13621.063664086303, 30221.97249197632, 3585.644493775904, 22139.447586470556, 5468.801315879979, 37589.86742375701, 25210.5996263742, 36060.53871638045, 29404.569197245743, 26026.170078059447, 24554.8441475444, 0.064, 0.96, 0.39, 192.0, 0.0, 0.0, 0.0, 0.0, 0.0, 0.0, 0.0, 0.0, 0.0, 1.7074739856436539E9, 0.0, 2024-02-09 11:19:45.643
208.0, -16173.051735526531, -4195.914172639153, 10075.652310329951, -5614.534689728581, 43420.09644747931, 13719.52309841193, 30500.65404184509, 3834.128836885552, 22424.991121887106, 5601.525974455592, 37976.95493423402, 25322.87243877321, 36472.906049836405, 29625.784412119916, 26271.793397878817, 24771.27608910514, 0.064, 0.96, 0.39, 192.0, 0.0, 0.0, 0.0, 0.0, 0.0, 0.0, 0.0, 0.0, 0.0, 1.7074739856505587E9, 0.0, 2024-02-09 11:19:45.650
210.0, -16244.309096850051, -4319.698133432643, 10000.84102163804, -5607.382131502883, 42980.01295089877, 13597.393166708132, 30217.83741925209, 3582.09056640751, 22302.168286105192, 5541.757409782102, 37872.05819750526, 25263.975592133476, 36479.38805572844, 29572.453149849553, 26210.61667330464, 24785.827074745546, 0.056, 0.96, 0.392, 192.0, 0.5, 96.0, 15.0, 0.0, 6.0, 32.0, 0.0, 0.0, 0.0, 1.7074739856595783E9, 0.0, 2024-02-09 11:19:45.659
212.0, -16168.514331402104, -4203.73728319851, 10081.441412143877, -5609.751416415145, 43274.43012886407, 13710.80591807436, 30430.268398555327, 3759.6751761049245, 22237.862317307274, 5527.027610186054, 37661.303599036175, 25259.013504864397, 36088.07606554939, 29461.58849735123, 26078.137883918036, 24560.05210400249, 0.056, 0.96, 0.392, 192.0, 0.0, 0.0, 0.0, 0.0, 0.0, 0.0, 0.0, 0.0, 0.0, 1.707473985667585E9, 0.0, 2024-02-09 11:19:45.667
214.0, -16213.329579034995, -4273.318263687881, 10025.897327172439, -5601.034236077576, 43232.587663243736, 13664.247234373956, 30384.40261893304, 3724.4711785878158, 22467.370029374368, 5599.20139303224, 38110.50660735448, 25323.855915529242, 36738.55653268773, 29710.98926198355, 26345.4200441146, 24902.302015102152, 0.056, 0.96, 0.392, 192.0, 0.0, 0.0, 0.0, 0.0, 0.0, 0.0, 0.0, 0.0, 0.0, 1.7074739856755652E9, 0.0, 2024-02-09 11:19:45.675
216.0, -16211.608494711936, -4275.821659066875, 10031.50761503072, -5598.44143372076, 42997.76023599628, 13637.022809627391, 30248.25814345576, 3612.9359737558334, 22156.256098300946, 5507.022798898554, 37610.40867691144, 25230.984417317442, 36121.6260339768, 29437.58272380623, 26040.519897999755, 24571.697362863706, 0.056, 0.96, 0.392, 192.0, 0.0, 0.0, 0.0, 0.0, 0.0, 0.0, 0.0, 0.0, 0.0, 1.7074739856829424E9, 0.0, 2024-02-09 11:19:45.682
218.0, -16178.192636751251, -4209.0122948899625, 10051.89240597396, -5626.269355567617, 43396.47065359005, 13695.740842311483, 30474.189576410008, 3788.7324438968235, 22425.795784687496, 5595.602762174936, 37971.545812075834, 25321.866610272722, 36485.87006162048, 29655.82515666785, 26257.82355759425, 24746.555059737573, 0.056, 0.96, 0.392, 192.0, 0.0, 0.0, 0.0, 0.0, 0.0, 0.0, 0.0, 0.0, 0.0, 1.7074739856916132E9, 0.0, 2024-02-09 11:19:45.691
220.0, -16238.989381669688, -4310.399807739235, 10004.953742617816, -5590.148936527841, 42976.23550608582, 13617.2638675289, 30233.93067525991, 3615.0593894790877, 22295.17219009068, 5539.723401036668, 37881.46828192095, 25264.24381306694, 36507.305384553125, 29575.403580117654, 26203.777039501318, 24762.581260512026, 0.06, 0.9560000000000001, 0.394, 192.0, 0.5, 112.0, 14.5, 112.0, 6.0, 40.0, 0.0, 0.0, 0.0, 1.7074739856996443E9, 0.0, 2024-02-09 11:19:45.699
222.0, -16169.72132560269, -4196.137690083706, 10069.796153282661, -5611.830128649489, 43258.91801821208, 13681.94981598256, 30412.387002991083, 3739.1562746949526, 22226.82055554635, 5548.619395329881, 37678.492090522304, 25263.506205499914, 36112.90885363923, 29477.994677781426, 26086.899767744515, 24557.883984790325, 0.06, 0.9560000000000001, 0.394, 192.0, 0.0, 0.0, 0.0, 0.0, 0.0, 0.0, 0.0, 0.0, 0.0, 1.7074739857067008E9, 0.0, 2024-02-09 11:19:45.706
224.0, -16218.06814885952, -4273.586484621344, 10022.879841670972, -5601.905954111333, 43226.82091317426, 13649.830359200283, 30366.230650690875, 3695.30215207364, 22463.145549672314, 5603.180003545285, 38116.0945434683, 25316.725709048, 36736.90250359804, 29679.54035753493, 26345.375340625687, 24876.77632293419, 0.06, 0.9560000000000001, 0.394, 192.0, 0.0, 0.0, 0.0, 0.0, 0.0, 0.0, 0.0, 0.0, 0.0, 1.7074739857157152E9, 0.0, 2024-02-09 11:19:45.715
226.0, -16218.917515148822, -4276.581618378355, 10029.250088840734, -5603.068244823008, 42991.92643069344, 13614.827527383271, 30242.960780019854, 3569.2383133457083, 22157.463092501534, 5477.049109583987, 37611.235691456284, 25215.69582411001, 36113.60175771735, 29429.267874868856, 26044.520860257253, 24551.42433064274, 0.06, 0.9560000000000001, 0.394, 192.0, 0.0, 0.0, 0.0, 0.0, 0.0, 0.0, 0.0, 0.0, 0.0, 1.707473985723672E9, 0.0, 2024-02-09 11:19:45.723
228.0, -16179.757258863123, -4209.526385012435, 10071.405478883444, -5614.467634495215, 43415.939023010615, 13701.485240636497, 30483.376143381138, 3763.810248829156, 22423.40414803078, 5594.552230185536, 37981.55939359181, 25319.452621871547, 36490.27335527818, 29634.322778501843, 26270.698162400506, 24741.52591723513, 0.06, 0.9560000000000001, 0.394, 192.0, 0.0, 0.0, 0.0, 0.0, 0.0, 0.0, 0.0, 0.0, 0.0, 1.7074739857306888E9, 0.0, 2024-02-09 11:19:45.730
230.0, -16238.452939802759, -4312.478519973579, 10013.3132950441, -5577.251979977129, 42988.28309634723, 13618.22499254048, 30228.94623624638, 3583.0069879301773, 22306.683338485163, 5514.532985035537, 37889.17963375802, 25255.057246095806, 36518.12362886949, 29569.70388528155, 26214.461173350952, 24773.980650184232, 0.062, 0.964, 0.396, 192.0, 0.5, 120.0, 15.0, 16.0, 6.0, 48.0, 0.0, 0.0, 0.0, 1.7074739857387E9, 0.0, 2024-02-09 11:19:45.738
232.0, -16171.889444814855, -4204.698408210088, 10083.184848211391, -5604.565811701514, 43250.536114041344, 13687.962435241037, 30385.073171266697, 3699.1243003754976, 22236.36475042877, 5539.611642314392, 37671.5406979967, 25264.959068889508, 36124.554112500446, 29461.54379386232, 26084.485779343344, 24554.28535393302, 0.062, 0.964, 0.396, 192.0, 0.0, 0.0, 0.0, 0.0, 0.0, 0.0, 0.0, 0.0, 0.0, 1.7074739857481143E9, 0.0, 2024-02-09 11:19:45.748
234.0, -16207.696939432257, -4264.668138583677, 10051.400667595944, -5587.1985062597405, 43256.12405015517, 13655.75357148094, 30423.853447896654, 3710.3225243476063, 22469.694610797716, 5590.908895839321, 38133.43949716562, 25324.325302162804, 36766.51856500132, 29698.27111938848, 26357.288820420366, 24885.73937246077, 0.062, 0.964, 0.396, 192.0, 0.0, 0.0, 0.0, 0.0, 0.0, 0.0, 0.0, 0.0, 0.0, 1.7074739857557712E9, 0.0, 2024-02-09 11:19:45.755
236.0, -16204.29947427505, -4267.216237451582, 10045.052772170637, -5588.338445226961, 43005.80686400019, 13640.979068395982, 30268.28530648772, 3607.459796364283, 22163.028676870905, 5517.684581003736, 37633.40862195595, 25233.308998740795, 36153.79019424799, 29426.4962585564, 26063.184566877433, 24573.95488905369, 0.062, 0.964, 0.396, 192.0, 0.0, 0.0, 0.0, 0.0, 0.0, 0.0, 0.0, 0.0, 0.0, 1.7074739857627313E9, 0.0, 2024-02-09 11:19:45.762
238.0, -16169.766029091601, -4207.425321033636, 10076.456973130344, -5603.5152797121145, 43409.63583107422, 13706.693197094584, 30476.312992133262, 3781.8704583490444, 22436.792842959505, 5607.806814647533, 37996.73622807697, 25330.360273165737, 36510.34522179904, 29636.937932603116, 26267.747732132404, 24750.868946417446, 0.062, 0.964, 0.396, 192.0, 0.0, 0.0, 0.0, 0.0, 0.0, 0.0, 0.0, 0.0, 0.0, 1.7074739857717757E9, 0.0, 2024-02-09 11:19:45.771
240.0, -16230.898050176866, -4314.445473485645, 10010.876954898471, -5578.660139877813, 42983.81274745616, 13612.54764944883, 30218.575026819115, 3583.0740431635436, 22314.23822811106, 5537.33176437995, 37906.21166303297, 25269.71999045849, 36528.4724865523, 29581.639716820686, 26202.57004530073, 24761.508376778173, 0.062, 0.96, 0.396, 192.0, 0.5, 120.0, 15.0, 0.0, 6.0, 48.0, 0.0, 0.0, 0.0, 1.707473985779766E9, 0.0, 2024-02-09 11:19:45.779
242.0, -16173.185845993263, -4209.235812334516, 10080.145010965469, -5609.125567570397, 43258.26981762288, 13687.425993374109, 30400.987613318877, 3728.0698094451204, 22239.672808608153, 5547.501808107115, 37678.357980055574, 25278.839502196253, 36107.45502799214, 29493.395029711133, 26077.512035073287, 24545.076435217434, 0.062, 0.96, 0.396, 192.0, 0.0, 0.0, 0.0, 0.0, 0.0, 0.0, 0.0, 0.0, 0.0, 1.7074739857877777E9, 0.0, 2024-02-09 11:19:45.787
244.0, -16227.008846641642, -4290.864383085297, 10023.528042260175, -5612.120701327408, 43242.69065173753, 13631.501928746931, 30355.255944163317, 3676.4149280089055, 22470.052238709002, 5566.679604849769, 38118.17325570265, 25321.553685850347, 36741.8198873782, 29705.40132586972, 26336.702863777027, 24868.72969493028, 0.062, 0.96, 0.396, 192.0, 0.0, 0.0, 0.0, 0.0, 0.0, 0.0, 0.0, 0.0, 0.0, 1.7074739857947817E9, 0.0, 2024-02-09 11:19:45.794
246.0, -16216.190602325274, -4269.116135730283, 10044.873958214994, -5587.042044048553, 43004.97984945534, 13616.034521583859, 30241.150288718974, 3587.8796682214343, 22162.313421048337, 5518.37748508185, 37621.651604372455, 25239.27691451036, 36133.427755049204, 29427.502087056888, 26048.745339959307, 24557.235784201122, 0.062, 0.96, 0.396, 192.0, 0.0, 0.0, 0.0, 0.0, 0.0, 0.0, 0.0, 0.0, 0.0, 1.7074739858038177E9, 0.0, 2024-02-09 11:19:45.803
248.0, -16173.945805304744, -4205.391312288202, 10075.786420796683, -5609.907878626333, 43406.03720021692, 13692.812763787839, 30452.709549988456, 3758.4234784154273, 22423.493555008597, 5613.506509483637, 37975.65853305561, 25340.955000037553, 36490.34041051155, 29626.76788887595, 26261.601002407195, 24731.400576996875, 0.062, 0.96, 0.396, 192.0, 0.0, 0.0, 0.0, 0.0, 0.0, 0.0, 0.0, 0.0, 0.0, 1.7074739858117948E9, 0.0, 2024-02-09 11:19:45.811
250.0, -16244.778483483611, -4311.025656583984, 10012.59803922153, -5580.805907345522, 42988.596020769604, 13594.509791673398, 30225.347605389074, 3566.6008074999822, 22308.09149838585, 5547.501808107115, 37905.98814558842, 25287.8696069562, 36536.42970757839, 29591.273318680924, 26210.259045393355, 24768.90680419288, 0.062, 0.968, 0.396, 192.0, 0.5, 120.0, 15.0, 32.0, 6.0, 48.0, 0.0, 0.0, 0.0, 1.7074739858188329E9, 0.0, 2024-02-09 11:19:45.818
252.0, -16181.34423271945, -4207.626486733733, 10082.223723199812, -5604.990494846165, 43254.402965832116, 13682.530961338398, 30405.63677616558, 3704.466367300316, 22227.960494513572, 5539.678697547758, 37676.54748875469, 25290.73063024648, 36118.36267928632, 29461.297924673312, 26082.2059014089, 24543.80238578348, 0.062, 0.968, 0.396, 192.0, 0.0, 0.0, 0.0, 0.0, 0.0, 0.0, 0.0, 0.0, 0.0, 1.707473985827139E9, 0.0, 2024-02-09 11:19:45.827
254.0, -16219.945695393766, -4272.334786931848, 10035.218004610302, -5593.68051215178, 43253.08421290925, 13648.779827210883, 30372.086807738164, 3680.751166433235, 22481.943366759228, 5587.891410337855, 38126.331642428835, 25350.521546664426, 36758.04725385276, 29703.79200026894, 26347.185831926567, 24879.63734622447, 0.062, 0.968, 0.396, 192.0, 0.0, 0.0, 0.0, 0.0, 0.0, 0.0, 0.0, 0.0, 0.0, 1.7074739858358483E9, 0.0, 2024-02-09 11:19:45.835
0.0, -16212.502564490149, -4264.757545561498, 10043.599908781041, -5590.283046994573, 42993.8486807166, 13594.062756784291, 30229.102698457566, 3506.0275800260997, 22170.114179863238, 5492.0471301134985, 37640.471773203826, 25260.5110717429, 36159.48988908409, 29429.87137196915, 26054.020351650757, 24566.176481983242, 0.062, 0.968, 0.396, 192.0, 0.0, 0.0, 0.0, 0.0, 0.0, 0.0, 0.0, 0.0, 0.0, 1.7074739858428965E9, 0.0, 2024-02-09 11:19:45.842
2.0, -16167.262633712608, -4186.817012645843, 10085.397670912465, -5603.962314601221, 43406.41717987265, 13688.94591199707, 30461.60554428167, 3739.960937495344, 22435.027055147537, 5608.8573466369335, 37985.5156523604, 25359.842224102285, 36506.43366651937, 29618.29657772739, 26258.20353724999, 24719.88942860239, 0.062, 0.968, 0.396, 192.0, 0.0, 0.0, 0.0, 0.0, 0.0, 0.0, 0.0, 0.0, 0.0, 1.7074739858509352E9, 0.0, 2024-02-09 11:19:45.850
4.0, -16228.573468753513, -4297.145223277238, 10033.787492965163, -5561.248130947129, 43003.906965721486, 13616.12392856168, 30255.567163892647, 3577.37434832744, 22332.5219550755, 5553.872055276877, 37937.52645701486, 25322.894790517665, 36579.85914705505, 29595.52015012743, 26229.95093225848, 24778.33924035302, 0.062, 0.9580000000000001, 0.388, 192.0, 0.5, 120.0, 14.5, 120.0, 6.0, 16.0, 0.0, 0.0, 0.0, 1.7074739858599546E9, 0.0, 2024-02-09 11:19:45.859
6.0, -16167.82142732399, -4192.315541781848, 10099.14399375248, -5585.924456825788, 43254.02298617637, 13691.114031209236, 30429.59784622167, 3698.252582341741, 22251.87686108075, 5545.356040639405, 37697.73694249832, 25328.7285958205, 36148.738700001086, 29481.615660383188, 26092.912387002994, 24553.972429510646, 0.062, 0.9580000000000001, 0.388, 192.0, 0.0, 0.0, 0.0, 0.0, 0.0, 0.0, 0.0, 0.0, 0.0, 1.7074739858679132E9, 0.0, 2024-02-09 11:19:45.867
8.0, -16211.697901689757, -4254.922778001163, 10047.623222782997, -5578.503677666626, 43246.93748318404, 13653.808969713327, 30396.092581283163, 3682.762823434213, 22490.079401740957, 5607.248021036151, 38156.37238697677, 25391.089962850805, 36781.51658553083, 29720.60051209933, 26356.21593668651, 24886.476980027794, 0.062, 0.9580000000000001, 0.388, 192.0, 0.0, 0.0, 0.0, 0.0, 0.0, 0.0, 0.0, 0.0, 0.0, 1.7074739858749833E9, 0.0, 2024-02-09 11:19:45.874
10.0, -16210.759128422635, -4252.061754710884, 10057.122714176503, -5573.698052608735, 42978.671846231446, 13633.13360609217, 30248.615771367047, 3571.9428744248003, 22178.049049144873, 5524.8594909738895, 37654.97805535532, 25292.161141891618, 36166.284819398505, 29451.038473968325, 26056.747264474307, 24569.931575051734, 0.062, 0.9580000000000001, 0.388, 192.0, 0.0, 0.0, 0.0, 0.0, 0.0, 0.0, 0.0, 0.0, 0.0, 1.7074739858829193E9, 0.0, 2024-02-09 11:19:45.882
12.0, -16183.19942750924, -4191.443823748091, 10083.073089489113, -5608.075035580997, 43384.44541507309, 13701.99933075897, 30478.347000878694, 3765.5536848966703, 22440.480880794632, 5598.0614540650195, 37994.702219331535, 25383.19979705808, 36506.321907797086, 29649.90194438719, 26263.612659408172, 24741.212992812754, 0.062, 0.9580000000000001, 0.388, 192.0, 0.0, 0.0, 0.0, 0.0, 0.0, 0.0, 0.0, 0.0, 0.0, 1.707473985892036E9, 0.0, 2024-02-09 11:19:45.892
14.0, -16246.343105595482, -4301.3473512348355, 10009.513498486698, -5576.3355584544615, 42961.17043032294, 13600.45535569851, 30213.41177384994, 3574.7368424817137, 22316.22753336758, 5548.708802307702, 37929.77040168887, 25318.96088349353, 36549.23725715128, 29598.314118184346, 26207.152152914066, 24778.33924035302, 0.068, 0.9500000000000001, 0.4, 192.0, 1.0, 16.0, 14.5, 88.0, 6.0, 64.0, 0.0, 0.0, 0.0, 1.7074739858989632E9, 0.0, 2024-02-09 11:19:45.898
16.0, -16188.295625245051, -4202.9102686536635, 10088.057528502648, -5598.329674998484, 43217.16495956957, 13675.534865323885, 30421.662976940035, 3725.700524532858, 22239.58340163033, 5574.39095668685, 37677.68742772191, 25320.190229438573, 36108.885539637275, 29480.229852226956, 26076.1038751726, 24552.318400420954, 0.068, 0.9500000000000001, 0.4, 192.0, 0.0, 0.0, 0.0, 0.0, 0.0, 0.0, 0.0, 0.0, 0.0, 1.7074739859069667E9, 0.0, 2024-02-09 11:19:45.906
18.0, -16239.726989236713, -4276.201638722616, 10028.534833018164, -5603.671741923302, 43212.62755544514, 13629.758492679417, 30373.24909844984, 3693.178736350386, 22479.395267891323, 5591.91472433981, 38126.465752895565, 25364.469035204536, 36765.60214347865, 29709.245825916034, 26336.233477143465, 24875.189349077864, 0.068, 0.9500000000000001, 0.4, 192.0, 0.0, 0.0, 0.0, 0.0, 0.0, 0.0, 0.0, 0.0, 0.0, 1.7074739859150016E9, 0.0, 2024-02-09 11:19:45.915
20.0, -16232.507375777648, -4276.089880000339, 10041.074161657592, -5594.216954018707, 42951.179200551414, 13619.45433848552, 30252.728492346825, 3598.5190985821605, 22159.184176824594, 5519.584479282436, 37627.15013350846, 25268.33418230226, 36158.461708839146, 29435.30284587179, 26037.48006075383, 24559.068627246455, 0.068, 0.9500000000000001, 0.4, 192.0, 0.0, 0.0, 0.0, 0.0, 0.0, 0.0, 0.0, 0.0, 0.0, 1.7074739859230049E9, 0.0, 2024-02-09 11:19:45.923
22.0, -16197.68335791628, -4214.1755478591385, 10075.764069052228, -5622.648372965858, 43374.74475797949, 13690.510534108942, 30496.80954179878, 3775.7684321127454, 22424.72290095364, 5601.391863988861, 37961.15225090412, 25362.45737820356, 36476.88466034945, 29631.3946999782, 26249.933391801525, 24721.856382114456, 0.068, 0.9500000000000001, 0.4, 192.0, 0.0, 0.0, 0.0, 0.0, 0.0, 0.0, 0.0, 0.0, 0.0, 1.707473985931009E9, 0.0, 2024-02-09 11:19:45.931
24.0, -16265.431495360315, -4330.76224693802, 10004.193783306335, -5601.078939566486, 42957.10241283207, 13602.288198743845, 30251.81207082416, 3586.7173775097585, 22319.37912933578, 5544.104342949909, 37910.793770646305, 25298.77725825039, 36564.59290559208, 29572.56490857183, 26204.08996392369, 24769.33148733753, 0.066, 0.9460000000000001, 0.397, 192.0, 1.0, 0.0, 14.5, 56.0, 6.0, 40.0, 0.0, 0.0, 0.0, 1.707473985939024E9, 0.0, 2024-02-09 11:19:45.939
26.0, -16187.848590355945, -4207.7829489449205, 10085.688243590384, -5604.1634803013185, 43203.95507859648, 13684.296749150366, 30399.19947376245, 3702.3653033215173, 22223.646607833696, 5552.620357587381, 37652.92169486543, 25300.498342573446, 36109.8243129044, 29473.12199749017, 26052.05339813869, 24534.392301367796, 0.066, 0.9460000000000001, 0.397, 192.0, 0.0, 0.0, 0.0, 0.0, 0.0, 0.0, 0.0, 0.0, 0.0, 1.707473985948052E9, 0.0, 2024-02-09 11:19:45.948
28.0, -16236.485986290692, -4275.687548600144, 10036.626164510986, -5600.028407577087, 43224.8539596622, 13668.695231520562, 30392.8739300816, 3727.622774556014, 22501.791715835538, 5632.751361459656, 38126.55515987339, 25377.50010222198, 36771.503004014856, 29728.334215680865, 26335.585276554262, 24887.81808469511, 0.066, 0.9460000000000001, 0.397, 192.0, 0.0, 0.0, 0.0, 0.0, 0.0, 0.0, 0.0, 0.0, 0.0, 1.707473985955263E9, 0.0, 2024-02-09 11:19:45.955
30.0, -16235.703675234758, -4276.738080589543, 10038.637821511964, -5590.417157461305, 42963.159735579466, 13635.212318326512, 30269.961687321866, 3616.869880779968, 22166.694362961574, 5523.853662473401, 37617.58358688159, 25269.742342202946, 36157.2323628941, 29430.519572558354, 26038.24002006531, 24578.984031556134, 0.066, 0.9460000000000001, 0.397, 192.0, 0.0, 0.0, 0.0, 0.0, 0.0, 0.0, 0.0, 0.0, 0.0, 1.7074739859630573E9, 0.0, 2024-02-09 11:19:45.963
32.0, -16190.888427601867, -4207.872355922742, 10075.764069052228, -5611.248983293651, 43395.42012160065, 13700.546467369375, 30504.677355847045, 3794.387435244016, 22423.448851519686, 5628.30336431305, 37946.02011990787, 25369.185253284606, 36477.57756442756, 29639.24016228201, 26246.625333622138, 24741.011827112656, 0.066, 0.9460000000000001, 0.397, 192.0, 0.0, 0.0, 0.0, 0.0, 0.0, 0.0, 0.0, 0.0, 0.0, 1.7074739859710915E9, 0.0, 2024-02-09 11:19:45.971
34.0, -16272.472294863737, -4329.1082178483275, 10003.612637950497, -5590.685378394768, 42982.449291044395, 13612.011207581903, 30256.193012737396, 3606.6327818194372, 22325.838783483363, 5572.871038063889, 37902.5459769423, 25313.305892146338, 36562.20126893536, 29602.024507763927, 26209.85671399316, 24786.318813123562, 0.064, 0.9460000000000001, 0.3985, 192.0, 0.5, 120.0, 14.5, 72.0, 6.0, 64.0, 0.0, 0.0, 0.0, 1.7074739859791002E9, 0.0, 2024-02-09 11:19:45.979
36.0, -16212.346102278962, -4230.469969567057, 10077.28398767519, -5610.086692581975, 43227.759686441386, 13697.394871401177, 30457.425768068526, 3759.786934827201, 22209.475601849033, 5542.42796211576, 37634.41445045644, 25297.14558090515, 36097.53085345398, 29470.663305600086, 26067.67726751295, 24560.543842380506, 0.064, 0.9460000000000001, 0.3985, 192.0, 0.0, 0.0, 0.0, 0.0, 0.0, 0.0, 0.0, 0.0, 0.0, 1.7074739859871144E9, 0.0, 2024-02-09 11:19:45.987
38.0, -16248.332410852005, -4290.484403429557, 10031.440559797355, -5604.1634803013185, 43254.04533792083, 13667.577644297797, 30436.258666069352, 3755.294234191684, 22471.482750354142, 5617.39571301886, 38105.25394740748, 25363.373799726225, 36740.99287283336, 29708.463514860097, 26343.16251792461, 24904.291320358672, 0.064, 0.9460000000000001, 0.3985, 192.0, 0.0, 0.0, 0.0, 0.0, 0.0, 0.0, 0.0, 0.0, 0.0, 1.7074739859951148E9, 0.0, 2024-02-09 11:19:45.995
40.0, -16248.757093996657, -4294.798290109431, 10035.732094732773, -5590.752433628134, 42972.592171739605, 13630.831376413273, 30287.887786375024, 3610.633744076937, 22168.52720600691, 5503.647685485803, 37625.20553174085, 25261.069865354286, 36163.04381645248, 29425.11045040017, 26049.862927182072, 24599.10060156591, 0.064, 0.9460000000000001, 0.3985, 192.0, 0.0, 0.0, 0.0, 0.0, 0.0, 0.0, 0.0, 0.0, 0.0, 1.707473986004198E9, 0.0, 2024-02-09 11:19:46.004
42.0, -16202.578389951992, -4216.83540544932, 10080.882618532494, -5610.2655065376175, 43406.48423510602, 13712.974037286525, 30529.130164281152, 3795.817946889156, 22415.871610149337, 5628.884509668888, 37944.74607047392, 25362.032695058908, 36469.24036374573, 29632.95932209007, 26244.591324876706, 24742.12941433542, 0.064, 0.9460000000000001, 0.3985, 192.0, 0.0, 0.0, 0.0, 0.0, 0.0, 0.0, 0.0, 0.0, 0.0, 1.7074739860111313E9, 0.0, 2024-02-09 11:19:46.011
44.0, -16269.074829706531, -4330.583432982377, 10007.233620552257, -5595.133375541374, 42993.87103246105, 13610.26777151439, 30270.587536166615, 3598.7202642822585, 22327.492812573055, 5561.918683280788, 37914.280642781334, 25302.331185618783, 36569.5326411167, 29574.5318620839, 26215.981091973914, 24799.796915030114, 0.066, 0.9460000000000001, 0.40225, 192.0, 1.0, 16.0, 14.5, 72.0, 6.0, 88.0, 0.0, 0.0, 0.0, 1.7074739860191605E9, 0.0, 2024-02-09 11:19:46.019
46.0, -16201.617264940414, -4229.039457921917, 10081.575522610608, -5609.34908501495, 43228.56434924178, 13686.263702662434, 30436.079852113708, 3735.021201970721, 22224.071290978347, 5561.963386769698, 37641.05291855966, 25292.854045969732, 36112.662984450224, 29440.175526163046, 26055.897898185005, 24549.256211430577, 0.066, 0.9460000000000001, 0.40225, 192.0, 0.0, 0.0, 0.0, 0.0, 0.0, 0.0, 0.0, 0.0, 0.0, 1.7074739860271628E9, 0.0, 2024-02-09 11:19:46.027
48.0, -16235.860137445945, -4284.94117080464, 10049.143141405957, -5590.998302817143, 43270.742091028944, 13674.797257756862, 30451.8378319547, 3747.471123632327, 22485.765515061084, 5631.119684114419, 38122.71065982708, 25365.050180560374, 36768.41846328002, 29718.521799864986, 26348.07990170478, 24903.620768025015, 0.066, 0.9460000000000001, 0.40225, 192.0, 0.0, 0.0, 0.0, 0.0, 0.0, 0.0, 0.0, 0.0, 0.0, 1.70747398603518E9, 0.0, 2024-02-09 11:19:46.035
50.0, -16240.933983437299, -4294.8876970872525, 10047.109132660526, -5591.1324132838745, 42970.87108741654, 13619.11906231869, 30280.57876593814, 3593.668770035359, 22177.57966251131, 5537.488226591137, 37638.370709225026, 25271.172853848086, 36178.06418872645, 29447.417491366567, 26047.20306959189, 24600.68757542224, 0.066, 0.9460000000000001, 0.40225, 192.0, 0.0, 0.0, 0.0, 0.0, 0.0, 0.0, 0.0, 0.0, 0.0, 1.7074739860431638E9, 0.0, 2024-02-09 11:19:46.043
52.0, -16197.951578849743, -4216.410722304669, 10093.041967516181, -5610.176099559796, 43396.73887452351, 13718.159642000157, 30522.08936477773, 3815.0851506096305, 22428.835621933416, 5601.1683465443075, 37942.28737858384, 25351.616782142733, 36458.33271245155, 29617.022528293437, 26226.95579850147, 24729.903010118367, 0.066, 0.9460000000000001, 0.40225, 192.0, 0.0, 0.0, 0.0, 0.0, 0.0, 0.0, 0.0, 0.0, 0.0, 1.7074739860511591E9, 0.0, 2024-02-09 11:19:46.051
54.0, -16261.497588336182, -4321.821549155897, 10027.908984173417, -5570.479401407171, 42996.7991109847, 13630.183175824068, 30305.076277861153, 3640.0933432690317, 22346.022408726505, 5590.8194888615, 37925.27770105335, 25313.641168313166, 36576.66284759794, 29607.970071789037, 26217.76923153034, 24814.392604159428, 0.068, 0.9480000000000001, 0.404125, 192.0, 1.0, 24.0, 14.5, 88.0, 6.0, 88.0, 0.0, 0.0, 0.0, 1.7074739860602736E9, 0.0, 2024-02-09 11:19:46.060
56.0, -16206.02055859811, -4230.000582933496, 10090.024482014715, -5605.1022535684415, 43218.595471214714, 13685.190818928579, 30452.754253477367, 3731.6684403024246, 22226.105299723782, 5583.9127998248105, 37642.32696799361, 25301.906502474132, 36102.29177502296, 29478.93345104855, 26063.899822700005, 24559.314496435465, 0.068, 0.9480000000000001, 0.404125, 192.0, 0.0, 0.0, 0.0, 0.0, 0.0, 0.0, 0.0, 0.0, 0.0, 1.7074739860672233E9, 0.0, 2024-02-09 11:19:46.067
58.0, -16241.760997982145, -4282.437775425646, 10048.94197570586, -5592.674683651291, 43268.998654961426, 13678.03826070288, 30460.152680892075, 3759.474010404827, 22494.750916332116, 5643.457847053748, 38117.949738258096, 25366.525395694425, 36757.75668117484, 29720.89108477725, 26337.418119599595, 24894.188331864876, 0.068, 0.9480000000000001, 0.404125, 192.0, 0.0, 0.0, 0.0, 0.0, 0.0, 0.0, 0.0, 0.0, 0.0, 1.7074739860752473E9, 0.0, 2024-02-09 11:19:46.075
60.0, -16254.45678883276, -4305.549479192434, 10031.93229817537, -5605.370474501905, 42961.12572683403, 13624.237611798957, 30279.08119905963, 3610.030246976644, 22159.452397758057, 5525.708857263191, 37626.6807468749, 25255.14665307363, 36162.082691440904, 29435.68282552753, 26033.1438223295, 24588.036488060534, 0.068, 0.9480000000000001, 0.404125, 192.0, 0.0, 0.0, 0.0, 0.0, 0.0, 0.0, 0.0, 0.0, 0.0, 1.7074739860832438E9, 0.0, 2024-02-09 11:19:46.083
62.0, -16196.118735804408, -4222.579803774333, 10091.320883193122, -5605.281067524084, 43397.25296464598, 13710.80591807436, 30526.716175879978, 3815.0404471207203, 22408.942569368195, 5618.692114197268, 37932.56436974578, 25346.319418706826, 36444.96636926727, 29605.645490365685, 26221.41256587655, 24724.248018771177, 0.068, 0.9480000000000001, 0.404125, 192.0, 0.0, 0.0, 0.0, 0.0, 0.0, 0.0, 0.0, 0.0, 0.0, 1.7074739860912795E9, 0.0, 2024-02-09 11:19:46.091
64.0, -16269.611271573458, -4330.136398093271, 10021.583440492564, -5579.934189311765, 42993.02166617175, 13622.896507131638, 30277.315411247662, 3628.917471041378, 22338.311056889423, 5575.709709609712, 37931.87146566766, 25307.472086843503, 36573.31008592965, 29602.85152230877, 26208.42620234802, 24808.312929667587, 0.07100000000000001, 0.9490000000000001, 0.4030625, 192.0, 1.0, 40.0, 14.5, 88.0, 6.0, 72.0, 0.0, 0.0, 0.0, 1.707473986099228E9, 0.0, 2024-02-09 11:19:46.099
66.0, -16198.890352116867, -4231.073466667351, 10095.47830766181, -5596.58623893097, 43212.33698276723, 13694.913827766637, 30428.077927598708, 3743.581920097103, 22220.807936287874, 5580.560038156515, 37639.488296447795, 25293.971633192497, 36093.39578072975, 29457.676942071554, 26047.001903891793, 24556.229955700634, 0.07100000000000001, 0.9490000000000001, 0.4030625, 192.0, 0.0, 0.0, 0.0, 0.0, 0.0, 0.0, 0.0, 0.0, 0.0, 1.7074739861074293E9, 0.0, 2024-02-09 11:19:46.107
68.0, -16236.217765357229, -4285.634074882755, 10051.624185040497, -5596.787404631067, 43263.79069850334, 13662.280280861889, 30440.416090538038, 3743.8054375416564, 22495.622634365875, 5631.857291681444, 38117.50270336899, 25358.009381056952, 36744.90442811304, 29709.268177660488, 26329.34913985123, 24900.133895889987, 0.07100000000000001, 0.9490000000000001, 0.4030625, 192.0, 0.0, 0.0, 0.0, 0.0, 0.0, 0.0, 0.0, 0.0, 0.0, 1.7074739861163137E9, 0.0, 2024-02-09 11:19:46.116
70.0, -16246.03018117311, -4304.051912313928, 10043.443446569854, -5591.512392939615, 42955.98482560931, 13623.611762954208, 30261.26685872875, 3589.243124633208, 22174.606880498755, 5553.045040732031, 37633.25215974476, 25260.421664765083, 36166.24011590959, 29441.71779653046, 26034.35081653009, 24601.693403922727, 0.07100000000000001, 0.9490000000000001, 0.4030625, 192.0, 0.0, 0.0, 0.0, 0.0, 0.0, 0.0, 0.0, 0.0, 0.0, 1.7074739861224957E9, 0.0, 2024-02-09 11:19:46.122
72.0, -16194.196485781253, -4224.144425886206, 10099.814546086138, -5608.678532681291, 43394.92838322263, 13717.757310599962, 30527.386728213638, 3810.7042086963907, 22421.3924910298, 5627.386942790383, 37930.88798891163, 25349.046331530375, 36434.61751158447, 29617.2907492269, 26212.80714426126, 24729.903010118367, 0.07100000000000001, 0.9490000000000001, 0.4030625, 192.0, 0.0, 0.0, 0.0, 0.0, 0.0, 0.0, 0.0, 0.0, 0.0, 1.707473986131307E9, 0.0, 2024-02-09 11:19:46.131
74.0, -16269.901844251377, -4344.866197689319, 10017.895402657437, -5598.44143372076, 42984.528003278734, 13600.567114420786, 30261.46802442885, 3591.791223501113, 22339.406292367734, 5574.301549709028, 37932.184390090035, 25298.8219617393, 36567.67744632691, 29590.5357111139, 26200.84896097767, 24810.95043551331, 0.07050000000000001, 0.9505000000000001, 0.40253125, 192.0, 1.0, 24.0, 14.5, 96.0, 6.0, 72.0, 0.0, 0.0, 0.0, 1.7074739861393404E9, 0.0, 2024-02-09 11:19:46.139
76.0, -16204.098308574952, -4238.516597570968, 10093.131374494002, -5609.684361181779, 43195.21554651446, 13682.910940994137, 30398.081886539687, 3704.39931206695, 22224.96536075656, 5547.255938918107, 37625.853732330055, 25282.505188286923, 36072.9662862976, 29453.385407136135, 26018.235208777813, 24527.418557097742, 0.07050000000000001, 0.9505000000000001, 0.40253125, 192.0, 0.0, 0.0, 0.0, 0.0, 0.0, 0.0, 0.0, 0.0, 0.0, 1.7074739861472914E9, 0.0, 2024-02-09 11:19:46.147
78.0, -16238.542346780581, -4285.477612671568, 10055.51338857572, -5598.955523843232, 43257.97924494496, 13669.768115254417, 30428.077927598708, 3755.562455125148, 22489.386497662843, 5645.6036145214575, 38110.819531776855, 25367.64298291719, 36731.53808492876, 29728.490677892052, 26316.1616106226, 24892.40019230845, 0.07050000000000001, 0.9505000000000001, 0.40253125, 192.0, 0.0, 0.0, 0.0, 0.0, 0.0, 0.0, 0.0, 0.0, 0.0, 1.707473986155306E9, 0.0, 2024-02-09 11:19:46.155
80.0, -16240.799872970567, -4294.351255220325, 10046.527987304687, -5589.925419083288, 42949.100488317075, 13630.74196943545, 30255.298942959183, 3607.213927175275, 22171.18706359709, 5549.692279063735, 37628.31242422014, 25265.830786923267, 36159.44518559518, 29453.58657283623, 26024.896028625495, 24593.49031370763, 0.07050000000000001, 0.9505000000000001, 0.40253125, 192.0, 0.0, 0.0, 0.0, 0.0, 0.0, 0.0, 0.0, 0.0, 0.0, 1.7074739861633325E9, 0.0, 2024-02-09 11:19:46.163
82.0, -16194.688224159268, -4213.035608891918, 10091.320883193122, -5611.718369927213, 43393.90020297768, 13722.942915313592, 30536.953274840507, 3824.8975664255104, 22414.15052582628, 5659.439344339293, 37925.00948011989, 25356.9364973231, 36421.13940967791, 29620.308234728367, 26211.264873893844, 24725.09738506048, 0.07050000000000001, 0.9505000000000001, 0.40253125, 192.0, 0.0, 0.0, 0.0, 0.0, 0.0, 0.0, 0.0, 0.0, 0.0, 1.707473986170344E9, 0.0, 2024-02-09 11:19:46.170
84.0, -16268.381925628415, -4325.0625521019165, 10007.703007185819, -5595.088672052464, 42984.01391315626, 13614.291085516345, 30264.843137841603, 3610.4996336102054, 22347.497623860556, 5607.471538480704, 37933.3019773128, 25306.376851365192, 36567.699798071364, 29614.921464314637, 26202.07830692271, 24812.492705880726, 0.06625, 0.9532500000000002, 0.399265625, 192.0, 0.5, 120.0, 14.5, 112.0, 6.0, 48.0, 0.0, 0.0, 0.0, 1.7074739861787121E9, 0.0, 2024-02-09 11:19:46.178
86.0, -16200.16440155082, -4229.55354804439, 10077.149877208458, -5614.691151939768, 43191.035770301314, 13677.635929302685, 30399.15477027354, 3701.9629719213217, 22200.311386622358, 5586.282084737073, 37621.71865960582, 25282.14756037564, 36053.63202734375, 29441.67309304155, 26019.285740767213, 24535.733406035117, 0.06625, 0.9532500000000002, 0.399265625, 192.0, 0.0, 0.0, 0.0, 0.0, 0.0, 0.0, 0.0, 0.0, 0.0, 1.7074739861873534E9, 0.0, 2024-02-09 11:19:46.187
88.0, -16233.535556022593, -4280.984912036051, 10041.968231435803, -5611.58425946048, 43263.25425663641, 13664.85073147425, 30427.340320031682, 3741.7714287962235, 22488.425372651265, 5628.4598265242375, 38113.63585157822, 25350.745064108978, 36711.667384108, 29677.86397670078, 26312.227703598466, 24874.429389766385, 0.06625, 0.9532500000000002, 0.399265625, 192.0, 0.0, 0.0, 0.0, 0.0, 0.0, 0.0, 0.0, 0.0, 0.0, 1.707473986195408E9, 0.0, 2024-02-09 11:19:46.195
90.0, -16236.485986290692, -4295.602952909822, 10046.12565590449, -5597.972047087199, 42962.310369290164, 13625.131681577168, 30258.115262760555, 3600.597810816504, 22190.05193591737, 5564.310319937506, 37644.47273546133, 25263.170929333082, 36158.57346756142, 29448.44567161151, 26042.44214802291, 24594.607900930394, 0.06625, 0.9532500000000002, 0.399265625, 192.0, 0.0, 0.0, 0.0, 0.0, 0.0, 0.0, 0.0, 0.0, 0.0, 1.707473986202422E9, 0.0, 2024-02-09 11:19:46.202
92.0, -16194.308244503529, -4219.74113222851, 10087.2305139578, -5624.570622989014, 43401.56685132586, 13699.406528402154, 30504.342079680217, 3775.1872867569077, 22417.413880516753, 5634.047762638064, 37926.37293653166, 25348.621648385724, 36412.578691551535, 29606.00311827697, 26214.2376559064, 24700.376355692908, 0.06625, 0.9532500000000002, 0.399265625, 192.0, 0.0, 0.0, 0.0, 0.0, 0.0, 0.0, 0.0, 0.0, 0.0, 1.7074739862104297E9, 0.0, 2024-02-09 11:19:46.210
94.0, -16256.960184211754, -4324.704924190632, 10029.36184756301, -5590.081881294475, 43019.70964905139, 13620.393111752643, 30268.08414078762, 3604.1964416738087, 22349.732798306086, 5595.267486008106, 37946.42245130807, 25297.48085707198, 36582.89898430097, 29592.167388459136, 26214.550580328774, 24792.554949826594, 0.060125, 0.9546250000000001, 0.39863281250000004, 192.0, 0.5, 88.0, 14.5, 112.0, 6.0, 56.0, 0.0, 0.0, 0.0, 1.7074739862193646E9, 0.0, 2024-02-09 11:19:46.219
96.0, -16187.356851977927, -4227.139559643217, 10105.268371733233, -5593.859326107422, 43228.69845970851, 13708.503688395464, 30420.54538971727, 3720.0678849301203, 22224.853602034284, 5598.48613720967, 37652.1840872984, 25293.926929703586, 36087.53962368246, 29474.619564368673, 26044.07382536815, 24547.222202685145, 0.060125, 0.9546250000000001, 0.39863281250000004, 192.0, 0.0, 0.0, 0.0, 0.0, 0.0, 0.0, 0.0, 0.0, 0.0, 1.7074739862264316E9, 0.0, 2024-02-09 11:19:46.226
98.0, -16225.064244874031, -4284.270618470981, 10060.877807244993, -5594.753395885635, 43302.95095478904, 13675.445458346065, 30442.897134172577, 3714.7034662608467, 22505.680919370763, 5648.263472111639, 38134.33356694384, 25363.97729682652, 36752.23580029438, 29724.17679121218, 26332.098404419234, 24889.24859634025, 0.060125, 0.9546250000000001, 0.39863281250000004, 192.0, 0.0, 0.0, 0.0, 0.0, 0.0, 0.0, 0.0, 0.0, 0.0, 1.7074739862344294E9, 0.0, 2024-02-09 11:19:46.234
100.0, -16234.183756611796, -4305.840051870353, 10054.149932163946, -5584.516296925103, 42987.76900622476, 13629.64673395714, 30272.286268745218, 3560.9905196417, 22196.176313898126, 5556.9118925227995, 37655.492145477794, 25263.75207468892, 36195.297383701494, 29448.177450678046, 26038.843517165606, 24588.170598527267, 0.060125, 0.9546250000000001, 0.39863281250000004, 192.0, 0.0, 0.0, 0.0, 0.0, 0.0, 0.0, 0.0, 0.0, 0.0, 1.70747398624341E9, 0.0, 2024-02-09 11:19:46.243
102.0, -16192.140125291364, -4224.949088686596, 10099.255752474755, -5605.236364035173, 43431.540540640424, 13722.71939786904, 30537.400309729615, 3782.98804557181, 22418.509115995064, 5644.106047642952, 37933.03375637934, 25351.080340275807, 36432.2482266722, 29625.85146735328, 26214.438821606498, 24710.07701278651, 0.060125, 0.9546250000000001, 0.39863281250000004, 192.0, 0.0, 0.0, 0.0, 0.0, 0.0, 0.0, 0.0, 0.0, 0.0, 1.707473986251434E9, 0.0, 2024-02-09 11:19:46.251
104.0, -16262.88339649241, -4337.199549341149, 10023.93037366037, -5586.505602181626, 43046.062355764196, 13627.74683567844, 30295.777952167748, 3618.881537780945, 22360.86396704483, 5600.29662851055, 37962.046320682326, 25310.958958978532, 36626.26136854427, 29607.76890608894, 26224.832382778215, 24809.38581340144, 0.059062500000000004, 0.9513125, 0.39731640625000003, 192.0, 0.5, 104.0, 14.5, 80.0, 6.0, 48.0, 0.0, 0.0, 0.0, 1.707473986258464E9, 0.0, 2024-02-09 11:19:46.258
106.0, -16204.143012063863, -4244.864492996275, 10086.001168012759, -5620.167329331319, 43226.776209685355, 13667.868216975716, 30410.129476801096, 3683.4780792567826, 22217.96926474205, 5598.553192443036, 37637.78956386919, 25280.582938263768, 36106.225682047094, 29456.91698276007, 26032.830897907126, 24525.42925184122, 0.059062500000000004, 0.9513125, 0.39731640625000003, 192.0, 0.0, 0.0, 0.0, 0.0, 0.0, 0.0, 0.0, 0.0, 0.0, 1.7074739862664468E9, 0.0, 2024-02-09 11:19:46.266
108.0, -16240.710465992746, -4292.160784263705, 10050.216025139813, -5604.744625657157, 43311.75754210443, 13667.935272209083, 30446.22754409642, 3735.9599752378435, 22497.701346600217, 5648.2411203671845, 38126.10812498428, 25351.616782142733, 36771.19007959248, 29696.103000176314, 26322.442450814542, 24861.91241287141, 0.059062500000000004, 0.9513125, 0.39731640625000003, 192.0, 0.0, 0.0, 0.0, 0.0, 0.0, 0.0, 0.0, 0.0, 0.0, 1.7074739862755044E9, 0.0, 2024-02-09 11:19:46.275
110.0, -16245.963125939743, -4308.030522826973, 10042.594080280553, -5578.078994521975, 42980.88466893252, 13633.446530514542, 30259.61282963906, 3599.9049067383894, 22194.946967953085, 5563.930340281766, 37658.53198272371, 25259.23702230895, 36219.72784039114, 29457.78870079383, 26045.25846782428, 24595.904302108804, 0.059062500000000004, 0.9513125, 0.39731640625000003, 192.0, 0.0, 0.0, 0.0, 0.0, 0.0, 0.0, 0.0, 0.0, 0.0, 1.7074739862826753E9, 0.0, 2024-02-09 11:19:46.282
112.0, -16197.01280558262, -4228.637126521722, 10095.14303149498, -5613.886489139377, 43408.22767117354, 13689.839981775283, 30501.905739534588, 3760.211617971852, 22434.28944758051, 5647.324698844516, 37924.20481731949, 25353.091997276784, 36446.21806695677, 29624.10803128577, 26204.1346674126, 24698.36469869193, 0.059062500000000004, 0.9513125, 0.39731640625000003, 192.0, 0.0, 0.0, 0.0, 0.0, 0.0, 0.0, 0.0, 0.0, 0.0, 1.7074739862905226E9, 0.0, 2024-02-09 11:19:46.290
114.0, -16267.823132017033, -4333.176235339193, 10023.170414348891, -5578.794250344545, 43038.0604312492, 13625.60106821073, 30298.43780975793, 3616.981639502244, 22347.832900027384, 5593.3005324960395, 37954.491431056435, 25297.72672626099, 36615.71134516136, 29588.591109346286, 26217.76923153034, 24795.885359750435, 0.07053125, 0.9516562500000001, 0.394658203125, 192.0, 1.0, 72.0, 14.5, 96.0, 6.0, 32.0, 0.0, 0.0, 0.0, 1.707473986298535E9, 0.0, 2024-02-09 11:19:46.298
116.0, -16199.180924794786, -4229.508844555479, 10092.416118671432, -5591.445337706249, 43208.91716586556, 13697.372519656721, 30389.767037602312, 3715.262259872229, 22226.284113679423, 5596.720349397701, 37642.483430204804, 25293.524598303393, 36094.066333063405, 29469.50101488841, 26031.73566242882, 24531.0395396995, 0.07053125, 0.9516562500000001, 0.394658203125, 192.0, 0.0, 0.0, 0.0, 0.0, 0.0, 0.0, 0.0, 0.0, 0.0, 1.7074739863075397E9, 0.0, 2024-02-09 11:19:46.307
118.0, -16230.853346687956, -4278.5709236348775, 10060.65428980044, -5587.712596382213, 43311.936356060076, 13680.653414804152, 30469.47335832994, 3737.2563764162514, 22509.614826394896, 5666.614254309447, 38135.33939544432, 25362.770302625933, 36769.58075399169, 29706.40715437021, 26325.370529338186, 24876.284584556175, 0.07053125, 0.9516562500000001, 0.394658203125, 192.0, 0.0, 0.0, 0.0, 0.0, 0.0, 0.0, 0.0, 0.0, 0.0, 1.707473986314545E9, 0.0, 2024-02-09 11:19:46.314
120.0, -16243.660896260846, -4305.527127447978, 10058.352060121544, -5572.401651430328, 42978.60479099808, 13644.220071342, 30289.51946372026, 3613.628877833948, 22204.893494235694, 5571.753450841124, 37674.17820384243, 25269.161196847108, 36245.96878838167, 29478.665230115086, 26057.618982508062, 24611.282302294054, 0.07053125, 0.9516562500000001, 0.394658203125, 192.0, 0.0, 0.0, 0.0, 0.0, 0.0, 0.0, 0.0, 0.0, 0.0, 1.7074739863225777E9, 0.0, 2024-02-09 11:19:46.322
122.0, -16186.798058366545, -4212.677980980633, 10113.04677880368, -5590.1936400167515, 43411.08869446382, 13727.927354327127, 30549.04556859083, 3805.5186039827595, 22421.236028818614, 5637.042896395075, 37927.35641328769, 25353.87430833272, 36453.3035699491, 29634.076909312837, 26215.779926273815, 24716.626073911917, 0.07053125, 0.9516562500000001, 0.394658203125, 192.0, 0.0, 0.0, 0.0, 0.0, 0.0, 0.0, 0.0, 0.0, 0.0, 1.707473986331597E9, 0.0, 2024-02-09 11:19:46.331
124.0, -16260.335297624506, -4328.705886448131, 10033.809844709616, -5575.240322976151, 43022.637727575035, 13629.087940345758, 30300.51652199227, 3618.0321714916436, 22375.03497302949, 5612.075997838498, 37979.8159575243, 25326.225200441506, 36651.22826710084, 29631.841734867307, 26235.38240616112, 24825.322607198075, 0.07053125, 0.9516562500000001, 0.394658203125, 192.0, 0.0, 0.0, 0.0, 0.0, 0.0, 0.0, 0.0, 0.0, 0.0, 1.7074739863386152E9, 0.0, 2024-02-09 11:19:46.338
126.0, -16198.868000372411, -4229.97823118904, 10098.741662352284, -5584.739814369656, 43193.919145336054, 13695.919656267126, 30423.8310961522, 3719.4196843409163, 22244.858413321785, 5587.802003360034, 37648.54075295219, 25297.503208816437, 36124.04002237797, 29455.285305414833, 26038.597647976596, 24538.706188047672, 0.084, 0.9440000000000001, 0.396, 192.0, 1.0, 80.0, 14.5, 64.0, 6.0, 48.0, 0.0, 0.0, 0.0, 1.707473986346675E9, 0.0, 2024-02-09 11:19:46.346
128.0, -16237.02242815762, -4277.408632923202, 10048.047905927648, -5596.63094241988, 43278.587553332756, 13673.18793215608, 30420.25481703935, 3728.4050856119497, 22509.45836418371, 5647.682326755801, 38130.936101786625, 25364.91607009364, 36761.623532965605, 29724.22149470109, 26322.442450814542, 24890.12031437401, 0.084, 0.9440000000000001, 0.396, 192.0, 0.0, 0.0, 0.0, 0.0, 0.0, 0.0, 0.0, 0.0, 0.0, 1.7074739863546298E9, 0.0, 2024-02-09 11:19:46.354
130.0, -16254.725009766224, -4309.259868772015, 10039.643650012453, -5585.835049847967, 42945.255988270765, 13634.631172970674, 30248.213439966854, 3603.123557939954, 22192.2871103629, 5570.747622340635, 37659.761328668756, 25255.057246095806, 36230.3002155185, 29467.712875331985, 26031.71331068436, 24601.045203333524, 0.084, 0.9440000000000001, 0.396, 192.0, 0.0, 0.0, 0.0, 0.0, 0.0, 0.0, 0.0, 0.0, 0.0, 1.7074739863636208E9, 0.0, 2024-02-09 11:19:46.363
132.0, -16207.607532454436, -4232.459274823579, 10091.119717493024, -5622.246041565662, 43383.10431040577, 13700.52411562492, 30528.079632291752, 3786.430214217927, 22401.924121609227, 5613.35004727245, 37907.441008978014, 25332.617799355725, 36415.797342753096, 29630.925313344636, 26187.057934648747, 24702.097440015965, 0.084, 0.9440000000000001, 0.396, 192.0, 0.0, 0.0, 0.0, 0.0, 0.0, 0.0, 0.0, 0.0, 0.0, 1.7074739863707309E9, 0.0, 2024-02-09 11:19:46.370
134.0, -16275.847408276488, -4341.044049387461, 10010.385216520455, -5586.77382311509, 42996.08385516213, 13624.952867621527, 30261.490376173304, 3612.4442353778168, 22377.426609686212, 5580.1577067563185, 37969.62356205268, 25290.618871524202, 36625.00967085477, 29621.850505095783, 26216.159905929555, 24812.62681634746, 0.084, 0.9440000000000001, 0.396, 192.0, 0.0, 0.0, 0.0, 0.0, 0.0, 0.0, 0.0, 0.0, 0.0, 1.7074739863786218E9, 0.0, 2024-02-09 11:19:46.378
136.0, -16209.328616777495, -4243.322222628859, 10094.628941372508, -5597.636770920369, 43183.48088067542, 13703.921580782126, 30449.31208483125, 3743.939548008388, 22218.617465331256, 5597.279143009084, 37630.63700564349, 25275.129112616673, 36088.94778358314, 29471.06563700028, 26023.219647791346, 24534.32524613443, 0.084, 0.9380000000000001, 0.398, 192.0, 1.0, 80.0, 14.5, 40.0, 6.0, 56.0, 0.0, 0.0, 0.0, 1.7074739863879013E9, 0.0, 2024-02-09 11:19:46.387
138.0, -16243.683248005302, -4284.360025448803, 10048.919623961405, -5606.264544280118, 43287.170623203594, 13680.832228759793, 30475.664791544055, 3764.2349319738073, 22507.804335094017, 5653.650242525368, 38126.957491273584, 25346.4311774291, 36742.8704193676, 29728.64714010324, 26334.601799798227, 24886.700497472346, 0.084, 0.9380000000000001, 0.398, 192.0, 0.0, 0.0, 0.0, 0.0, 0.0, 0.0, 0.0, 0.0, 0.0, 1.7074739863946433E9, 0.0, 2024-02-09 11:19:46.394
140.0, -16258.636565045903, -4312.679685673676, 10041.543548291153, -5582.77286085759, 42951.55918020716, 13656.04414415886, 30292.112266077074, 3649.9951660627326, 22184.016964914437, 5557.090706478442, 37659.828383902124, 25244.08253956825, 36205.579186150935, 29480.16279699359, 26043.403273034488, 24613.182200572755, 0.084, 0.9380000000000001, 0.398, 192.0, 0.0, 0.0, 0.0, 0.0, 0.0, 0.0, 0.0, 0.0, 0.0, 1.7074739864026685E9, 0.0, 2024-02-09 11:19:46.402
142.0, -16202.466631229716, -4225.5078822979785, 10096.730005351306, -5611.070169338009, 43405.880738005726, 13732.867089851748, 30565.451749021024, 3856.1900086629403, 22404.606330943865, 5642.250852853162, 37911.419619491055, 25332.796613311366, 36411.48345607322, 29628.33251098782, 26204.402888346063, 24715.62024541143, 0.084, 0.9380000000000001, 0.398, 192.0, 0.0, 0.0, 0.0, 0.0, 0.0, 0.0, 0.0, 0.0, 0.0, 1.7074739864106605E9, 0.0, 2024-02-09 11:19:46.410
144.0, -16278.529617611126, -4341.893415676763, 10014.721454944785, -5596.832108119978, 43030.46083813439, 13621.153071064124, 30316.118039622077, 3654.599625420526, 22372.889205561783, 5598.284971509573, 37975.63618131116, 25292.58582503627, 36642.75695595228, 29629.517153443954, 26233.81778404925, 24835.24678173623, 0.084, 0.9380000000000001, 0.398, 192.0, 0.0, 0.0, 0.0, 0.0, 0.0, 0.0, 0.0, 0.0, 0.0, 1.7074739864187505E9, 0.0, 2024-02-09 11:19:46.418
146.0, -16219.073977360009, -4247.904330242197, 10083.207199955845, -5608.29855302555, 43193.04742730229, 13681.815705515828, 30425.842753153178, 3747.7393445657904, 22217.544581597398, 5551.055735475509, 37617.51653164822, 25253.827900150765, 36093.66400166321, 29455.68763681503, 26024.33723501411, 24528.223219898133, 0.084, 0.932, 0.402, 192.0, 1.0, 80.0, 14.5, 16.0, 6.0, 72.0, 0.0, 0.0, 0.0, 1.7074739864267461E9, 0.0, 2024-02-09 11:19:46.426
148.0, -16256.714315022746, -4290.462051685101, 10041.968231435803, -5610.421968748805, 43293.9208500291, 13656.871158703705, 30446.339302818695, 3783.8374118611114, 22499.82476232347, 5666.949530476276, 38113.90407251169, 25343.570154138823, 36744.39033799057, 29725.719061579595, 26321.481325802964, 24878.54211074616, 0.084, 0.932, 0.402, 192.0, 0.0, 0.0, 0.0, 0.0, 0.0, 0.0, 0.0, 0.0, 0.0, 1.70747398643477E9, 0.0, 2024-02-09 11:19:46.434
150.0, -16274.953338498277, -4325.8225114133975, 10030.881766185972, -5596.96621858671, 42949.100488317075, 13614.447547727532, 30274.78966412421, 3663.1603435469087, 22182.586453269298, 5545.847779017423, 37651.55823845366, 25234.314827241284, 36200.25947097057, 29455.50882285939, 26028.494659482796, 24595.703136408705, 0.084, 0.932, 0.402, 192.0, 0.0, 0.0, 0.0, 0.0, 0.0, 0.0, 0.0, 0.0, 0.0, 1.707473986442774E9, 0.0, 2024-02-09 11:19:46.442
152.0, -16223.566677995525, -4241.891710983719, 10089.912723292438, -5615.16053857333, 43394.05666518887, 13714.42690067612, 30543.390577243637, 3899.1500615060404, 22387.641356902284, 5634.1595213603405, 37883.323476710735, 25313.887037502176, 36377.30763880106, 29602.270376952933, 26190.120123639124, 24703.103268516454, 0.084, 0.932, 0.402, 192.0, 0.0, 0.0, 0.0, 0.0, 0.0, 0.0, 0.0, 0.0, 0.0, 1.7074739864497988E9, 0.0, 2024-02-09 11:19:46.449
154.0, -16283.536408369115, -4354.656261760743, 10022.812786437606, -5583.622227146891, 43020.22373917386, 13618.895544874138, 30290.011202098278, 3706.9921144237655, 22360.46163564463, 5591.668855150802, 37958.91707645859, 25286.6179092667, 36609.989298580804, 29620.35293821728, 26228.520420613342, 24841.102938783522, 0.084, 0.932, 0.402, 192.0, 0.0, 0.0, 0.0, 0.0, 0.0, 0.0, 0.0, 0.0, 0.0, 1.707473986458901E9, 0.0, 2024-02-09 11:19:46.458
156.0, -16224.393692540372, -4267.618568851777, 10089.264522703234, -5603.492927967659, 43159.96684550844, 13680.295786892866, 30371.371551915596, 3765.2184087298406, 22202.099526178783, 5578.235456733162, 37597.48936861627, 25254.029065850864, 36048.491126119035, 29457.811052538284, 26006.90287433897, 24535.845164757393, 0.078, 0.9560000000000001, 0.402, 192.0, 1.0, 56.0, 14.5, 112.0, 6.0, 72.0, 0.0, 0.0, 0.0, 1.7074739864668036E9, 0.0, 2024-02-09 11:19:46.466
158.0, -16250.03114343061, -4305.460072214612, 10058.955557221838, -5604.029369834587, 43302.99565827795, 13672.919711222616, 30466.7911489953, 3798.7907289017116, 22498.55071288952, 5653.694946014279, 38102.079999694826, 25340.01622677043, 36723.58086390267, 29711.749221295027, 26317.100383889723, 24887.706325972835, 0.078, 0.9560000000000001, 0.402, 192.0, 0.0, 0.0, 0.0, 0.0, 0.0, 0.0, 0.0, 0.0, 0.0, 1.7074739864748435E9, 0.0, 2024-02-09 11:19:46.474
160.0, -16258.994192957187, -4329.71171494862, 10057.972080465805, -5574.569770642492, 42969.03824437121, 13650.478559789486, 30307.28910056223, 3666.177829048375, 22196.288072620402, 5526.75938925259, 37645.41150872845, 25234.359530730195, 36204.662764628265, 29453.00542748039, 26042.710368956374, 24616.333796540952, 0.078, 0.9560000000000001, 0.402, 192.0, 0.0, 0.0, 0.0, 0.0, 0.0, 0.0, 0.0, 0.0, 0.0, 1.7074739864818482E9, 0.0, 2024-02-09 11:19:46.481
162.0, -16205.752337664646, -4233.085123668328, 10113.694979392885, -5593.412291218316, 43417.57070035586, 13742.947726601093, 30559.439129762548, 3866.203590178918, 22391.217636015135, 5655.036050681598, 37884.01638078885, 25337.669293602623, 36379.1851853353, 29630.21005752207, 26202.011251689346, 24715.352024477965, 0.078, 0.9560000000000001, 0.402, 192.0, 0.0, 0.0, 0.0, 0.0, 0.0, 0.0, 0.0, 0.0, 0.0, 1.7074739864908948E9, 0.0, 2024-02-09 11:19:46.490
164.0, -16284.56458861406, -4357.00319492855, 10024.13153936047, -5581.789384101557, 43041.54730338422, 13635.435835771064, 30295.397972512004, 3651.671546896881, 22361.109836233838, 5606.286896024572, 37957.643027024635, 25287.19905462254, 36614.95138584988, 29646.19155480761, 26235.963551516958, 24845.081549296567, 0.078, 0.9560000000000001, 0.402, 192.0, 0.0, 0.0, 0.0, 0.0, 0.0, 0.0, 0.0, 0.0, 0.0, 1.7074739864988167E9, 0.0, 2024-02-09 11:19:46.498
166.0, -16216.235305814185, -4255.302757656903, 10096.238266973289, -5595.558058686025, 43192.376874968635, 13697.931313268104, 30400.58528191868, 3739.268033417229, 22201.808953500862, 5584.695110880746, 37602.40675239644, 25254.8113769068, 36058.92939077966, 29465.36594216418, 26012.66962440844, 24532.358292622364, 0.078, 0.9540000000000001, 0.398, 192.0, 1.0, 56.0, 14.5, 104.0, 6.0, 56.0, 0.0, 0.0, 0.0, 1.7074739865058846E9, 0.0, 2024-02-09 11:19:46.505
168.0, -16247.527748051614, -4296.720540132587, 10058.553225821643, -5597.68147440928, 43314.95384156154, 13690.309368408844, 30459.817404725243, 3791.2581910202734, 22492.560445375497, 5656.868893726933, 38098.704886282074, 25336.5293546354, 36719.08816326716, 29736.0679192624, 26310.528971019863, 24887.84043643957, 0.078, 0.9540000000000001, 0.398, 192.0, 0.0, 0.0, 0.0, 0.0, 0.0, 0.0, 0.0, 0.0, 0.0, 1.707473986514845E9, 0.0, 2024-02-09 11:19:46.514
170.0, -16266.12439943843, -4326.04602885795, 10040.247147112745, -5583.376357957883, 42951.55918020716, 13638.252155572434, 30260.685713372914, 3646.508293927705, 22187.079153904815, 5558.0294797455645, 37652.04997683167, 25230.76089987289, 36205.087447772916, 29462.43786364053, 26032.741490929307, 24619.932427398257, 0.078, 0.9540000000000001, 0.398, 192.0, 0.0, 0.0, 0.0, 0.0, 0.0, 0.0, 0.0, 0.0, 0.0, 1.7074739865230892E9, 0.0, 2024-02-09 11:19:46.523
172.0, -16205.372358008904, -4237.354306859292, 10102.832031587604, -5597.837936620466, 43392.0897116768, 13740.667848666651, 30508.186579726527, 3861.465020354393, 22384.75798186755, 5649.112838400941, 37875.857994062666, 25323.274770173404, 36368.165775318834, 29632.57934243433, 26165.220280315913, 24698.56586439203, 0.078, 0.9540000000000001, 0.398, 192.0, 0.0, 0.0, 0.0, 0.0, 0.0, 0.0, 0.0, 0.0, 0.0, 1.7074739865308733E9, 0.0, 2024-02-09 11:19:46.530
174.0, -16288.207922960273, -4359.372479840813, 10016.621353223485, -5591.668855150802, 43018.68146880645, 13626.182213566568, 30267.055960542675, 3658.220608022286, 22377.09133351938, 5601.034236077576, 37968.17069866308, 25282.23696735346, 36623.065069087155, 29651.064235098867, 26209.85671399316, 24829.412976433396, 0.078, 0.9540000000000001, 0.398, 192.0, 0.0, 0.0, 0.0, 0.0, 0.0, 0.0, 0.0, 0.0, 0.0, 1.7074739865379355E9, 0.0, 2024-02-09 11:19:46.537
176.0, -16225.645390229869, -4266.121001973272, 10083.296606933667, -5608.589125703469, 43157.73167106291, 13677.121839180212, 30359.8157000322, 3732.562510080637, 22189.895473706183, 5566.4784391496705, 37587.16286267792, 25247.301190769816, 36049.89928601972, 29448.646837311608, 25986.76395258474, 24516.019167425537, 0.076, 0.9580000000000001, 0.402, 192.0, 1.0, 48.0, 14.5, 120.0, 6.0, 72.0, 0.0, 0.0, 0.0, 1.707473986546944E9, 0.0, 2024-02-09 11:19:46.546
178.0, -16241.604535770957, -4301.0567785569165, 10056.31805137611, -5602.129471555886, 43297.76535007541, 13684.632025317196, 30434.381119535105, 3786.6984351513906, 22495.220302965678, 5656.846541982477, 38094.56981355784, 25327.275732430906, 36705.65476484952, 29719.617035343297, 26289.227758553956, 24861.644191937947, 0.076, 0.9580000000000001, 0.402, 192.0, 0.0, 0.0, 0.0, 0.0, 0.0, 0.0, 0.0, 0.0, 0.0, 1.7074739865551436E9, 0.0, 2024-02-09 11:19:46.555
180.0, -16262.034030203109, -4340.932290665185, 10046.706801260329, -5584.2033725027295, 42949.860447628555, 13640.397923040144, 30258.472890671837, 3638.8863490684453, 22197.5397703099, 5552.933282009755, 37657.6379129455, 25236.86292610919, 36208.21669199666, 29472.719666089975, 26032.607380462574, 24614.25508430661, 0.076, 0.9580000000000001, 0.402, 192.0, 0.0, 0.0, 0.0, 0.0, 0.0, 0.0, 0.0, 0.0, 0.0, 1.7074739865619843E9, 0.0, 2024-02-09 11:19:46.561
182.0, -16213.128413334896, -4251.03357446594, 10095.366548939533, -5626.247003823162, 43383.19371738359, 13709.643627362684, 30493.725001063944, 3795.5720777001475, 22375.72787710761, 5636.059419639042, 37868.75013932588, 25302.934682719075, 36362.935467116295, 29592.726182070517, 26170.539995496274, 24675.767085047613, 0.076, 0.9580000000000001, 0.402, 192.0, 0.0, 0.0, 0.0, 0.0, 0.0, 0.0, 0.0, 0.0, 0.0, 1.707473986569961E9, 0.0, 2024-02-09 11:19:46.569
184.0, -16279.826018789534, -4361.272378119514, 10029.630068496475, -5594.932209841277, 43032.360736413095, 13625.578716466274, 30288.245414286306, 3656.72304114378, 22363.300307190457, 5590.1936400167515, 37974.85387025522, 25274.570319005292, 36617.03009808422, 29630.3441679888, 26224.96649324495, 24815.309025682098, 0.076, 0.9580000000000001, 0.402, 192.0, 0.0, 0.0, 0.0, 0.0, 0.0, 0.0, 0.0, 0.0, 0.0, 1.70747398657895E9, 0.0, 2024-02-09 11:19:46.578
186.0, -16217.665817459325, -4266.098650228817, 10092.483173904799, -5602.420044233804, 43165.13009847762, 13702.334606925799, 30390.68345912498, 3754.0872399910977, 22197.897398221183, 5583.823392846989, 37608.68759258838, 25248.530536714858, 36046.32300690687, 29463.331933418744, 26011.4402784634, 24518.634321526806, 0.074, 0.9560000000000001, 0.4, 192.0, 1.0, 40.0, 14.5, 112.0, 6.0, 64.0, 0.0, 0.0, 0.0, 1.7074739865859802E9, 0.0, 2024-02-09 11:19:46.585
188.0, -16237.290649091085, -4293.4795371865675, 10057.815618254617, -5603.627038434392, 43310.036457781374, 13699.09360397978, 30434.716395701933, 3792.107557309575, 22490.280567441056, 5646.49768429967, 38115.66986032365, 25334.33888367878, 36726.4195354485, 29735.754994840026, 26311.24422684243, 24870.428427508883, 0.074, 0.9560000000000001, 0.4, 192.0, 0.0, 0.0, 0.0, 0.0, 0.0, 0.0, 0.0, 0.0, 0.0, 1.7074739865943391E9, 0.0, 2024-02-09 11:19:46.594
190.0, -16261.452884847271, -4339.077095875394, 10040.358905835023, -5589.143108027352, 42956.05188084267, 13637.760417194417, 30243.497221886784, 3616.4004941464063, 22199.68553777761, 5548.038249974043, 37672.32300905264, 25228.27985623835, 36222.901788103794, 29487.337706963746, 26039.49171775481, 24606.230808047156, 0.074, 0.9560000000000001, 0.4, 192.0, 0.0, 0.0, 0.0, 0.0, 0.0, 0.0, 0.0, 0.0, 0.0, 1.7074739866031036E9, 0.0, 2024-02-09 11:19:46.603
192.0, -16210.893238889366, -4246.429115108146, 10090.896200048472, -5612.433625749783, 43395.531880322924, 13725.468662437042, 30492.763876052366, 3816.2921448102175, 22384.176836511713, 5653.40437333636, 37875.50036615138, 25310.48957234497, 36353.39127223388, 29618.90007482768, 26165.041466360268, 24667.809864021525, 0.074, 0.9560000000000001, 0.4, 192.0, 0.0, 0.0, 0.0, 0.0, 0.0, 0.0, 0.0, 0.0, 0.0, 1.7074739866110363E9, 0.0, 2024-02-09 11:19:46.611
194.0, -16280.205998445274, -4363.418145587224, 10019.12474860248, -5596.318017997506, 43042.351966184615, 13635.279373559879, 30252.773195835736, 3651.537436430149, 22374.275013718012, 5595.312189497017, 37979.883012757666, 25271.105798614717, 36624.13795282102, 29643.218772795055, 26218.685653053006, 24818.550028628117, 0.074, 0.9560000000000001, 0.4, 192.0, 0.0, 0.0, 0.0, 0.0, 0.0, 0.0, 0.0, 0.0, 0.0, 1.7074739866180696E9, 0.0, 2024-02-09 11:19:46.618
196.0, -16214.268352302117, -4267.596217107322, 10086.112926735035, -5601.838898877967, 43169.77926132432, 13692.052804476358, 30374.992534517354, 3737.435190371894, 22190.85659871776, 5574.189790986752, 37606.36301116503, 25250.497490226924, 36047.06061447389, 29462.236697940436, 25998.208045745858, 24514.678062758216, 0.074, 0.9520000000000001, 0.394, 192.0, 1.0, 40.0, 14.5, 96.0, 6.0, 40.0, 0.0, 0.0, 0.0, 1.7074739866261468E9, 0.0, 2024-02-09 11:19:46.626
198.0, -16243.057399160552, -4302.710807646609, 10046.773856493695, -5615.674628695801, 43313.70214387204, 13675.445458346065, 30441.153698105063, 3768.9287983094214, 22498.483657656154, 5669.989367722198, 38109.903110254185, 25330.15910746564, 36713.92491029798, 29694.136046664247, 26303.599930238717, 24856.279773268674, 0.074, 0.9520000000000001, 0.394, 192.0, 0.0, 0.0, 0.0, 0.0, 0.0, 0.0, 0.0, 0.0, 0.0, 1.707473986635147E9, 0.0, 2024-02-09 11:19:46.635
200.0, -16268.583091328514, -4345.201473856148, 10029.78653070766, -5585.209201003218, 42942.84199986959, 13628.79736766784, 30246.64881785498, 3614.8135202900794, 22184.598110270275, 5546.674793562269, 37666.26568630525, 25222.446050935516, 36222.38769798132, 29471.06563700028, 26029.67930193893, 24607.30369178101, 0.074, 0.9520000000000001, 0.394, 192.0, 0.0, 0.0, 0.0, 0.0, 0.0, 0.0, 0.0, 0.0, 0.0, 1.7074739866421335E9, 0.0, 2024-02-09 11:19:46.642
202.0, -16202.556038207536, -4236.616699292266, 10089.733909336795, -5608.320904770006, 43383.864269717255, 13723.658171136161, 30497.524797621347, 3824.4505315364045, 22378.4324381867, 5637.065248139531, 37868.01253175885, 25313.35059563525, 36343.95883607374, 29627.86312435426, 26157.106597078633, 24667.563994832515, 0.074, 0.9520000000000001, 0.394, 192.0, 0.0, 0.0, 0.0, 0.0, 0.0, 0.0, 0.0, 0.0, 0.0, 1.7074739866501355E9, 0.0, 2024-02-09 11:19:46.650
204.0, -16282.374117657439, -4361.384136841791, 10010.675789198374, -5599.648427921346, 43032.22662594636, 13619.700207674528, 30267.771216365247, 3641.4120961918948, 22388.401316213767, 5618.669762452813, 37986.49912911643, 25290.23889186846, 36645.03683388673, 29660.653133470194, 26223.871257766637, 24825.546124642628, 0.074, 0.9520000000000001, 0.394, 192.0, 0.0, 0.0, 0.0, 0.0, 0.0, 0.0, 0.0, 0.0, 0.0, 1.7074739866593044E9, 0.0, 2024-02-09 11:19:46.659
206.0, -16226.047721630064, -4278.459164912601, 10077.99924349776, -5605.772805902101, 43153.931874505506, 13682.553313082852, 30398.640680151067, 3727.399257111461, 22185.022793414926, 5579.129526511375, 37591.744970291256, 25246.541231458337, 36049.966341253086, 29438.38738660662, 25996.77753410072, 24508.643091755283, 0.082, 0.9560000000000001, 0.396, 192.0, 1.0, 72.0, 14.5, 112.0, 6.0, 48.0, 0.0, 0.0, 0.0, 1.7074739866661272E9, 0.0, 2024-02-09 11:19:46.666
208.0, -16239.682285747802, -4291.512583674501, 10056.698031031852, -5587.265561493106, 43312.85277758274, 13700.61352260274, 30446.719282474434, 3788.3524642410835, 22495.5108756436, 5643.59195752048, 38108.45024686459, 25336.17172672412, 36706.70529683892, 29739.085404763868, 26302.43763952704, 24859.744293659245, 0.082, 0.9560000000000001, 0.396, 192.0, 0.0, 0.0, 0.0, 0.0, 0.0, 0.0, 0.0, 0.0, 0.0, 1.7074739866743631E9, 0.0, 2024-02-09 11:19:46.674
210.0, -16268.761905284156, -4341.133456365283, 10041.23062386878, -5571.373471185383, 42943.981938836805, 13638.542728250353, 30254.27076271424, 3610.767854543669, 22199.327909866322, 5576.939055554754, 37689.332686583126, 25253.984362361953, 36248.31572154948, 29494.98200356746, 26045.616095735564, 24630.750671714624, 0.082, 0.9560000000000001, 0.396, 192.0, 0.0, 0.0, 0.0, 0.0, 0.0, 0.0, 0.0, 0.0, 0.0, 1.707473986682238E9, 0.0, 2024-02-09 11:19:46.682
212.0, -16208.68041618829, -4249.446600609613, 10096.014749528737, -5603.627038434392, 43379.796252226384, 13742.321877756343, 30540.641312675634, 3859.6321773090576, 22386.4343627017, 5617.440416507771, 37875.567421384745, 25324.928799263096, 36355.246467023666, 29624.175086519135, 26169.064780362223, 24682.91964327331, 0.082, 0.9560000000000001, 0.396, 192.0, 0.0, 0.0, 0.0, 0.0, 0.0, 0.0, 0.0, 0.0, 0.0, 1.707473986691194E9, 0.0, 2024-02-09 11:19:46.691
214.0, -16281.435344390315, -4356.9361396951845, 10015.816690423095, -5579.375395700383, 43030.43848638994, 13640.241460828956, 30311.692394219925, 3671.989282606755, 22388.691888891684, 5611.874832138399, 38005.05107701434, 25311.29423514536, 36666.628619030555, 29658.10503460229, 26242.043226008802, 24851.652962166427, 0.082, 0.9560000000000001, 0.396, 192.0, 0.0, 0.0, 0.0, 0.0, 0.0, 0.0, 0.0, 0.0, 0.0, 1.7074739866981921E9, 0.0, 2024-02-09 11:19:46.698
216.0, -16235.167233367829, -4280.470821913579, 10075.384089396488, -5600.766015144112, 43139.69381328748, 13699.47358363552, 30403.06632555322, 3750.399202155972, 22186.185084126602, 5557.738907067645, 37608.88875828848, 25267.507167757412, 36085.01387655901, 29442.857735497684, 26002.700746381375, 24523.954036707168, 0.082, 0.9540000000000001, 0.394, 192.0, 1.0, 72.0, 14.5, 104.0, 6.0, 40.0, 0.0, 0.0, 0.0, 1.7074739867061903E9, 0.0, 2024-02-09 11:19:46.706
218.0, -16260.134131924407, -4306.957639093118, 10049.590176295063, -5593.524049940593, 43305.47670191249, 13705.016816260437, 30475.016590954852, 3812.984086630832, 22494.370936676376, 5659.21582689474, 38109.56783408736, 25359.842224102285, 36725.8160383482, 29747.579067656883, 26304.82927618376, 24872.373029276496, 0.082, 0.9540000000000001, 0.394, 192.0, 0.0, 0.0, 0.0, 0.0, 0.0, 0.0, 0.0, 0.0, 0.0, 1.707473986714193E9, 0.0, 2024-02-09 11:19:46.714
220.0, -16283.469353135748, -4352.689308248676, 10038.682525000873, -5564.779706571067, 42930.705002630355, 13653.160769124124, 30256.863565071057, 3664.6132069365035, 22201.741898267497, 5542.42796211576, 37691.97019242885, 25264.489682255946, 36271.02509391607, 29496.278404745866, 26050.801700449196, 24642.418282320297, 0.082, 0.9540000000000001, 0.394, 192.0, 0.0, 0.0, 0.0, 0.0, 0.0, 0.0, 0.0, 0.0, 0.0, 1.7074739867224796E9, 0.0, 2024-02-09 11:19:46.722
222.0, -16226.427701285804, -4259.482533870046, 10090.13624073699, -5602.218878533707, 43351.58835072379, 13718.606676889263, 30480.157492179573, 3826.0598571371866, 22369.71525784913, 5629.756227702645, 37870.27005794884, 25341.49144190448, 36359.04626358107, 29626.700833642582, 26154.916126122014, 24685.31127993003, 0.082, 0.9540000000000001, 0.394, 192.0, 0.0, 0.0, 0.0, 0.0, 0.0, 0.0, 0.0, 0.0, 0.0, 1.7074739867304215E9, 0.0, 2024-02-09 11:19:46.730
224.0, -16288.900827038387, -4363.887532220785, 10028.154853362425, -5573.116907252897, 43039.42388766097, 13649.249213844445, 30313.65934773199, 3696.889125929967, 22380.399391698767, 5598.888468609866, 38003.79937932484, 25320.883133516687, 36673.98234295635, 29669.92910741915, 26232.990769504402, 24846.82498536408, 0.082, 0.9540000000000001, 0.394, 192.0, 0.0, 0.0, 0.0, 0.0, 0.0, 0.0, 0.0, 0.0, 0.0, 1.707473986738227E9, 0.0, 2024-02-09 11:19:46.738
226.0, -16235.167233367829, -4283.689473115143, 10087.878714547005, -5591.713558639713, 43133.97176670692, 13688.811801530339, 30406.128514543598, 3747.7393445657904, 22185.738049237498, 5582.05760503502, 37603.3231739191, 25282.28167084237, 36071.1110915078, 29462.08023572925, 26001.829028347616, 24533.85585950087, 0.079, 0.9560000000000001, 0.396, 192.0, 1.0, 48.0, 14.5, 120.0, 6.0, 56.0, 0.0, 0.0, 0.0, 1.7074739867472367E9, 0.0, 2024-02-09 11:19:46.747
228.0, -16258.278937134617, -4304.141319291749, 10060.341365378066, -5595.714520897212, 43306.124902501695, 13698.154830712658, 30466.210003639462, 3824.0929036251196, 22498.64011986734, 5664.1555624193625, 38111.11010445477, 25370.705171907568, 36718.81994233369, 29733.475116905585, 26303.26465407189, 24880.151436346943, 0.079, 0.9560000000000001, 0.396, 192.0, 0.0, 0.0, 0.0, 0.0, 0.0, 0.0, 0.0, 0.0, 0.0, 1.7074739867542624E9, 0.0, 2024-02-09 11:19:46.754
230.0, -16275.378021642928, -4345.112066878327, 10043.532853547675, -5576.782593343568, 42930.637947396994, 13633.670047959096, 30267.927678576434, 3632.7396193432355, 22200.289034877904, 5550.496941864127, 37689.042113905205, 25264.556737489314, 36266.241820602634, 29493.193864011035, 26042.24098232281, 24636.226849106177, 0.079, 0.9560000000000001, 0.396, 192.0, 0.0, 0.0, 0.0, 0.0, 0.0, 0.0, 0.0, 0.0, 0.0, 1.7074739867622428E9, 0.0, 2024-02-09 11:19:46.762
232.0, -16220.705654705245, -4249.848932009809, 10101.468575175832, -5596.362721486416, 43367.74866196497, 13734.364656730255, 30521.105888021695, 3848.2551393813064, 22380.80172309896, 5651.92915820231, 37865.4867846354, 25347.8840408187, 36347.08808029748, 29639.44132798211, 26160.9734488694, 24676.37058214791, 0.079, 0.9560000000000001, 0.396, 192.0, 0.0, 0.0, 0.0, 0.0, 0.0, 0.0, 0.0, 0.0, 0.0, 1.707473986770319E9, 0.0, 2024-02-09 11:19:46.770
234.0, -16290.644263105902, -4363.373442098313, 10024.89149867195, -5573.63099737537, 43037.50163763781, 13653.943080180059, 30311.781801197747, 3698.5208032752043, 22392.894016849285, 5612.858308894433, 37999.84312055625, 25323.63239808469, 36655.40804331399, 29673.930069676648, 26235.494164883396, 24857.509119213715, 0.079, 0.9560000000000001, 0.396, 192.0, 0.0, 0.0, 0.0, 0.0, 0.0, 0.0, 0.0, 0.0, 0.0, 1.7074739867782807E9, 0.0, 2024-02-09 11:19:46.778
236.0, -16233.960239167243, -4276.246342211526, 10088.258694202745, -5584.561000414014, 43132.85417948415, 13710.113013996246, 30389.789389346766, 3749.013393999743, 22194.544636552888, 5587.891410337855, 37605.87127278701, 25297.123229160694, 36058.88468729075, 29490.39989595412, 25998.520970168232, 24542.14835669379, 0.07350000000000001, 0.9530000000000001, 0.397, 192.0, 1.0, 16.0, 14.5, 88.0, 6.0, 56.0, 0.0, 0.0, 0.0, 1.7074739867863252E9, 0.0, 2024-02-09 11:19:46.786
238.0, -16248.801797485567, -4297.502851188523, 10072.187789939378, -5594.4181197188045, 43320.20650150854, 13710.962380285548, 30472.222622897938, 3801.7635109142675, 22498.93069254526, 5672.381004378915, 38115.02165973445, 25381.769285412942, 36712.09206725265, 29746.93086706768, 26299.844837170225, 24879.480884013283, 0.07350000000000001, 0.9530000000000001, 0.397, 192.0, 0.0, 0.0, 0.0, 0.0, 0.0, 0.0, 0.0, 0.0, 0.0, 1.707473986794303E9, 0.0, 2024-02-09 11:19:46.794
240.0, -16281.055364734575, -4352.62225301531, 10043.599908781041, -5584.940980069755, 42924.82649383861, 13637.514548005409, 30243.676035842425, 3600.3295898830406, 22203.127706423726, 5566.277273449573, 37702.36375360057, 25275.263223083406, 36265.37010256888, 29513.17632355408, 26042.665665467463, 24642.239468364653, 0.07350000000000001, 0.9530000000000001, 0.397, 192.0, 0.0, 0.0, 0.0, 0.0, 0.0, 0.0, 0.0, 0.0, 0.0, 1.7074739868033755E9, 0.0, 2024-02-09 11:19:46.803
242.0, -16217.35289303695, -4247.501998842001, 10109.179927012912, -5604.677570423791, 43365.55819100836, 13729.268458994444, 30509.170056482562, 3817.5661942441698, 22362.786217067984, 5629.420951535815, 37858.021301987326, 25344.844203572775, 36342.41656570632, 29602.315080441844, 26139.918105592504, 24659.606773806427, 0.07350000000000001, 0.9530000000000001, 0.397, 192.0, 0.0, 0.0, 0.0, 0.0, 0.0, 0.0, 0.0, 0.0, 0.0, 1.7074739868106155E9, 0.0, 2024-02-09 11:19:46.810
244.0, -16293.997024774199, -4367.48616307809, 10029.428902796377, -5579.285988722562, 43043.87188480757, 13636.709885205019, 30305.746830194814, 3666.691919170847, 22394.078659305414, 5632.147864359363, 38022.84306560076, 25336.238781957483, 36684.75588378381, 29674.466511543575, 26228.363958402155, 24846.445005708338, 0.07350000000000001, 0.9530000000000001, 0.397, 192.0, 0.0, 0.0, 0.0, 0.0, 0.0, 0.0, 0.0, 0.0, 0.0, 1.7074739868183632E9, 0.0, 2024-02-09 11:19:46.818
246.0, -16246.678381762313, -4292.451356941624, 10097.355854196056, -5588.830183604978, 43139.96203422094, 13693.907999266148, 30412.789334391276, 3742.531388107704, 22177.892586933685, 5555.011994244099, 37609.53695887768, 25283.57807202078, 36066.35016993883, 29462.348456662712, 25988.797961330172, 24519.99777793858, 0.07275000000000001, 0.9535, 0.3995, 192.0, 1.0, 32.0, 14.5, 104.0, 6.0, 72.0, 0.0, 0.0, 0.0, 1.7074739868263528E9, 0.0, 2024-02-09 11:19:46.826
248.0, -16257.183701656308, -4313.707865918621, 10081.933150521892, -5590.864192350411, 43338.66904242862, 13691.829287031806, 30499.692916833512, 3806.166804571963, 22493.2086459647, 5657.137114660396, 38126.44340115111, 25381.635174946212, 36727.40301220453, 29733.78804132796, 26307.556189007308, 24882.207796836832, 0.07275000000000001, 0.9535, 0.3995, 192.0, 0.0, 0.0, 0.0, 0.0, 0.0, 0.0, 0.0, 0.0, 0.0, 1.7074739868343537E9, 0.0, 2024-02-09 11:19:46.834
250.0, -16287.157390970873, -4365.541561310478, 10050.439542584365, -5576.9837590436655, 42950.79922089568, 13629.93730663506, 30280.154082793488, 3610.5890405880264, 22212.023700716938, 5547.546511596026, 37713.53962582823, 25276.5149207729, 36275.763663740596, 29491.45042794352, 26044.20793583488, 24642.2171166202, 0.07275000000000001, 0.9535, 0.3995, 192.0, 0.0, 0.0, 0.0, 0.0, 0.0, 0.0, 0.0, 0.0, 0.0, 1.707473986842399E9, 0.0, 2024-02-09 11:19:46.842
252.0, -16225.757148952145, -4261.628301337755, 10113.42675845942, -5602.2859337670725, 43392.179118654625, 13720.394816445687, 30550.163155813596, 3831.3795723175494, 22370.72108634962, 5644.955413932254, 37865.93381952451, 25348.129910007705, 36341.276626739105, 29596.928310028114, 26140.65571315953, 24665.88761399837, 0.07275000000000001, 0.9535, 0.3995, 192.0, 0.0, 0.0, 0.0, 0.0, 0.0, 0.0, 0.0, 0.0, 0.0, 1.7074739868504324E9, 0.0, 2024-02-09 11:19:46.850
254.0, -16288.453792149281, -4359.886569963285, 10047.533815805176, -5564.95852052671, 43087.726007428886, 13650.120931878202, 30379.14995898604, 3707.8638324575227, 22399.130153552313, 5592.428814462282, 38034.890655862175, 25331.8801917887, 36676.77631101326, 29652.181822321636, 26248.212307478465, 24863.789959405658, 0.07275000000000001, 0.9535, 0.3995, 192.0, 0.0, 0.0, 0.0, 0.0, 0.0, 0.0, 0.0, 0.0, 0.0, 1.7074739868594177E9, 0.0, 2024-02-09 11:19:46.859
0.0, -16238.810567714045, -4286.729310361065, 10102.563810654141, -5578.838953833456, 43154.02128148333, 13697.66309233464, 30419.561912961235, 3747.828751543612, 22193.359994096758, 5576.760241599112, 37615.68368860289, 25297.369098349704, 36063.42209141518, 29461.297924673312, 26006.969929572337, 24544.271772417043, 0.078375, 0.95475, 0.40075000000000005, 192.0, 1.0, 80.0, 14.5, 112.0, 6.0, 72.0, 0.0, 0.0, 0.0, 1.7074739868653836E9, 0.0, 2024-02-09 11:19:46.865
2.0, -16258.03306794561, -4308.90224086073, 10075.115868463025, -5591.1324132838745, 43348.45910650004, 13714.873935565227, 30513.729812351445, 3840.3426218441277, 22503.3116344585, 5653.583187292003, 38121.369555159756, 25381.769285412942, 36708.87341605108, 29734.1680209837, 26309.232569841453, 24884.934709660378, 0.078375, 0.95475, 0.40075000000000005, 192.0, 0.0, 0.0, 0.0, 0.0, 0.0, 0.0, 0.0, 0.0, 0.0, 1.7074739868743992E9, 0.0, 2024-02-09 11:19:46.874
