%OpenBCI Raw EXG Data
%Number of channels = 16
%Sample Rate = 125 Hz
%Board = OpenBCI_GUI$BoardCytonSerialDaisy
Sample Index, EXG Channel 0, EXG Channel 1, EXG Channel 2, EXG Channel 3, EXG Channel 4, EXG Channel 5, EXG Channel 6, EXG Channel 7, EXG Channel 8, EXG Channel 9, EXG Channel 10, EXG Channel 11, EXG Channel 12, EXG Channel 13, EXG Channel 14, EXG Channel 15, Accel Channel 0, Accel Channel 1, Accel Channel 2, Other, Other, Other, Other, Other, Other, Other, Analog Channel 0, Analog Channel 1, Analog Channel 2, Timestamp, Other, Timestamp (Formatted)
0.0, -8092.069100388182, -11846.91629969076, 22380.533502165497, 1499.2879628286319, 47370.856686932646, 21172.131141678234, 37755.00211179282, 12449.787551139301, 0.0, 0.0, 0.0, 0.0, 0.0, 0.0, 0.0, 0.0, 0.0, 0.0, 0.0, 192.0, 0.0, 0.0, 0.0, 0.0, 0.0, 0.0, 0.0, 0.0, 0.0, 1.707474806898082E9, 0.0, 2024-02-09 11:33:26.898
152.0, -8136.258499176324, -11873.939558737226, 22337.551097577943, 1506.3734658209642, 47408.3405623842, 21161.402304339685, 37765.730949131364, 12474.977967140434, 35525.013270975745, 9036.765579791734, 40063.512630881385, 29054.876155242462, 42253.93888401257, 37142.229037550576, 31399.037706737246, 24660.88082324038, 0.062, 0.504, 0.065, 192.0, 1.5, 112.0, 15.5, 64.0, 2.0, 8.0, 0.0, 0.0, 0.0, 1.7074748068981707E9, 0.0, 2024-02-09 11:33:26.898
0.0, -3773.5779611561256, -5899.318265833648, 11285.216961528893, 823.0359343333166, 23673.15723576036, 10628.43330245415, 18889.056907779803, 6235.577909419288, 17582.351575178098, 4462.056393868494, 19796.761250109823, 14465.825494030178, 20840.543012683753, 18428.678027233844, 15602.702272260462, 12225.80071995267, 0.092, 1.038, 0.134, 192.0, 1.0, 112.0, 16.0, 56.0, 2.0, 24.0, 0.0, 0.0, 0.0, 1.7074748069966044E9, 0.0, 2024-02-09 11:33:26.996
2.0, -7507.906259048732, -11772.105010998846, 22593.635033802395, 1649.692851268393, 47557.49375313446, 21304.252303153553, 37862.5363543673, 12545.095389496732, 35726.5813024737, 9576.023766520473, 40078.15302349962, 29124.412432242923, 42156.66409214307, 37199.24833765606, 31460.75087317835, 24607.460153992197, 0.092, 1.038, 0.134, 192.0, 0.0, 0.0, 0.0, 0.0, 0.0, 0.0, 0.0, 0.0, 0.0, 1.7074748070026546E9, 0.0, 2024-02-09 11:33:27.002
4.0, -7637.144045489317, -11853.174788138245, 22507.670224627283, 1641.1991883753765, 47253.21945586437, 21218.57806665636, 37701.55909080018, 12404.726434317403, 35617.99652790982, 9529.241565375516, 40007.07447613174, 29075.953850263817, 42143.54361814781, 37156.24358132405, 31428.206733251423, 24600.598168444416, 0.092, 1.038, 0.134, 192.0, 0.0, 0.0, 0.0, 0.0, 0.0, 0.0, 0.0, 0.0, 0.0, 1.7074748070096552E9, 0.0, 2024-02-09 11:33:27.009
6.0, -7517.7410266090665, -11763.65605159474, 22599.75941178315, 1638.5840342741055, 47487.465737755985, 21296.719765272115, 37818.61517651262, 12472.89925490609, 35533.819858291135, 9524.659457762178, 39830.652157145996, 29064.018018724684, 41843.29263487967, 37063.215620901065, 31361.53147954124, 24498.249530583566, 0.092, 1.038, 0.134, 192.0, 0.0, 0.0, 0.0, 0.0, 0.0, 0.0, 0.0, 0.0, 0.0, 1.7074748070176568E9, 0.0, 2024-02-09 11:33:27.017
8.0, -7573.530980769513, -11793.227409509112, 22557.827539184993, 1655.1690286599433, 47471.23837128143, 21280.023012163998, 37823.30904284824, 12482.823429444246, 35795.55878586278, 9587.244342237038, 40204.70860060556, 29144.327836552602, 42350.20784738158, 37278.28410605003, 31527.18025769952, 24667.54164308806, 0.052000000000000005, 1.03, 0.138, 192.0, 0.5, 80.0, 16.0, 24.0, 2.0, 40.0, 0.0, 0.0, 0.0, 1.7074748070257168E9, 0.0, 2024-02-09 11:33:27.025
10.0, -7587.254951865072, -11798.770642134028, 22546.22698381269, 1642.7191069983373, 47308.09298850215, 21241.130976811764, 37753.169268747486, 12397.372710391606, 35488.60227925805, 9502.397120284691, 39797.77274105224, 29049.37762610646, 41856.39075713048, 37046.42946081513, 31360.078616151648, 24499.121248617324, 0.052000000000000005, 1.03, 0.138, 192.0, 0.0, 0.0, 0.0, 0.0, 0.0, 0.0, 0.0, 0.0, 0.0, 1.7074748070339897E9, 0.0, 2024-02-09 11:33:27.033
12.0, -7515.014113785519, -11758.269281181012, 22583.599100541964, 1635.052458650167, 47604.007733345956, 21300.228989151597, 37890.92306982554, 12495.273351105852, 35752.46462255295, 9570.681699595654, 40096.54850918633, 29137.443499260367, 42177.518269719876, 37212.614680840335, 31486.813007213237, 24593.3562032409, 0.052000000000000005, 1.03, 0.138, 192.0, 0.0, 0.0, 0.0, 0.0, 0.0, 0.0, 0.0, 0.0, 0.0, 1.707474807041738E9, 0.0, 2024-02-09 11:33:27.041
14.0, -7624.828234294443, -11821.34590403389, 22493.70038434272, 1640.7745052307255, 47290.882145271564, 21199.57908386935, 37733.74560281582, 12348.578852245671, 35644.50569683382, 9529.643896775711, 40027.101639163695, 29085.296879446138, 42171.05861557229, 37163.463194783115, 31451.407843996032, 24579.52047342306, 0.052000000000000005, 1.03, 0.138, 192.0, 0.0, 0.0, 0.0, 0.0, 0.0, 0.0, 0.0, 0.0, 0.0, 1.707474807049669E9, 0.0, 2024-02-09 11:33:27.049
16.0, -7509.493232905059, -11737.146882670748, 22586.527179065608, 1650.8774937245244, 47521.999182939435, 21283.01814592101, 37859.60827584365, 12431.839100341691, 35550.69542535489, 9520.971419927051, 39845.180791041945, 29069.51654786069, 41855.161411185436, 37070.546993082404, 31374.137863414035, 24475.830730894893, 0.052000000000000005, 1.03, 0.138, 192.0, 0.0, 0.0, 0.0, 0.0, 0.0, 0.0, 0.0, 0.0, 0.0, 1.7074748070576963E9, 0.0, 2024-02-09 11:33:27.057
18.0, -7576.034376148507, -11792.24393275308, 22525.350454491432, 1645.6695372664378, 47495.66882797109, 21254.16204382921, 37839.67051978952, 12419.143309491075, 35812.36729769317, 9580.583522389355, 40225.830999115824, 29150.072234877618, 42362.23308589853, 37285.61547823137, 31548.19089748751, 24661.707837785227, 0.064, 1.012, 0.146, 192.0, 1.0, 0.0, 15.5, 80.0, 2.0, 72.0, 0.0, 0.0, 0.0, 1.7074748070657852E9, 0.0, 2024-02-09 11:33:27.065
20.0, -7580.549428528479, -11797.921275844727, 22516.83443985396, 1634.247795849776, 47326.332011977676, 21217.68399687815, 37760.768861862285, 12329.088131080644, 35488.49052053577, 9472.714003648043, 39804.500616133286, 29033.7537567322, 41844.946663969364, 37036.41587929915, 31356.77055797226, 24473.66261168273, 0.064, 1.012, 0.146, 192.0, 0.0, 0.0, 0.0, 0.0, 0.0, 0.0, 0.0, 0.0, 0.0, 1.707474807073756E9, 0.0, 2024-02-09 11:33:27.073
22.0, -7507.235706715072, -11755.542368357465, 22568.489321290177, 1629.4198190474297, 47630.13692261421, 21282.057020909433, 37920.00268936189, 12444.579594681216, 35751.12351788563, 9554.856664521298, 40103.52225345639, 29121.70787116383, 42173.20438304, 37204.63510806979, 31486.745951979872, 24570.691534363217, 0.064, 1.012, 0.146, 192.0, 0.0, 0.0, 0.0, 0.0, 0.0, 0.0, 0.0, 0.0, 0.0, 1.7074748070817652E9, 0.0, 2024-02-09 11:33:27.081
24.0, -7620.268478425561, -11825.324514546934, 22487.173674961767, 1637.4217435624296, 47317.95010780694, 21209.279740962953, 37768.65902765501, 12317.800500130714, 35639.40949909801, 9504.967570897052, 40042.97137772696, 29075.21624269679, 42183.664999445085, 37160.84804068185, 31457.55457372124, 24570.266851218566, 0.064, 1.012, 0.146, 192.0, 0.0, 0.0, 0.0, 0.0, 0.0, 0.0, 0.0, 0.0, 0.0, 1.7074748070897489E9, 0.0, 2024-02-09 11:33:27.089
26.0, -7503.43591015767, -11752.99426948956, 22575.127789393402, 1633.4207813049295, 47532.10217143323, 21288.337861101372, 37891.61597390365, 12424.664190371537, 35556.48452716882, 9504.609942985768, 39859.68707319344, 29068.42131238238, 41883.16814698793, 37074.14562393971, 31377.378866360054, 24476.12130357281, 0.064, 1.012, 0.146, 192.0, 0.0, 0.0, 0.0, 0.0, 0.0, 0.0, 0.0, 0.0, 0.0, 1.7074748070967844E9, 0.0, 2024-02-09 11:33:27.096
28.0, -7570.714660968145, -11798.971807834127, 22517.75086137663, 1626.4470370348738, 47496.07115937128, 21258.610040975815, 37875.16508998455, 12425.31239096074, 35802.756047577386, 9544.954841727596, 40224.98163282652, 29133.844868403063, 42392.16207172419, 37261.274428519544, 31531.829420546226, 24647.134500400367, 0.08, 0.996, 0.146, 192.0, 1.0, 64.0, 15.5, 16.0, 2.0, 72.0, 0.0, 0.0, 0.0, 1.707474807106006E9, 0.0, 2024-02-09 11:33:27.106
30.0, -7576.54846627098, -11795.730804888106, 22528.23382952617, 1629.7774469587146, 47328.9695178234, 21232.68201740766, 37801.02435362629, 12364.202721619931, 35488.64698274696, 9460.308785475348, 39817.12935175054, 29033.016149165174, 41886.16328074495, 37036.10295487678, 31349.305075324188, 24472.567376204417, 0.08, 0.996, 0.146, 192.0, 0.0, 0.0, 0.0, 0.0, 0.0, 0.0, 0.0, 0.0, 0.0, 1.7074748071138039E9, 0.0, 2024-02-09 11:33:27.113
32.0, -7497.490346132558, -11752.346068900355, 22582.637975530386, 1629.7327434698038, 47625.733628956514, 21305.995739221067, 37941.5050675279, 12497.396766829106, 35753.939837687, 9539.970402714063, 40104.99746859044, 29127.42991774439, 42192.82921467176, 37209.77600929451, 31478.833434442695, 24579.788694356525, 0.08, 0.996, 0.146, 192.0, 0.0, 0.0, 0.0, 0.0, 0.0, 0.0, 0.0, 0.0, 0.0, 1.7074748071218133E9, 0.0, 2024-02-09 11:33:27.121
34.0, -7613.205327177683, -11819.66952319974, 22503.17752399177, 1640.3051185971642, 47301.27570644328, 21221.796717857924, 37772.63763816805, 12385.25806489683, 35636.52612406327, 9490.908323634663, 40035.39413635661, 29074.679800829865, 42189.521156492374, 37158.098776113846, 31441.93070434698, 24580.325136223455, 0.08, 0.996, 0.146, 192.0, 0.0, 0.0, 0.0, 0.0, 0.0, 0.0, 0.0, 0.0, 0.0, 1.7074748071288404E9, 0.0, 2024-02-09 11:33:27.128
36.0, -7505.782843325477, -11752.99426948956, 22595.691394292284, 1640.081601152611, 47511.69502874554, 21297.03268969449, 37892.82296810424, 12477.503714263883, 35544.235771207306, 9484.851000887276, 39850.50050622231, 29069.5612513496, 41873.42278640542, 37079.778263542445, 31366.426511576956, 24488.37005953432, 0.08, 0.996, 0.146, 192.0, 0.0, 0.0, 0.0, 0.0, 0.0, 0.0, 0.0, 0.0, 0.0, 1.7074748071378903E9, 0.0, 2024-02-09 11:33:27.137
38.0, -7572.078117379919, -11804.358578247855, 22545.04234135656, 1635.723010983826, 47483.73299643195, 21255.413741518707, 37875.94740104049, 12467.825408914734, 35794.776474806844, 9528.950992697597, 40216.622080400244, 29131.252066046247, 42374.14656569321, 37269.41046350127, 31526.219132687944, 24651.962477202713, 0.08600000000000001, 1.008, 0.14200000000000002, 192.0, 1.0, 88.0, 15.5, 64.0, 2.0, 56.0, 0.0, 0.0, 0.0, 1.7074748071458468E9, 0.0, 2024-02-09 11:33:27.145
40.0, -7583.902190196775, -11808.225430038623, 22543.812995411517, 1635.9688801728346, 47309.188223980454, 21225.68592139315, 37793.13418783357, 12388.275550398297, 35472.46431976132, 9451.144570248673, 39806.936956278914, 29033.194963120815, 41869.24301019228, 37038.58399851132, 31351.406139302988, 24482.08921934238, 0.08600000000000001, 1.008, 0.14200000000000002, 192.0, 0.0, 0.0, 0.0, 0.0, 0.0, 0.0, 0.0, 0.0, 0.0, 1.7074748071528711E9, 0.0, 2024-02-09 11:33:27.152
42.0, -7503.145337479751, -11763.007851005537, 22594.774972769617, 1633.3984295604741, 47605.684114180105, 21291.46710532512, 37927.82579992125, 12496.480345306438, 35731.49868625387, 9526.40289382969, 40088.971267815985, 29123.4736589758, 42179.84285114323, 37191.425227096704, 31476.307687319244, 24583.052049047, 0.08600000000000001, 1.008, 0.14200000000000002, 192.0, 0.0, 0.0, 0.0, 0.0, 0.0, 0.0, 0.0, 0.0, 0.0, 1.7074748071618557E9, 0.0, 2024-02-09 11:33:27.161
44.0, -7618.413283635769, -11830.733636705118, 22509.659529883807, 1646.273034366731, 47295.95599126291, 21226.311770237895, 37798.69977220294, 12434.633068398603, 35632.54751355023, 9494.059919602862, 40030.05206943179, 29075.104483974515, 42188.336514036244, 37148.55458123143, 31448.144489305556, 24590.226959017153, 0.08600000000000001, 1.008, 0.14200000000000002, 192.0, 0.0, 0.0, 0.0, 0.0, 0.0, 0.0, 0.0, 0.0, 0.0, 1.7074748071718683E9, 0.0, 2024-02-09 11:33:27.171
46.0, -7515.930535308187, -11770.205112720147, 22586.929510465805, 1641.2885953531977, 47499.9603629065, 21300.474858340607, 37884.91045056706, 12543.933098785055, 35538.580779860116, 9497.390329526703, 39838.184695027434, 29067.974277493275, 41870.09237648158, 37065.22727790204, 31378.78702626074, 24516.0862226589, 0.08600000000000001, 1.008, 0.14200000000000002, 192.0, 0.0, 0.0, 0.0, 0.0, 0.0, 0.0, 0.0, 0.0, 0.0, 1.7074748071781588E9, 0.0, 2024-02-09 11:33:27.178
48.0, -7582.471678551636, -11811.444081240188, 22533.106509817426, 1635.6783074949155, 47474.83700213874, 21257.35834328632, 37850.958150739454, 12515.680493793547, 35793.05539048379, 9538.606946302289, 40196.66197260165, 29129.03924334517, 42369.67621680215, 37247.148126023785, 31529.080155978223, 24669.21802392221, 0.078, 1.026, 0.132, 192.0, 1.0, 56.0, 16.0, 8.0, 2.0, 16.0, 0.0, 0.0, 0.0, 1.7074748071858757E9, 0.0, 2024-02-09 11:33:27.185
50.0, -7597.357940358871, -11817.277886543023, 22522.914114345804, 1622.9154614109352, 47292.558526105706, 21221.97553181357, 37765.865059598094, 12413.242448954876, 35476.73350295228, 9456.799561595864, 39785.836909513106, 29024.544838016613, 41866.896077024474, 37022.80366692587, 31343.337159554623, 24493.823885181417, 0.078, 1.026, 0.132, 192.0, 0.0, 0.0, 0.0, 0.0, 0.0, 0.0, 0.0, 0.0, 0.0, 1.707474807194163E9, 0.0, 2024-02-09 11:33:27.194
52.0, -7525.139454023773, -11783.079717526403, 22565.293021833066, 1608.0068478592455, 47581.70069237956, 21274.479779539084, 37898.81323561826, 12513.37826411465, 35724.48023849491, 9530.157986898183, 40062.59620935872, 29113.460077459822, 42166.27534225886, 37182.95391594814, 31461.622591212108, 24590.58458692844, 0.078, 1.026, 0.132, 192.0, 0.0, 0.0, 0.0, 0.0, 0.0, 0.0, 0.0, 0.0, 0.0, 1.7074748072009237E9, 0.0, 2024-02-09 11:33:27.200
54.0, -7634.618298365867, -11841.998915910592, 22482.569215603973, 1619.2050718313542, 47260.483772812346, 21189.65490933119, 37738.86415229609, 12382.531152073283, 35622.35511807861, 9481.5876461968, 40005.73337146442, 29054.65263779791, 42187.33068553575, 37139.05508983792, 31416.673233112484, 24582.80617985799, 0.078, 1.026, 0.132, 192.0, 0.0, 0.0, 0.0, 0.0, 0.0, 0.0, 0.0, 0.0, 0.0, 1.7074748072089336E9, 0.0, 2024-02-09 11:33:27.208
56.0, -7514.5670788964135, -11764.460714395133, 22576.178321382802, 1629.3974673029743, 47465.06928981177, 21270.9705556596, 37848.074775704714, 12466.976042625432, 35532.92578851292, 9492.271780046438, 39818.492808162315, 29058.720655288776, 41869.04184449218, 37049.156373638674, 31342.48779326532, 24488.101838600858, 0.078, 1.026, 0.132, 192.0, 0.0, 0.0, 0.0, 0.0, 0.0, 0.0, 0.0, 0.0, 0.0, 1.7074748072179852E9, 0.0, 2024-02-09 11:33:27.217
58.0, -7578.515419783047, -11809.521831217031, 22517.54969567653, 1625.7541329567591, 47442.091696511714, 21243.030875090466, 37829.992214440375, 12467.84776065919, 35800.18559696503, 9554.968423243574, 40195.074998745324, 29136.348263782056, 42376.6499610722, 37259.6427511743, 31504.94027196649, 24650.88959346886, 0.084, 1.03, 0.126, 192.0, 1.0, 80.0, 16.0, 24.0, 1.5, 120.0, 0.0, 0.0, 0.0, 1.7074748072259555E9, 0.0, 2024-02-09 11:33:27.225
60.0, -7580.616483761845, -11797.742461889084, 22523.629370168375, 1641.8697407090356, 47265.51291531479, 21221.550848668918, 37756.90201007152, 12404.905248273046, 35479.23689833128, 9469.607111168756, 39794.66584857296, 29040.660445768888, 41871.925219526915, 37032.34786180829, 31331.624845460043, 24493.108629358845, 0.084, 1.03, 0.126, 192.0, 0.0, 0.0, 0.0, 0.0, 0.0, 0.0, 0.0, 0.0, 0.0, 1.7074748072329516E9, 0.0, 2024-02-09 11:33:27.232
62.0, -7506.743968337056, -11755.341202657368, 22570.724495735707, 1631.0067929037564, 47569.384881184684, 21276.111456884322, 37894.18642451602, 12489.528952780838, 35738.38302354611, 9552.12975169775, 40073.61561937519, 29138.315217294126, 42160.95562707849, 37201.17058767922, 31456.50404173184, 24587.76826712707, 0.084, 1.03, 0.126, 192.0, 0.0, 0.0, 0.0, 0.0, 0.0, 0.0, 0.0, 0.0, 0.0, 1.7074748072410927E9, 0.0, 2024-02-09 11:33:27.241
64.0, -7617.809786535477, -11817.993142365593, 22485.0055557496, 1645.825999477625, 47260.126144901056, 21201.00959551449, 37751.13526000205, 12406.201649451454, 35638.537781064246, 9508.767367454455, 40025.626424029644, 29087.93438529186, 42181.47452848846, 37158.7693284475, 31430.97834956388, 24594.831418374946, 0.084, 1.03, 0.126, 192.0, 0.0, 0.0, 0.0, 0.0, 0.0, 0.0, 0.0, 0.0, 0.0, 1.7074748072500107E9, 0.0, 2024-02-09 11:33:27.250
66.0, -7511.639000372768, -11747.22751942009, 22564.823635199504, 1639.0087174187563, 47459.838981609224, 21273.608061505325, 37864.25743869036, 12489.506601036383, 35541.21828570584, 9512.365998311758, 39831.702689135396, 29084.693382345842, 41856.52486759721, 37067.01541745847, 31358.961028928883, 24509.60421676686, 0.084, 1.03, 0.126, 192.0, 0.0, 0.0, 0.0, 0.0, 0.0, 0.0, 0.0, 0.0, 0.0, 1.7074748072570148E9, 0.0, 2024-02-09 11:33:27.257
68.0, -7574.492105781092, -11796.222543266123, 22508.005500794116, 1628.5704527581279, 47446.20441749149, 21248.127072826275, 37854.377967641114, 12476.855513674678, 35792.36248640567, 9552.576786586857, 40195.90201329017, 29143.567877241123, 42370.05619645789, 37251.79728887049, 31514.2385976599, 24668.435712866274, 0.094, 1.006, 0.13, 192.0, 1.0, 120.0, 15.5, 56.0, 2.0, 8.0, 0.0, 0.0, 0.0, 1.70747480726502E9, 0.0, 2024-02-09 11:33:27.265
70.0, -7573.6874429807, -11781.738612859084, 22512.811125852004, 1639.5898627745942, 47265.848191481615, 21233.576087185873, 37787.32273427519, 12410.046149497766, 35478.856918675534, 9472.892817603686, 39799.71734281985, 29052.551573819113, 41882.29642895418, 37030.13503910721, 31340.72200545335, 24511.481763301108, 0.094, 1.006, 0.13, 192.0, 0.0, 0.0, 0.0, 0.0, 0.0, 0.0, 0.0, 0.0, 0.0, 1.7074748072730324E9, 0.0, 2024-02-09 11:33:27.273
72.0, -7496.775090309989, -11744.701772296641, 22560.621507241907, 1623.8765864225134, 47568.66962536212, 21298.932587973188, 37939.20283784901, 12522.520127596872, 35732.079831609706, 9555.79543778842, 40073.59326763073, 29145.065444119628, 42163.14609803511, 37195.69441028767, 31463.61189646863, 24609.382404015352, 0.094, 1.006, 0.13, 192.0, 0.0, 0.0, 0.0, 0.0, 0.0, 0.0, 0.0, 0.0, 0.0, 1.7074748072820933E9, 0.0, 2024-02-09 11:33:27.282
74.0, -7619.12853945834, -11813.858069641361, 22475.416657378275, 1626.2235195903206, 47253.80060122021, 21213.325406709362, 37790.34021977666, 12415.276457700307, 35637.80017349722, 9502.285361562415, 40025.6487757741, 29085.72156259079, 42192.20336582701, 37145.04535735194, 31436.07454729969, 24618.0101773751, 0.094, 1.006, 0.13, 192.0, 0.0, 0.0, 0.0, 0.0, 0.0, 0.0, 0.0, 0.0, 0.0, 1.7074748072891276E9, 0.0, 2024-02-09 11:33:27.289
76.0, -7507.615686370813, -11743.472426351598, 22563.013143898625, 1630.4032958034632, 47444.10335351269, 21276.2232156066, 37894.991087316404, 12498.134374396132, 35531.83055303461, 9507.247448831493, 39821.93497680843, 29079.75364682122, 41850.42284136091, 37055.30310336388, 31350.288552080223, 24516.197981381178, 0.094, 1.006, 0.13, 192.0, 0.0, 0.0, 0.0, 0.0, 0.0, 0.0, 0.0, 0.0, 0.0, 1.70747480729733E9, 0.0, 2024-02-09 11:33:27.297
78.0, -7565.059669620952, -11783.593807648875, 22511.53707641805, 1633.6890022383932, 47427.51835912685, 21259.884090409767, 37882.40705518807, 12515.188755415531, 35786.66279156957, 9556.756562799997, 40195.074998745324, 29144.752519697253, 42346.36334733526, 37260.715634908156, 31509.991766213392, 24683.679602584794, 0.096, 1.0, 0.126, 192.0, 1.5, 0.0, 15.5, 32.0, 1.5, 120.0, 0.0, 0.0, 0.0, 1.7074748073060904E9, 0.0, 2024-02-09 11:33:27.306
80.0, -7580.057690150463, -11787.684176884197, 22507.580817649465, 1638.1369993849994, 47246.73744997233, 21222.556677169407, 37785.64635344104, 12438.835196356202, 35471.63730521647, 9476.178524038616, 39793.83883402811, 29044.259076626193, 41862.26926592222, 37041.690890990605, 31335.938732139915, 24523.819926240438, 0.096, 1.0, 0.126, 192.0, 0.0, 0.0, 0.0, 0.0, 0.0, 0.0, 0.0, 0.0, 0.0, 1.7074748073131204E9, 0.0, 2024-02-09 11:33:27.313
82.0, -7515.014113785519, -11754.46948462361, 22557.447559529253, 1626.8493684350692, 47545.0214797284, 21282.816980220912, 37919.98033761744, 12534.835938791746, 35713.70669766745, 9550.6545365637, 40057.27649417835, 29129.352167767545, 42137.016908766855, 37193.526291075505, 31452.279562029787, 24612.86927615038, 0.096, 1.0, 0.126, 192.0, 0.0, 0.0, 0.0, 0.0, 0.0, 0.0, 0.0, 0.0, 0.0, 1.707474807321126E9, 0.0, 2024-02-09 11:33:27.321
84.0, -7622.838929037921, -11813.858069641361, 22480.3563929029, 1638.9640139298456, 47236.276833567244, 21201.56838912587, 37767.16146077651, 12420.573821136215, 35631.49698156083, 9507.560373253868, 40013.48942679041, 29079.239556698747, 42174.076101073755, 37154.3213313009, 31423.959901804916, 24615.149154084822, 0.096, 1.0, 0.126, 192.0, 0.0, 0.0, 0.0, 0.0, 0.0, 0.0, 0.0, 0.0, 0.0, 1.707474807329138E9, 0.0, 2024-02-09 11:33:27.329
86.0, -7517.472805675603, -11744.053571707436, 22566.812940456028, 1638.4275720629182, 47425.752571314886, 21280.000660419544, 37858.580095598714, 12502.917647709566, 35535.94327401439, 9519.071521648351, 39807.27223244575, 29075.104483974515, 41834.30723360863, 37060.645170288706, 31343.96300839937, 24520.355405849863, 0.096, 1.0, 0.126, 192.0, 0.0, 0.0, 0.0, 0.0, 0.0, 0.0, 0.0, 0.0, 0.0, 1.7074748073381305E9, 0.0, 2024-02-09 11:33:27.338
88.0, -7576.034376148507, -11792.825078108917, 22525.93159984727, 1640.6627465084491, 47437.33077494273, 21252.508014739517, 37860.01060724385, 12515.993418215921, 35795.11175097367, 9568.22300770557, 40182.75918755045, 29140.930371395396, 42351.61600728226, 37254.59125692741, 31506.929577223014, 24686.250053197153, 0.092, 1.008, 0.123, 192.0, 1.0, 96.0, 15.5, 96.0, 1.5, 96.0, 0.0, 0.0, 0.0, 1.7074748073451452E9, 0.0, 2024-02-09 11:33:27.345
90.0, -7600.040149693507, -11799.642360167785, 22517.147364276334, 1636.5947290175832, 47246.4021738055, 21214.15242125421, 37758.22076299438, 12422.071388014721, 35479.907450664934, 9484.292207275892, 39786.86508975805, 29035.296027099615, 41873.959228272346, 37037.80168745538, 31343.91830491046, 24528.402033853774, 0.092, 1.008, 0.123, 192.0, 0.0, 0.0, 0.0, 0.0, 0.0, 0.0, 0.0, 0.0, 0.0, 1.7074748073533716E9, 0.0, 2024-02-09 11:33:27.353
92.0, -7522.7254656226005, -11753.038972978471, 22571.439751558275, 1630.0680196366334, 47545.69203206206, 21285.11920989981, 37895.92986058353, 12558.305270469818, 35715.89716862407, 9558.052963978405, 40039.9985957144, 29114.398850726946, 42133.8429610542, 37176.337799589375, 31451.98898935187, 24608.689499937238, 0.092, 1.008, 0.123, 192.0, 0.0, 0.0, 0.0, 0.0, 0.0, 0.0, 0.0, 0.0, 0.0, 1.7074748073621411E9, 0.0, 2024-02-09 11:33:27.362
94.0, -7632.047847753507, -11810.14768006178, 22488.380669162354, 1639.5898627745942, 47242.557673759184, 21208.363319440286, 37746.731966344356, 12421.9819810369, 35634.64857752903, 9516.344608824804, 40017.60214777019, 29072.690495573344, 42182.189784311035, 37150.610941721316, 31431.22421875289, 24617.049052363524, 0.092, 1.008, 0.123, 192.0, 0.0, 0.0, 0.0, 0.0, 0.0, 0.0, 0.0, 0.0, 0.0, 1.7074748073691823E9, 0.0, 2024-02-09 11:33:27.369
96.0, -7530.436817459681, -11749.663859565719, 22575.820693471516, 1638.0922958960887, 47436.12378074214, 21271.998735904544, 37847.69479604898, 12493.976949927444, 35530.31063441165, 9523.094835650307, 39810.513235391765, 29071.93053626186, 41836.74357375426, 37061.71805402256, 31346.53345901173, 24512.9346266907, 0.092, 1.008, 0.123, 192.0, 0.0, 0.0, 0.0, 0.0, 0.0, 0.0, 0.0, 0.0, 0.0, 1.7074748073771672E9, 0.0, 2024-02-09 11:33:27.377
98.0, -7590.898286211287, -11788.421784451222, 22524.232867268667, 1631.0514963926669, 47435.162655730564, 21234.58191568636, 37822.83965621467, 12466.573711225237, 35789.70262881549, 9569.18413271715, 40177.685341559096, 29130.827382901596, 42341.08833564381, 37246.00818705656, 31506.05785918926, 24664.188881419766, 0.081, 1.018, 0.1185, 192.0, 1.0, 24.0, 16.0, 16.0, 1.5, 72.0, 0.0, 0.0, 0.0, 1.707474807385238E9, 0.0, 2024-02-09 11:33:27.385
100.0, -7600.665998538256, -11790.85812459685, 22520.053091055524, 1646.6083105335606, 47247.117429628066, 21217.48283117805, 37746.97783553336, 12406.961608762933, 35476.26411631872, 9488.606093955766, 39786.73097929132, 29029.641035752422, 41868.41599564743, 37030.24679782949, 31331.200162315392, 24506.497324287575, 0.081, 1.018, 0.1185, 192.0, 0.0, 0.0, 0.0, 0.0, 0.0, 0.0, 0.0, 0.0, 0.0, 1.707474807394232E9, 0.0, 2024-02-09 11:33:27.394
102.0, -7527.262869747027, -11750.021487477004, 22570.456274802244, 1637.9134819404462, 47539.27708140339, 21272.98221266058, 37874.42748241752, 12518.228592661453, 35719.38404075909, 9574.034461263951, 40053.63315983214, 29123.00427234224, 42131.76424881986, 37184.67500027121, 31447.965675349915, 24599.72645041066, 0.081, 1.018, 0.1185, 192.0, 0.0, 0.0, 0.0, 0.0, 0.0, 0.0, 0.0, 0.0, 0.0, 1.7074748074012392E9, 0.0, 2024-02-09 11:33:27.401
104.0, -7629.477397141147, -11805.47616547062, 22504.429221681265, 1654.7666972597478, 47262.18250539095, 21211.447860175118, 37749.48123091236, 12406.626332596104, 35650.29479864774, 9514.869393690753, 40037.67401429105, 29082.79348406714, 42184.04497910082, 37148.66633995371, 31429.681948385474, 24607.549560970016, 0.081, 1.018, 0.1185, 192.0, 0.0, 0.0, 0.0, 0.0, 0.0, 0.0, 0.0, 0.0, 0.0, 1.7074748074095337E9, 0.0, 2024-02-09 11:33:27.409
106.0, -7525.228861001595, -11736.901013481738, 22591.75748726815, 1650.3857553465075, 47453.08875478373, 21286.035631422477, 37850.5334675948, 12494.535743538827, 35537.61965484854, 9533.711914266576, 39829.55692166769, 29076.333829919557, 41833.61432953052, 37055.951303953094, 31359.0504359067, 24512.353481334863, 0.081, 1.018, 0.1185, 192.0, 0.0, 0.0, 0.0, 0.0, 0.0, 0.0, 0.0, 0.0, 0.0, 1.7074748074172456E9, 0.0, 2024-02-09 11:33:27.417
108.0, -7578.984806416608, -11771.56856913192, 22545.154100078835, 1648.7764297457254, 47467.751499146405, 21266.72372421309, 37859.36240665465, 12489.439545803018, 35805.39355342311, 9577.029595020962, 40202.071094759835, 29143.23260107429, 42349.47023981455, 37247.32693997943, 31527.068498977245, 24677.868149026413, 0.07150000000000001, 1.02, 0.11524999999999999, 192.0, 0.5, 120.0, 15.5, 120.0, 1.5, 64.0, 0.0, 0.0, 0.0, 1.70747480742526E9, 0.0, 2024-02-09 11:33:27.425
110.0, -7603.415263106259, -11784.66669138273, 22534.93935286276, 1649.8716652240355, 47290.815090038195, 21230.78211912896, 37769.41898696649, 12403.966475005922, 35492.08915139308, 9491.556524223868, 39806.62403185655, 29040.168707390872, 41873.66865559443, 37036.08060313232, 31357.77638647275, 24524.602237296374, 0.07150000000000001, 1.02, 0.11524999999999999, 192.0, 0.0, 0.0, 0.0, 0.0, 0.0, 0.0, 0.0, 0.0, 0.0, 1.7074748074333148E9, 0.0, 2024-02-09 11:33:27.433
112.0, -7523.083093533885, -11741.326658883889, 22591.153990167855, 1643.7025837543708, 47597.74924489847, 21293.478762326093, 37911.12904681314, 12513.110043181186, 35734.247950821875, 9569.385298417246, 40063.02089250337, 29126.33468226608, 42132.211283708966, 37183.22213688161, 31469.937440149482, 24612.15402032781, 0.07150000000000001, 1.02, 0.11524999999999999, 192.0, 0.0, 0.0, 0.0, 0.0, 0.0, 0.0, 0.0, 0.0, 0.0, 1.707474807441295E9, 0.0, 2024-02-09 11:33:27.441
114.0, -7628.0915889849175, -11798.52477294502, 22518.332006732468, 1655.727822271326, 47307.75771233532, 21221.97553181357, 37780.1701760495, 12417.668094357026, 35656.95561849542, 9519.205632115083, 40047.508781851386, 29082.927594533874, 42197.29956356282, 37151.19208707716, 31456.235820798378, 24628.69431122474, 0.07150000000000001, 1.02, 0.11524999999999999, 192.0, 0.0, 0.0, 0.0, 0.0, 0.0, 0.0, 0.0, 0.0, 0.0, 1.7074748074503243E9, 0.0, 2024-02-09 11:33:27.450
116.0, -7530.325058737405, -11737.45980709312, 22595.780801270106, 1646.4294965779181, 47482.16837432008, 21273.40689580523, 37859.22829618792, 12462.505693734372, 35537.574951359624, 9516.501071035991, 39834.80958161469, 29068.17544319337, 41852.03216696169, 37057.4488708316, 31368.12524415556, 24515.28155985851, 0.07150000000000001, 1.02, 0.11524999999999999, 192.0, 0.0, 0.0, 0.0, 0.0, 0.0, 0.0, 0.0, 0.0, 0.0, 1.7074748074573069E9, 0.0, 2024-02-09 11:33:27.457
118.0, -7576.392004059792, -11764.594824861864, 22554.22890832769, 1651.9280257139237, 47498.03811288335, 21253.357381028818, 37858.60244734317, 12490.177153370041, 35803.69482084451, 9577.18605723215, 40207.390809940196, 29137.979941127294, 42360.69081553112, 37262.1461465533, 31527.76140305536, 24670.804997778538, 0.06275, 1.0230000000000001, 0.114625, 192.0, 0.5, 88.0, 16.0, 8.0, 1.5, 72.0, 0.0, 0.0, 0.0, 1.7074748074655664E9, 0.0, 2024-02-09 11:33:27.465
120.0, -7597.424995592237, -11777.827057579405, 22542.717759933206, 1656.018394949245, 47307.377732679575, 21230.178622028663, 37772.70469340142, 12416.371693178618, 35499.9793171858, 9495.646893459189, 39822.58317739763, 29044.303780115104, 41891.81827209214, 37039.52277177844, 31358.916325439972, 24519.416632582743, 0.06275, 1.0230000000000001, 0.114625, 192.0, 0.0, 0.0, 0.0, 0.0, 0.0, 0.0, 0.0, 0.0, 0.0, 1.7074748074733164E9, 0.0, 2024-02-09 11:33:27.473
122.0, -7517.897488820254, -11733.503548324532, 22598.88769374939, 1649.1340576570103, 47609.66272469315, 21297.144448416766, 37910.92788111304, 12505.756319255392, 35727.14009608509, 9562.590368102834, 40073.0568257638, 29134.38131026999, 42142.135458247125, 37179.489395557575, 31468.708094204438, 24606.141401069333, 0.06275, 1.0230000000000001, 0.114625, 192.0, 0.0, 0.0, 0.0, 0.0, 0.0, 0.0, 0.0, 0.0, 0.0, 1.707474807480337E9, 0.0, 2024-02-09 11:33:27.480
124.0, -7624.98469650563, -11795.976674077116, 22516.83443985396, 1656.3983746049853, 47315.02202928329, 21202.775383326458, 37770.11189104461, 12406.291056429274, 35658.29672316274, 9514.757634968477, 40057.27649417835, 29091.264795215702, 42213.705743993014, 37156.6682644687, 31456.146413820556, 24619.105412853412, 0.06275, 1.0230000000000001, 0.114625, 192.0, 0.0, 0.0, 0.0, 0.0, 0.0, 0.0, 0.0, 0.0, 0.0, 1.7074748074893732E9, 0.0, 2024-02-09 11:33:27.489
126.0, -7526.793483113466, -11740.879623994782, 22595.289062892087, 1656.1525054159767, 47492.04784536932, 21283.152256387744, 37866.38085441361, 12470.529969993828, 35548.75082358728, 9508.476794776536, 39830.36158446808, 29075.08213223006, 41859.05061472066, 37044.88719044771, 31372.550889557708, 24516.600312781375, 0.06275, 1.0230000000000001, 0.114625, 192.0, 0.0, 0.0, 0.0, 0.0, 0.0, 0.0, 0.0, 0.0, 0.0, 1.7074748074973705E9, 0.0, 2024-02-09 11:33:27.497
128.0, -7578.202495360672, -11776.016566278526, 22558.721608963206, 1661.695738040893, 47516.50065380343, 21267.26016608002, 37869.621857359634, 12489.596008014203, 35810.8026755813, 9565.674908837665, 40209.38011519672, 29140.43863301738, 42369.22918191304, 37250.724405136636, 31532.52232462434, 24682.629070595394, 0.061375, 1.0225, 0.1173125, 192.0, 0.5, 112.0, 15.5, 120.0, 1.5, 96.0, 0.0, 0.0, 0.0, 1.7074748075053887E9, 0.0, 2024-02-09 11:33:27.505
130.0, -7597.849678736888, -11777.648243623764, 22551.949030393247, 1669.5412003447057, 47320.76642760831, 21240.661590178202, 37793.60357446713, 12417.533983890295, 35508.428276589904, 9487.868486388741, 39829.601625156596, 29049.355274362002, 41907.68801065541, 37050.67629226164, 31375.233098892346, 24540.404920626275, 0.061375, 1.0225, 0.1173125, 192.0, 0.0, 0.0, 0.0, 0.0, 0.0, 0.0, 0.0, 0.0, 0.0, 1.7074748075124264E9, 0.0, 2024-02-09 11:33:27.512
132.0, -7513.069512017908, -11730.508414567521, 22610.935284010804, 1660.6452060514935, 47631.701544726086, 21310.399032878762, 37938.12995411515, 12528.868023022178, 35735.6337589781, 9570.70405134011, 40076.07431126527, 29138.53873473868, 42146.874028071645, 37206.51265460404, 31489.472864803418, 24623.799279189025, 0.061375, 1.0225, 0.1173125, 192.0, 0.0, 0.0, 0.0, 0.0, 0.0, 0.0, 0.0, 0.0, 0.0, 1.7074748075216522E9, 0.0, 2024-02-09 11:33:27.521
134.0, -7627.89042328482, -11796.714281644141, 22522.534134690064, 1660.4216886069405, 47329.70712539043, 21230.737415640047, 37805.42764728399, 12412.817765810225, 35675.172290226496, 9533.533100310935, 40069.815822817785, 29092.158864993915, 42226.42388658808, 37175.6225437668, 31475.61478324113, 24634.0140264051, 0.061375, 1.0225, 0.1173125, 192.0, 0.0, 0.0, 0.0, 0.0, 0.0, 0.0, 0.0, 0.0, 0.0, 1.7074748075294566E9, 0.0, 2024-02-09 11:33:27.529
136.0, -7533.901337850254, -11741.08078969488, 22593.52327508012, 1647.1671041449433, 47487.465737755985, 21276.0220499065, 37885.96098255646, 12456.247205286885, 35542.58174211762, 9518.60213501479, 39834.6531194035, 29067.16961469288, 41857.91067575344, 37048.70933874957, 31375.233098892346, 24521.76356575055, 0.061375, 1.0225, 0.1173125, 192.0, 0.0, 0.0, 0.0, 0.0, 0.0, 0.0, 0.0, 0.0, 0.0, 1.7074748075364487E9, 0.0, 2024-02-09 11:33:27.536
138.0, -7578.157791871762, -11773.781391832996, 22554.631239727885, 1652.3750606030299, 47519.3169736048, 21261.49341601055, 37888.710247124465, 12479.537723009316, 35806.041754012316, 9566.948958271618, 40212.218786742545, 29140.349226039558, 42372.96192323708, 37255.57473368344, 31532.499972879887, 24677.890500770867, 0.06568750000000001, 1.01925, 0.12165625, 192.0, 1.0, 24.0, 15.5, 96.0, 1.5, 120.0, 0.0, 0.0, 0.0, 1.7074748075454795E9, 0.0, 2024-02-09 11:33:27.545
140.0, -7598.229658392627, -11780.71043261414, 22543.298905289044, 1659.6393775510046, 47316.16196825051, 21236.615924431793, 37802.61132748262, 12406.02283549581, 35502.68387826489, 9485.990939854497, 39827.992299555815, 29050.405806351402, 41908.067990311145, 37046.98825442651, 31372.752055257806, 24537.588600824907, 0.06568750000000001, 1.01925, 0.12165625, 192.0, 0.0, 0.0, 0.0, 0.0, 0.0, 0.0, 0.0, 0.0, 0.0, 1.7074748075534825E9, 0.0, 2024-02-09 11:33:27.553
142.0, -7521.071436532908, -11738.108007682325, 22592.33863262399, 1644.3507843435748, 47615.92121314064, 21287.421439578706, 37934.84424768022, 12487.338481824218, 35724.457886750446, 9551.861530764287, 40061.29980818031, 29127.273455533203, 42144.48239141493, 37175.153157133245, 31470.94326864997, 24611.662281949793, 0.06568750000000001, 1.01925, 0.12165625, 192.0, 0.0, 0.0, 0.0, 0.0, 0.0, 0.0, 0.0, 0.0, 0.0, 1.7074748075606155E9, 0.0, 2024-02-09 11:33:27.560
144.0, -7625.811711050476, -11797.42953746671, 22507.35730020491, 1651.9950809472898, 47323.046305542746, 21207.71511885108, 37795.3693622791, 12394.243466167864, 35671.596011113645, 9514.467062290558, 40064.272590192864, 29095.75749585122, 42228.7708197559, 37164.73724421707, 31465.042408113768, 24624.53688675605, 0.06568750000000001, 1.01925, 0.12165625, 192.0, 0.0, 0.0, 0.0, 0.0, 0.0, 0.0, 0.0, 0.0, 0.0, 1.707474807568502E9, 0.0, 2024-02-09 11:33:27.568
146.0, -7535.130683795296, -11740.544347827954, 22583.979080197703, 1645.8036477331696, 47483.3083132873, 21270.232948092576, 37882.138834254605, 12473.435696773016, 35536.50206762577, 9499.983131883519, 39824.080744276136, 29073.629268840465, 41854.04382396267, 37049.55870503887, 31368.01348543328, 24517.29321685949, 0.06568750000000001, 1.01925, 0.12165625, 192.0, 0.0, 0.0, 0.0, 0.0, 0.0, 0.0, 0.0, 0.0, 0.0, 1.7074748075775156E9, 0.0, 2024-02-09 11:33:27.577
148.0, -7579.051861649974, -11768.3275661859, 22557.98400139618, 1659.7511362732812, 47516.3665433367, 21283.26401511002, 37893.8958518381, 12502.537668053827, 35814.55776864979, 9563.618548347778, 40204.172158738635, 29146.29479006467, 42364.87059174426, 37260.17919304123, 31535.696272336994, 24690.429829410295, 0.06484375, 1.017625, 0.125828125, 192.0, 1.0, 0.0, 15.5, 96.0, 2.0, 8.0, 0.0, 0.0, 0.0, 1.7074748075854976E9, 0.0, 2024-02-09 11:33:27.585
150.0, -7611.908925999275, -11785.024319294014, 22539.543812220552, 1657.8959414834908, 47304.382598922566, 21238.53817445495, 37789.24498429835, 12407.296884929763, 35503.08620966509, 9481.341777007792, 39821.73381110833, 29044.147317903917, 41907.75506588877, 37048.1952486271, 31366.87354646606, 24547.892755018802, 0.06484375, 1.017625, 0.125828125, 192.0, 0.0, 0.0, 0.0, 0.0, 0.0, 0.0, 0.0, 0.0, 0.0, 1.707474807592814E9, 0.0, 2024-02-09 11:33:27.592
152.0, -7523.798349356455, -11735.60461230333, 22602.128696695414, 1655.6384152935047, 47610.04270434889, 21310.466088112127, 37939.404003549105, 12527.392807888129, 35724.659052450545, 9561.785705302442, 40054.19195344352, 29122.89251361996, 42129.32790867423, 37187.20074739465, 31469.937440149482, 24622.458174521707, 0.06484375, 1.017625, 0.125828125, 192.0, 0.0, 0.0, 0.0, 0.0, 0.0, 0.0, 0.0, 0.0, 0.0, 1.707474807600561E9, 0.0, 2024-02-09 11:33:27.600
154.0, -7636.585251877935, -11805.990255593093, 22525.037530069058, 1662.9697874748454, 47326.48847418887, 21228.34577898333, 37795.034086112275, 12426.854661328158, 35665.873964533086, 9518.982114670529, 40059.109337223694, 29086.615632369, 42219.47249406249, 37162.1220901158, 31469.713922704927, 24644.87697421038, 0.06484375, 1.017625, 0.125828125, 192.0, 0.0, 0.0, 0.0, 0.0, 0.0, 0.0, 0.0, 0.0, 0.0, 1.7074748076095552E9, 0.0, 2024-02-09 11:33:27.609
156.0, -7534.571890183913, -11740.410237361222, 22606.15201069737, 1663.5509328306835, 47482.704816187004, 21293.32230011491, 37853.23802867389, 12466.41724901405, 35542.35822467306, 9516.88105069173, 39829.08753503413, 29073.60691709601, 41850.91457973893, 37056.42069058665, 31380.19518616142, 24531.888905988802, 0.06484375, 1.017625, 0.125828125, 192.0, 0.0, 0.0, 0.0, 0.0, 0.0, 0.0, 0.0, 0.0, 0.0, 1.7074748076165771E9, 0.0, 2024-02-09 11:33:27.616
158.0, -7571.11699236834, -11763.879569039294, 22577.675888261307, 1675.3973573919961, 47526.044848685844, 21289.656614024236, 37888.285563979814, 12517.513336838883, 35816.36825995067, 9579.04125202194, 40215.41508619965, 29149.24522033277, 42364.2000394106, 37254.077166804935, 31537.551467126785, 24692.195617222264, 0.063421875, 1.0188125000000001, 0.1269140625, 192.0, 0.5, 120.0, 15.5, 112.0, 2.0, 0.0, 0.0, 0.0, 0.0, 1.7074748076245856E9, 0.0, 2024-02-09 11:33:27.624
160.0, -7592.395853089793, -11760.19153120417, 22569.204577112745, 1684.561572618672, 47305.58959312315, 21249.714046682602, 37802.47721701589, 12431.727341619415, 35516.631366805006, 9502.799451684887, 39845.203142786406, 29058.94417273333, 41909.78907463421, 37053.783184740925, 31387.39244787603, 24560.074455746944, 0.063421875, 1.0188125000000001, 0.1269140625, 192.0, 0.0, 0.0, 0.0, 0.0, 0.0, 0.0, 0.0, 0.0, 0.0, 1.707474807633603E9, 0.0, 2024-02-09 11:33:27.633
162.0, -7509.627343371791, -11716.94090568315, 22626.022711518137, 1667.2613224102645, 47625.554815000876, 21308.767355533524, 37944.94723617402, 12535.618249847681, 35738.427727035014, 9584.204504991116, 40075.761386842896, 29138.71754869432, 42129.32790867423, 37192.40870385274, 31491.015135170837, 24633.119956626888, 0.063421875, 1.0188125000000001, 0.1269140625, 192.0, 0.0, 0.0, 0.0, 0.0, 0.0, 0.0, 0.0, 0.0, 0.0, 1.7074748076416276E9, 0.0, 2024-02-09 11:33:27.641
164.0, -7634.819464065965, -11800.3352642459, 22533.844117384448, 1660.6452060514935, 47340.79359064026, 21229.53042143946, 37796.66576345751, 12434.588364909694, 35684.2247467309, 9530.537966553924, 40070.68754085154, 29089.521359148188, 42221.908834208116, 37173.58853502137, 31478.65462048705, 24644.25112536563, 0.063421875, 1.0188125000000001, 0.1269140625, 192.0, 0.0, 0.0, 0.0, 0.0, 0.0, 0.0, 0.0, 0.0, 0.0, 1.7074748076486015E9, 0.0, 2024-02-09 11:33:27.648
166.0, -7535.465959962125, -11737.638621048764, 22607.09078396449, 1651.2574733802646, 47503.38017980816, 21276.759657473525, 37873.2875434503, 12483.561037011272, 35540.525381627725, 9502.888858662709, 39822.4490669309, 29065.716751303287, 41845.88543723648, 37042.182629368624, 31376.328334370653, 24524.132850662812, 0.063421875, 1.0188125000000001, 0.1269140625, 192.0, 0.0, 0.0, 0.0, 0.0, 0.0, 0.0, 0.0, 0.0, 0.0, 1.7074748076569536E9, 0.0, 2024-02-09 11:33:27.656
168.0, -7579.633007005812, -11766.986461518582, 22572.60204226995, 1658.5664938171499, 47545.6696803176, 21282.749924987547, 37892.21947100395, 12504.616380288171, 35822.09030653123, 9574.637958364245, 40206.87671981773, 29139.94689463936, 42360.4002428532, 37247.438698701706, 31540.94893228399, 24682.13733221738, 0.06471093750000001, 1.01840625, 0.12645703125000002, 192.0, 1.0, 8.0, 15.5, 104.0, 1.5, 120.0, 0.0, 0.0, 0.0, 1.707474807665655E9, 0.0, 2024-02-09 11:33:27.665
170.0, -7607.0138939635635, -11777.804705834951, 22557.581669995987, 1664.4226508644404, 47333.41751497001, 21235.565392442393, 37790.36257152112, 12415.343512933674, 35515.67024179343, 9486.72854742152, 39829.28870073422, 29039.006416679196, 41909.07381881164, 37046.228295115034, 31379.435226849942, 24541.790728782504, 0.06471093750000001, 1.01840625, 0.12645703125000002, 192.0, 0.0, 0.0, 0.0, 0.0, 0.0, 0.0, 0.0, 0.0, 0.0, 1.707474807672691E9, 0.0, 2024-02-09 11:33:27.672
172.0, -7522.211375500128, -11732.207147146124, 22615.316225924045, 1655.7054705268706, 47639.5470070299, 21307.783878777493, 37941.86269543919, 12515.009941459888, 35727.16244782954, 9553.448504620614, 40050.43686037503, 29116.656376916933, 42119.761362047364, 37184.18326189319, 31479.056951887247, 24611.327005782965, 0.06471093750000001, 1.01840625, 0.12645703125000002, 192.0, 0.0, 0.0, 0.0, 0.0, 0.0, 0.0, 0.0, 0.0, 0.0, 1.707474807680653E9, 0.0, 2024-02-09 11:33:27.680
174.0, -7629.544452374513, -11791.081642041403, 22539.007370353625, 1665.0708514536443, 47348.14731456606, 21236.191241287142, 37799.7726559368, 12430.565050907739, 35682.101331007645, 9530.247393876005, 40071.78277632985, 29082.927594533874, 42224.32282260929, 37177.12011064531, 31481.537995521787, 24643.49116605415, 0.06471093750000001, 1.01840625, 0.12645703125000002, 192.0, 0.0, 0.0, 0.0, 0.0, 0.0, 0.0, 0.0, 0.0, 0.0, 1.7074748076897123E9, 0.0, 2024-02-09 11:33:27.689
176.0, -7528.022829058508, -11724.518147053499, 22621.15003122688, 1669.9882352338118, 47504.520118775385, 21300.8771897408, 37872.415825416545, 12494.75926098338, 35549.823707321135, 9519.02681815944, 39831.74739262431, 29069.04716122713, 41843.60555930204, 37053.31379810737, 31380.619869306072, 24529.318455376444, 0.06471093750000001, 1.01840625, 0.12645703125000002, 192.0, 0.0, 0.0, 0.0, 0.0, 0.0, 0.0, 0.0, 0.0, 0.0, 1.7074748076976912E9, 0.0, 2024-02-09 11:33:27.697
178.0, -7573.799201702977, -11759.856255037339, 22577.60883302794, 1666.0319764652224, 47531.722191777495, 21279.397163319252, 37867.14081372509, 12493.909894694078, 35816.16709425057, 9577.566036887889, 40219.08077229033, 29149.04405463267, 42362.76952776546, 37258.212239529166, 31541.99946427339, 24687.010012508636, 0.06335546875, 1.020203125, 0.12422851562500001, 192.0, 0.5, 120.0, 15.5, 120.0, 1.5, 104.0, 0.0, 0.0, 0.0, 1.7074748077047408E9, 0.0, 2024-02-09 11:33:27.704
180.0, -7601.358902616371, -11764.751287073052, 22565.56124276653, 1672.8492585240913, 47317.659535129016, 21240.63923843375, 37784.95344936293, 12397.93150400299, 35514.97733771531, 9488.248466044482, 39838.72113689436, 29044.572001048567, 41908.090342055606, 37048.754042238485, 31372.43913083543, 24539.801423525983, 0.06335546875, 1.020203125, 0.12422851562500001, 192.0, 0.0, 0.0, 0.0, 0.0, 0.0, 0.0, 0.0, 0.0, 0.0, 1.7074748077127495E9, 0.0, 2024-02-09 11:33:27.712
182.0, -7514.8576515743325, -11726.976838943583, 22618.356063169966, 1650.9221972134349, 47632.48385578202, 21310.756660790048, 37927.64698596561, 12510.673703035558, 35733.9350263995, 9566.814847804886, 40058.52819186785, 29127.09464157756, 42124.09760047169, 37184.69735201566, 31476.151225108057, 24610.25412204911, 0.06335546875, 1.020203125, 0.12422851562500001, 192.0, 0.0, 0.0, 0.0, 0.0, 0.0, 0.0, 0.0, 0.0, 0.0, 1.70747480772173E9, 0.0, 2024-02-09 11:33:27.721
184.0, -7626.79518780651, -11786.276016983511, 22532.12303306139, 1652.9115024699572, 47350.13661982258, 21235.76655814249, 37780.88543187206, 12425.804129338758, 35689.499758422346, 9521.284344349426, 40073.794433330826, 29081.161806721906, 42233.576444813785, 37171.845098953854, 31471.010323883336, 24634.19284036074, 0.06335546875, 1.020203125, 0.12422851562500001, 192.0, 0.0, 0.0, 0.0, 0.0, 0.0, 0.0, 0.0, 0.0, 0.0, 1.7074748077289488E9, 0.0, 2024-02-09 11:33:27.728
186.0, -7532.135550038284, -11729.435530833665, 22600.89935075037, 1641.5568162866614, 47487.1081098447, 21272.244605093554, 37845.30315939226, 12459.935243122012, 35553.91407655646, 9509.862602932764, 39826.02534604375, 29063.32511464657, 41855.45198386336, 37058.56645805436, 31365.890069710025, 24518.991949438092, 0.06335546875, 1.020203125, 0.12422851562500001, 192.0, 0.0, 0.0, 0.0, 0.0, 0.0, 0.0, 0.0, 0.0, 0.0, 1.7074748077367563E9, 0.0, 2024-02-09 11:33:27.736
188.0, -7580.817649461944, -11767.634662107786, 22559.727437463695, 1638.9640139298456, 47521.19452013904, 21246.38363675876, 37860.949380510974, 12454.481417474917, 35821.03977454183, 9559.32701341236, 40205.13328375021, 29130.648568945955, 42365.85406850029, 37255.328864494426, 31521.972301241436, 24666.89344249886, 0.06335546875, 1.020203125, 0.12422851562500001, 192.0, 0.0, 0.0, 0.0, 0.0, 0.0, 0.0, 0.0, 0.0, 0.0, 1.7074748077448988E9, 0.0, 2024-02-09 11:33:27.744
190.0, -7601.157736916272, -11769.065173752926, 22557.335800806977, 1661.3604618740633, 47316.36313395061, 21237.085311065355, 37775.72217890289, 12414.874126300112, 35520.45351510686, 9473.563369937345, 39838.38586072753, 29032.345596831514, 41928.430429509935, 37051.19038238411, 31365.01835167627, 24526.72565301963, 0.062, 1.02, 0.126, 192.0, 0.5, 120.0, 15.5, 112.0, 1.5, 120.0, 0.0, 0.0, 0.0, 1.707474807752776E9, 0.0, 2024-02-09 11:33:27.752
192.0, -7519.998552799053, -11726.03806567646, 22610.532952610607, 1644.9989849327785, 47624.906614411666, 21303.78291651999, 37915.778209659846, 12516.753377527402, 35740.97582590292, 9548.687583051633, 40059.042281990325, 29115.4717344608, 42132.52420813134, 37178.81884322391, 31468.23870757088, 24603.72741266816, 0.062, 1.02, 0.126, 192.0, 0.0, 0.0, 0.0, 0.0, 0.0, 0.0, 0.0, 0.0, 0.0, 1.707474807760826E9, 0.0, 2024-02-09 11:33:27.760
194.0, -7632.494882642613, -11798.547124689476, 22528.434995226264, 1651.5927495470942, 47344.81690464222, 21215.605284643803, 37770.558925933714, 12398.177373191998, 35693.45601719094, 9506.822765686842, 40082.35515145721, 29075.685629330354, 42252.03898573387, 37178.34945659035, 31472.172614595012, 24627.107337368412, 0.062, 1.02, 0.126, 192.0, 0.0, 0.0, 0.0, 0.0, 0.0, 0.0, 0.0, 0.0, 0.0, 1.70747480776884E9, 0.0, 2024-02-09 11:33:27.768
196.0, -7535.868291362321, -11733.525900068988, 22595.713746036738, 1650.2292931353204, 47488.516269745385, 21285.990927933566, 37859.697682821476, 12462.66215594556, 35549.37667243203, 9497.435033015614, 39831.345061224114, 29055.569059320576, 41859.81057403214, 37050.67629226164, 31374.07080818067, 24514.163972635746, 0.062, 1.02, 0.126, 192.0, 0.0, 0.0, 0.0, 0.0, 0.0, 0.0, 0.0, 0.0, 0.0, 1.7074748077778337E9, 0.0, 2024-02-09 11:33:27.777
198.0, -7574.313291825449, -11758.984537003582, 22560.487396775174, 1648.7764297457254, 47540.34996513724, 21272.378715560284, 37871.365293427145, 12480.342385809707, 35824.772515865865, 9553.98494648754, 40212.352897209275, 29128.368691011514, 42369.966789480066, 37250.925570836735, 31537.015025259858, 24677.39876239285, 0.062, 1.02, 0.126, 192.0, 0.0, 0.0, 0.0, 0.0, 0.0, 0.0, 0.0, 0.0, 0.0, 1.707474807784829E9, 0.0, 2024-02-09 11:33:27.784
200.0, -7608.667923053256, -11777.447077923665, 22539.610867453917, 1646.116572155544, 47316.87722407308, 21225.708273137603, 37776.95152484793, 12390.577780077194, 35521.97343372982, 9476.290282760892, 39842.252712518304, 29032.055024153597, 41928.206912065376, 37052.464431818065, 31377.49062508233, 24538.303856647475, 0.07200000000000001, 1.01, 0.122, 192.0, 1.0, 32.0, 15.5, 72.0, 1.5, 104.0, 0.0, 0.0, 0.0, 1.7074748077928405E9, 0.0, 2024-02-09 11:33:27.792
202.0, -7508.86738406031, -11722.819414474896, 22619.272484692632, 1648.9328919569127, 47632.6403179932, 21302.330053130398, 37929.3010150553, 12510.584296057737, 35730.02347111982, 9535.008315444984, 40053.56610459877, 29108.27447274619, 42123.4941033714, 37167.57591576289, 31473.066684373225, 24596.35133699791, 0.07200000000000001, 1.01, 0.122, 192.0, 0.0, 0.0, 0.0, 0.0, 0.0, 0.0, 0.0, 0.0, 0.0, 1.707474807801047E9, 0.0, 2024-02-09 11:33:27.801
204.0, -7629.209176207683, -11791.886304841793, 22536.07929182998, 1654.789049004203, 47345.822733142704, 21223.786023114448, 37788.4179697535, 12406.894553529568, 35703.02256381781, 9512.5448122674, 40089.70887538301, 29086.74974283573, 42261.76199457193, 37184.11620665982, 31488.869367703126, 24637.92558168478, 0.07200000000000001, 1.01, 0.122, 192.0, 0.0, 0.0, 0.0, 0.0, 0.0, 0.0, 0.0, 0.0, 0.0, 1.7074748078088465E9, 0.0, 2024-02-09 11:33:27.808
206.0, -7538.036410574486, -11732.363609357311, 22606.50963860865, 1644.082563410111, 47492.33841804724, 21277.005526662535, 37865.553839868764, 12471.55815023877, 35537.28437868171, 9493.501125991479, 39823.812523342676, 29055.36789362048, 41860.0787949656, 37049.42459457214, 31377.244755893324, 24513.202847624165, 0.07200000000000001, 1.01, 0.122, 192.0, 0.0, 0.0, 0.0, 0.0, 0.0, 0.0, 0.0, 0.0, 0.0, 1.7074748078169131E9, 0.0, 2024-02-09 11:33:27.816
208.0, -7580.907056439764, -11762.51611262752, 22566.589423011475, 1642.6073482760607, 47521.798017239336, 21270.188244603665, 37870.22535445993, 12485.349176567695, 35818.961062307484, 9556.823618033364, 40206.42968492862, 29134.090737592072, 42373.49836510401, 37255.75354763908, 31540.166621228054, 24672.302564657042, 0.07200000000000001, 1.01, 0.122, 192.0, 0.0, 0.0, 0.0, 0.0, 0.0, 0.0, 0.0, 0.0, 0.0, 1.7074748078249147E9, 0.0, 2024-02-09 11:33:27.824
210.0, -7613.764120789066, -11772.462638910132, 22548.238640813666, 1645.311909355153, 47302.52740413277, 21228.16696502769, 37755.27033272628, 12379.69248052746, 35524.45447736436, 9480.112431062751, 39840.48692470633, 29030.244532852714, 41938.35460404809, 37057.33711210932, 31372.97557270236, 24529.161993165257, 0.07200000000000001, 1.018, 0.126, 192.0, 1.0, 32.0, 15.5, 104.0, 1.5, 120.0, 0.0, 0.0, 0.0, 1.7074748078339436E9, 0.0, 2024-02-09 11:33:27.833
212.0, -7516.377570197293, -11720.98657142956, 22618.892505036893, 1647.1224006560328, 47631.1427511147, 21311.56132359044, 37919.198026561506, 12520.955505484999, 35734.22559907742, 9550.006335974496, 40049.051052218805, 29104.63113839998, 42127.383306906624, 37166.83830819587, 31463.41073076853, 24588.43881946073, 0.07200000000000001, 1.018, 0.126, 192.0, 0.0, 0.0, 0.0, 0.0, 0.0, 0.0, 0.0, 0.0, 0.0, 1.7074748078409357E9, 0.0, 2024-02-09 11:33:27.840
214.0, -7631.421998908759, -11789.986406563094, 22538.180355808778, 1662.6568630524712, 47350.24837854486, 21232.77142438548, 37784.95344936293, 12434.901289332067, 35710.622156932615, 9518.6468385037, 40091.40760796161, 29082.949946278328, 42267.77461383041, 37183.51270955953, 31486.52243453532, 24637.769119473593, 0.07200000000000001, 1.018, 0.126, 192.0, 0.0, 0.0, 0.0, 0.0, 0.0, 0.0, 0.0, 0.0, 0.0, 1.707474807848922E9, 0.0, 2024-02-09 11:33:27.848
216.0, -7543.222015288117, -11734.71054252512, 22601.592254828483, 1656.9571682163678, 47481.050787097316, 21286.572073289404, 37845.39256637008, 12472.22870257243, 35545.643931107996, 9487.622617199733, 39817.375220939546, 29052.059835441094, 41854.91554199643, 37046.63062651523, 31376.97653495986, 24522.322359361933, 0.07200000000000001, 1.018, 0.126, 192.0, 0.0, 0.0, 0.0, 0.0, 0.0, 0.0, 0.0, 0.0, 0.0, 1.7074748078569567E9, 0.0, 2024-02-09 11:33:27.856
218.0, -7580.392966317292, -11765.466542895621, 22567.3270305785, 1657.1359821720102, 47540.08174420378, 21285.745058744556, 37880.55186039828, 12505.733967510936, 35831.29922524682, 9564.646728592721, 40199.03125751392, 29131.028548601695, 42374.54889709341, 37256.82643137294, 31545.329874197232, 24683.187864206775, 0.07200000000000001, 1.018, 0.126, 192.0, 0.0, 0.0, 0.0, 0.0, 0.0, 0.0, 0.0, 0.0, 0.0, 1.7074748078652456E9, 0.0, 2024-02-09 11:33:27.865
220.0, -7608.042074208507, -11772.730859843596, 22554.586536238974, 1661.8522002520801, 47314.306773460725, 21244.0143518465, 37771.7659201343, 12404.50291687285, 35520.14059068449, 9485.230980543016, 39836.70947989338, 29037.777070734155, 41938.95810114838, 37063.72971102354, 31386.87835775356, 24544.76351079506, 0.07200000000000001, 1.016, 0.128, 192.0, 1.0, 32.0, 15.5, 96.0, 2.0, 0.0, 0.0, 0.0, 0.0, 1.7074748078729715E9, 0.0, 2024-02-09 11:33:27.872
222.0, -7515.215279485617, -11721.947696441139, 22621.842935304994, 1646.4294965779181, 47622.269108565946, 21317.842163782378, 37933.14551510161, 12533.092502724232, 35727.78829667429, 9552.017992975474, 40049.90041850811, 29124.18891479837, 42123.35999290467, 37179.86937521331, 31485.941289179482, 24607.97424411467, 0.07200000000000001, 1.016, 0.128, 192.0, 0.0, 0.0, 0.0, 0.0, 0.0, 0.0, 0.0, 0.0, 0.0, 1.7074748078810077E9, 0.0, 2024-02-09 11:33:27.881
224.0, -7619.195594691706, -11779.034051779992, 22543.343608777956, 1651.369232102541, 47347.74498316586, 21229.865697606292, 37785.53459471877, 12424.910059560545, 35706.86706386412, 9522.22311761655, 40096.88378535316, 29092.5164929052, 42260.331482926784, 37174.862584455324, 31498.27945211881, 24645.435767821764, 0.07200000000000001, 1.016, 0.128, 192.0, 0.0, 0.0, 0.0, 0.0, 0.0, 0.0, 0.0, 0.0, 0.0, 1.7074748078889794E9, 0.0, 2024-02-09 11:33:27.888
226.0, -7530.995611071064, -11719.109024895315, 22618.937208525804, 1654.051441437178, 47491.1090721022, 21289.678965768693, 37853.461546118444, 12463.08683909021, 35554.89755331249, 9499.178469083128, 39837.715308393876, 29060.262925656192, 41866.22552469081, 37059.728748766036, 31390.655802566507, 24520.80244073897, 0.07200000000000001, 1.016, 0.128, 192.0, 0.0, 0.0, 0.0, 0.0, 0.0, 0.0, 0.0, 0.0, 0.0, 1.7074748078970177E9, 0.0, 2024-02-09 11:33:27.897
228.0, -7574.916788925742, -11754.625946834798, 22575.50776904914, 1653.3361856146082, 47546.474343117996, 21285.566244788915, 37872.52758413882, 12487.673757991048, 35829.64519615712, 9569.56411237289, 40225.227502015536, 29142.87497316301, 42382.48376637504, 37267.44350998921, 31556.19282200251, 24678.561053104528, 0.07200000000000001, 1.016, 0.128, 192.0, 0.0, 0.0, 0.0, 0.0, 0.0, 0.0, 0.0, 0.0, 0.0, 1.7074748079050136E9, 0.0, 2024-02-09 11:33:27.905
230.0, -7623.643591838311, -11785.225484994113, 22541.086082587968, 1649.022298934734, 47311.98219203737, 21246.38363675876, 37768.815489866196, 12409.107376230642, 35524.94621574238, 9477.363166494748, 39841.38099448455, 29026.869419439965, 41943.74137446182, 37068.82590875935, 31390.32052639968, 24541.209583426666, 0.068, 1.01, 0.13, 192.0, 1.0, 16.0, 15.5, 72.0, 2.0, 8.0, 0.0, 0.0, 0.0, 1.7074748079129968E9, 0.0, 2024-02-09 11:33:27.912
232.0, -7532.068494804918, -11737.79508325995, 22609.772993299128, 1646.0048134332674, 47629.84634993629, 21331.633190111304, 37925.054183608794, 12552.896148311633, 35720.188703559485, 9547.972327229063, 40037.226979401945, 29101.725411620788, 42117.459132368465, 37187.96070670614, 31478.632268742596, 24607.884837136848, 0.068, 1.01, 0.13, 192.0, 0.0, 0.0, 0.0, 0.0, 0.0, 0.0, 0.0, 0.0, 0.0, 1.7074748079210944E9, 0.0, 2024-02-09 11:33:27.921
234.0, -7646.9341095607415, -11806.19142129319, 22514.554561919518, 1641.9144441979463, 47334.95978533743, 21234.000770330524, 37771.609457923114, 12432.55435616426, 35695.6241364031, 9523.094835650307, 40083.293924724334, 29074.009248496208, 42257.828087547794, 37197.370791121815, 31488.42233281402, 24645.50282305513, 0.068, 1.01, 0.13, 192.0, 0.0, 0.0, 0.0, 0.0, 0.0, 0.0, 0.0, 0.0, 0.0, 1.7074748079290955E9, 0.0, 2024-02-09 11:33:27.929
236.0, -7546.4406664896815, -11737.839786748862, 22589.41055410034, 1642.9649761873457, 47460.17425777605, 21300.854837996347, 37847.35951988215, 12476.207313085475, 35529.4389163779, 9499.759614438964, 39806.936956278914, 29040.03459692414, 41839.76105925573, 37045.42363231464, 31369.98043894535, 24510.56534177844, 0.068, 1.01, 0.13, 192.0, 0.0, 0.0, 0.0, 0.0, 0.0, 0.0, 0.0, 0.0, 0.0, 1.70747480793638E9, 0.0, 2024-02-09 11:33:27.936
238.0, -7579.7224139836335, -11761.175007960202, 22557.89459441836, 1645.4907233107954, 47541.46755236001, 21306.085146198886, 37877.512023152354, 12528.175118944064, 35828.57231242327, 9560.355193657302, 40208.68721111861, 29132.39200501347, 42364.512963832974, 37267.89054487831, 31553.018874289857, 24692.55324513355, 0.068, 1.01, 0.13, 192.0, 0.0, 0.0, 0.0, 0.0, 0.0, 0.0, 0.0, 0.0, 0.0, 1.7074748079452796E9, 0.0, 2024-02-09 11:33:27.945
240.0, -7612.758292288577, -11774.943682544672, 22539.07442558699, 1652.6432815364935, 47306.57306987919, 21259.928793898678, 37773.487004457354, 12429.760388107346, 35518.53126508371, 9478.30193976187, 39837.11181129358, 29029.573980519057, 41935.404173779985, 37060.220487144055, 31393.02508747877, 24547.62453408534, 0.07, 1.018, 0.13, 192.0, 1.0, 24.0, 15.5, 104.0, 2.0, 8.0, 0.0, 0.0, 0.0, 1.7074748079531243E9, 0.0, 2024-02-09 11:33:27.953
242.0, -7529.207471514639, -11740.74551352805, 22601.122868194925, 1636.0359354062005, 47617.30702129687, 21320.747890561568, 37919.77917191734, 12539.082770238254, 35713.058497078244, 9550.475722608056, 40032.264892132865, 29106.754554123232, 42106.86440549665, 37172.917982687715, 31480.28629783229, 24598.05006957651, 0.07, 1.018, 0.13, 192.0, 0.0, 0.0, 0.0, 0.0, 0.0, 0.0, 0.0, 0.0, 0.0, 1.707474807961096E9, 0.0, 2024-02-09 11:33:27.961
244.0, -7634.484187899136, -11799.798822378973, 22521.193030022747, 1653.403240847974, 47347.05207908775, 21257.894785153247, 37796.55400473523, 12450.726324406425, 35688.78450259978, 9513.640047745712, 40086.669038137086, 29079.50777763221, 42261.49377363846, 37178.774139735004, 31495.194911383976, 24639.35609332992, 0.07, 1.018, 0.13, 192.0, 0.0, 0.0, 0.0, 0.0, 0.0, 0.0, 0.0, 0.0, 0.0, 1.7074748079681191E9, 0.0, 2024-02-09 11:33:27.968
246.0, -7546.015983345031, -11742.80187401794, 22586.482475576697, 1642.0932581535887, 47467.84090612423, 21292.607044292337, 37861.46347063345, 12470.149990338086, 35530.601207089574, 9502.508879006968, 39814.558901138174, 29058.206565166303, 41849.26055064923, 37055.05723417488, 31384.374962374564, 24515.952112192168, 0.07, 1.018, 0.13, 192.0, 0.0, 0.0, 0.0, 0.0, 0.0, 0.0, 0.0, 0.0, 0.0, 1.7074748079773552E9, 0.0, 2024-02-09 11:33:27.977
248.0, -7576.97314941563, -11759.297461425956, 22561.381466553386, 1646.921234955935, 47532.906834233625, 21290.438925080172, 37880.12717725363, 12498.313188351774, 35814.75893434989, 9563.819714047875, 40206.92142330664, 29142.450290018358, 42375.53237384944, 37260.82739363043, 31547.274475964845, 24670.82734952299, 0.07, 1.018, 0.13, 192.0, 0.0, 0.0, 0.0, 0.0, 0.0, 0.0, 0.0, 0.0, 0.0, 1.7074748079852035E9, 0.0, 2024-02-09 11:33:27.985
250.0, -7613.36178938887, -11774.116667999824, 22543.812995411517, 1651.4586390803622, 47291.12801446057, 21247.8141484039, 37774.76105389131, 12415.8799548006, 35513.70328828136, 9500.608980728268, 39851.12635506706, 29058.22891691076, 41959.74522349182, 37067.842432003315, 31390.16406418849, 24540.606086326374, 0.076, 1.016, 0.132, 192.0, 1.0, 48.0, 15.5, 96.0, 2.0, 16.0, 0.0, 0.0, 0.0, 1.707474807992241E9, 0.0, 2024-02-09 11:33:27.992
252.0, -7520.803215599444, -11729.927269211683, 22611.09174622199, 1638.8522552075692, 47609.21568980404, 21308.70030030016, 37922.03669810733, 12519.435586862039, 35706.86706386412, 9565.138466970739, 40043.5525230828, 29134.470717247812, 42122.845902782195, 37168.00059890754, 31479.481635031898, 24602.408659745295, 0.076, 1.016, 0.132, 192.0, 0.0, 0.0, 0.0, 0.0, 0.0, 0.0, 0.0, 0.0, 0.0, 1.7074748080011723E9, 0.0, 2024-02-09 11:33:28.001
254.0, -7633.970097776663, -11794.568514176432, 22521.88593410086, 1650.4081070909629, 47332.545796936254, 21246.562450714406, 37785.95927786342, 12425.714722360937, 35697.09935153715, 9541.535024825935, 40100.39300923264, 29109.503818691235, 42280.22453549201, 37179.623506024305, 31500.80519924226, 24643.178241631776, 0.076, 1.016, 0.132, 192.0, 0.0, 0.0, 0.0, 0.0, 0.0, 0.0, 0.0, 0.0, 0.0, 1.7074748080092404E9, 0.0, 2024-02-09 11:33:28.009
0.0, -7547.580605456902, -11739.069132693903, 22572.356173080945, 1643.0320314207115, 47445.82443783575, 21281.073544153398, 37837.86002848864, 12450.771027895336, 35518.10658193906, 9513.796509956897, 39810.245014458305, 29067.124911203973, 41848.81351576013, 37048.44111781611, 31374.339029114133, 24509.335995833397, 0.076, 1.016, 0.132, 192.0, 0.0, 0.0, 0.0, 0.0, 0.0, 0.0, 0.0, 0.0, 0.0, 1.707474808016214E9, 0.0, 2024-02-09 11:33:28.016
2.0, -7573.26275983605, -11752.524882855998, 22548.775082680593, 1650.1175344130438, 47526.625994041686, 21286.817942478414, 37887.90558432407, 12508.080900678742, 35811.16030349259, 9588.428984693168, 40208.441341929596, 29149.356979055046, 42365.16116442218, 37252.870172604344, 31543.541734640807, 24677.21994843721, 0.076, 1.016, 0.132, 192.0, 0.0, 0.0, 0.0, 0.0, 0.0, 0.0, 0.0, 0.0, 0.0, 1.7074748080244012E9, 0.0, 2024-02-09 11:33:28.024
4.0, -7613.898231255798, -11783.750269860062, 22520.008387566613, 1650.0728309241333, 47290.256296426815, 21247.031837347968, 37778.89612661554, 12413.242448954876, 35522.01813721873, 9504.386425541214, 39849.65113993301, 29051.456338340802, 41952.97264492186, 37046.20594337058, 31388.01829672078, 24544.115310205856, 0.078, 1.014, 0.136, 192.0, 1.0, 56.0, 15.5, 88.0, 2.0, 32.0, 0.0, 0.0, 0.0, 1.7074748080332308E9, 0.0, 2024-02-09 11:33:28.033
6.0, -7519.193889998662, -11725.993362187548, 22582.95089995276, 1639.6569180079603, 47593.32359949632, 21309.236742167086, 37921.09792484021, 12531.080845723254, 35706.53178769729, 9573.565074630389, 40026.36403159667, 29127.653435188942, 42099.91301297105, 37161.228020337585, 31473.08903611768, 24600.86638937788, 0.078, 1.014, 0.136, 192.0, 0.0, 0.0, 0.0, 0.0, 0.0, 0.0, 0.0, 0.0, 0.0, 1.7074748080412722E9, 0.0, 2024-02-09 11:33:28.041
8.0, -7633.120731487362, -11796.04372931048, 22500.674128612773, 1650.2292931353204, 47332.50109344734, 21242.516784967993, 37796.6210599686, 12437.292925988786, 35687.599860143644, 9542.69731553761, 40083.18216600206, 29100.004327297727, 42267.77461383041, 37179.44469206866, 31491.685687504494, 24642.485337553662, 0.078, 1.014, 0.136, 192.0, 0.0, 0.0, 0.0, 0.0, 0.0, 0.0, 0.0, 0.0, 0.0, 1.7074748080482929E9, 0.0, 2024-02-09 11:33:28.048
10.0, -7543.981974599597, -11736.476330337087, 22577.251205116656, 1651.6821565249154, 47446.53969365832, 21287.55555004544, 37860.2341246884, 12467.870112403645, 35513.189198158885, 9530.180338642638, 39808.23335745733, 29070.32121066108, 41845.23723664728, 37040.57330376784, 31379.278764638755, 24518.500211060073, 0.078, 1.014, 0.136, 192.0, 0.0, 0.0, 0.0, 0.0, 0.0, 0.0, 0.0, 0.0, 0.0, 1.7074748080562985E9, 0.0, 2024-02-09 11:33:28.056
12.0, -7561.841018419388, -11743.003039718038, 22558.2745740741, 1657.3818513610188, 47533.84560750075, 21291.06477392492, 37896.332191983725, 12510.360778613183, 35801.39259116562, 9586.014996291995, 40211.41412394215, 29155.34724656907, 42369.07271970186, 37246.90225683478, 31554.0470545348, 24688.418172409318, 0.078, 1.014, 0.136, 192.0, 0.0, 0.0, 0.0, 0.0, 0.0, 0.0, 0.0, 0.0, 0.0, 1.7074748080652933E9, 0.0, 2024-02-09 11:33:28.065
14.0, -7601.358902616371, -11769.981595275593, 22535.073463329492, 1662.7462700302924, 47280.62269456658, 21232.570258685384, 37768.16728927699, 12399.83140228169, 35513.85975049254, 9514.779986712932, 39862.74926218382, 29066.32024840358, 41956.19129612343, 37053.0455771739, 31399.015354992793, 24552.944249265704, 0.076, 1.014, 0.136, 192.0, 1.0, 48.0, 15.5, 88.0, 2.0, 32.0, 0.0, 0.0, 0.0, 1.7074748080722797E9, 0.0, 2024-02-09 11:33:28.072
16.0, -7501.513660134514, -11711.442376547144, 22610.152972954867, 1654.6772902819266, 47593.83768961879, 21299.133753673286, 37917.40988700508, 12501.397729086606, 35705.369496985615, 9588.09370852634, 40040.57974107024, 29140.77390918421, 42110.50773984286, 37160.37865404828, 31476.531204763796, 24598.07242132097, 0.076, 1.014, 0.136, 192.0, 0.0, 0.0, 0.0, 0.0, 0.0, 0.0, 0.0, 0.0, 0.0, 1.7074748080802975E9, 0.0, 2024-02-09 11:33:28.080
18.0, -7616.379274890337, -11778.519961657521, 22527.56327719251, 1662.7686217747478, 47333.93160509248, 21223.651912647714, 37791.94954537744, 12423.16662349303, 35708.76696214282, 9567.03836524944, 40115.30162278433, 29120.165600796416, 42286.97476231751, 37180.00348568004, 31501.542806809284, 24640.898363697335, 0.076, 1.014, 0.136, 192.0, 0.0, 0.0, 0.0, 0.0, 0.0, 0.0, 0.0, 0.0, 0.0, 1.7074748080893092E9, 0.0, 2024-02-09 11:33:28.089
20.0, -7537.96935534112, -11734.598783802841, 22591.824542501516, 1658.790011261703, 47452.90994082808, 21278.100762140843, 37856.88136302011, 12469.635900215615, 35526.466134365335, 9528.5486612974, 39817.1964069839, 29079.530129376668, 41859.564704843135, 37033.97953915352, 31388.82295952117, 24516.555609292463, 0.076, 1.014, 0.136, 192.0, 0.0, 0.0, 0.0, 0.0, 0.0, 0.0, 0.0, 0.0, 0.0, 1.7074748080974686E9, 0.0, 2024-02-09 11:33:28.097
22.0, -7564.523227754024, -11754.693002068163, 22562.90138517635, 1661.2263514073315, 47541.154627937634, 21279.91125344172, 37897.852110606684, 12503.52114480986, 35818.1563995071, 9597.570848175388, 40214.945699566095, 29155.324894824615, 42373.118385448266, 37253.27250400454, 31564.01593256187, 24687.300585186553, 0.076, 1.014, 0.136, 192.0, 0.0, 0.0, 0.0, 0.0, 0.0, 0.0, 0.0, 0.0, 0.0, 1.7074748081043258E9, 0.0, 2024-02-09 11:33:28.104
24.0, -7605.337513129415, -11776.105973256348, 22528.61380918191, 1661.561627574161, 47281.18148817796, 21226.803508615914, 37771.20712652292, 12386.26389339732, 35515.40202085996, 9515.159966368672, 39854.09913707962, 29053.356236619504, 41962.51683980427, 37057.76179525397, 31399.30592767071, 24544.875269517335, 0.084, 1.016, 0.134, 192.0, 1.0, 80.0, 15.5, 96.0, 2.0, 24.0, 0.0, 0.0, 0.0, 1.7074748081123793E9, 0.0, 2024-02-09 11:33:28.112
26.0, -7505.291104947461, -11716.717388238596, 22599.670004805328, 1654.2973106261863, 47605.66176243565, 21314.377643391806, 37927.021137120864, 12523.637714819637, 35696.80877885923, 9584.606836391311, 40029.895607220606, 29131.833211402085, 42104.38336186211, 37164.17845060569, 31476.262983830333, 24597.91595910978, 0.084, 1.016, 0.134, 192.0, 0.0, 0.0, 0.0, 0.0, 0.0, 0.0, 0.0, 0.0, 0.0, 1.7074748081213987E9, 0.0, 2024-02-09 11:33:28.121
28.0, -7617.139234201817, -11784.689043127186, 22516.163887520303, 1660.2875781402086, 47339.74305865086, 21232.48085170756, 37799.34797279215, 12427.279344472809, 35700.78738937228, 9559.41642039018, 40104.639840679156, 29109.056783802127, 42280.73862561448, 37183.49035781507, 31504.80616149976, 24650.375503346386, 0.084, 1.016, 0.134, 192.0, 0.0, 0.0, 0.0, 0.0, 0.0, 0.0, 0.0, 0.0, 0.0, 1.70747480812842E9, 0.0, 2024-02-09 11:33:28.128
30.0, -7533.186082027684, -11727.312115110411, 22590.170513411824, 1660.8687234960466, 47456.39681296311, 21286.773238989503, 37857.93189500951, 12479.47066777595, 35521.101715696066, 9540.350382369803, 39809.28388944673, 29070.790597294643, 41843.91848372442, 37023.94360589309, 31384.151444930012, 24515.505077303063, 0.084, 1.016, 0.134, 192.0, 0.0, 0.0, 0.0, 0.0, 0.0, 0.0, 0.0, 0.0, 0.0, 1.7074748081363976E9, 0.0, 2024-02-09 11:33:28.136
32.0, -7560.365803285337, -11746.244042664057, 22568.556376523542, 1664.5791130756277, 47545.71438380652, 21281.766448231512, 37908.58094794524, 12517.870964750167, 35810.64621337011, 9602.868211611296, 40212.554062909374, 29156.19661285837, 42365.51879233346, 37236.44164042969, 31564.172394773057, 24694.140218989876, 0.084, 1.016, 0.134, 192.0, 0.0, 0.0, 0.0, 0.0, 0.0, 0.0, 0.0, 0.0, 0.0, 1.707474808144408E9, 0.0, 2024-02-09 11:33:28.144
34.0, -7604.041111951007, -11771.792086576474, 22540.54964072104, 1671.3293399011302, 47298.39233140854, 21240.48277622256, 37787.03216159727, 12406.827498296201, 35522.68868955239, 9529.97917294254, 39858.88241039305, 29061.201698923316, 41967.63538928454, 37057.828850487334, 31410.772372576284, 24562.48844414812, 0.083, 1.017, 0.137, 192.0, 1.0, 72.0, 15.5, 104.0, 2.0, 48.0, 0.0, 0.0, 0.0, 1.707474808153397E9, 0.0, 2024-02-09 11:33:28.153
36.0, -7502.832413057377, -11715.845670204839, 22613.595141600985, 1655.5266565712282, 47607.80752990336, 21308.141506688775, 37936.49827676991, 12517.33452288324, 35702.32965973969, 9585.500906169524, 40030.14147640961, 29139.879839405996, 42109.971297975935, 37164.29020932796, 31484.778998467806, 24609.471810993175, 0.083, 1.017, 0.137, 192.0, 0.0, 0.0, 0.0, 0.0, 0.0, 0.0, 0.0, 0.0, 0.0, 1.7074748081606722E9, 0.0, 2024-02-09 11:33:28.160
38.0, -7621.028437737041, -11789.271150740524, 22517.236771254156, 1647.8376564786026, 47336.30089000474, 21223.987188814546, 37799.54913849224, 12408.25800994134, 35702.53082543979, 9557.538873855934, 40103.87988136767, 29112.5213041927, 42293.92615484312, 37188.89947997325, 31505.36495511114, 24652.07423592499, 0.083, 1.017, 0.137, 192.0, 0.0, 0.0, 0.0, 0.0, 0.0, 0.0, 0.0, 0.0, 0.0, 1.7074748081683924E9, 0.0, 2024-02-09 11:33:28.168
40.0, -7528.0675325474185, -11722.975876686083, 22591.75748726815, 1653.8949792259907, 47454.83219085124, 21274.770352217, 37861.239953188895, 12455.688411675503, 35518.866541250536, 9528.436902575124, 39805.282927189226, 29069.47184437178, 41853.976768729306, 37026.60346348327, 31378.45175009391, 24513.42636506872, 0.083, 1.017, 0.137, 192.0, 0.0, 0.0, 0.0, 0.0, 0.0, 0.0, 0.0, 0.0, 0.0, 1.7074748081776123E9, 0.0, 2024-02-09 11:33:28.177
42.0, -7558.68942245119, -11751.541406099965, 22561.381466553386, 1646.049516922178, 47537.086610446764, 21273.58570976087, 37892.57709891524, 12480.208275342975, 35821.5538646643, 9591.55822891691, 40205.69207736159, 29152.799147701164, 42367.508097589984, 37243.54949516648, 31550.895458566603, 24678.2257769377, 0.083, 1.017, 0.137, 192.0, 0.0, 0.0, 0.0, 0.0, 0.0, 0.0, 0.0, 0.0, 0.0, 1.707474808184441E9, 0.0, 2024-02-09 11:33:28.184
44.0, -7606.36569337436, -11765.220673706614, 22523.40585272382, 1650.1622379019545, 47273.00074970732, 21207.893932806724, 37758.466632183394, 12354.122084870587, 35520.72173604032, 9510.26493433296, 39854.16619231298, 29050.18228890685, 41963.857944471594, 37035.90178917668, 31386.34191588663, 24538.57207758094, 0.0885, 1.0145, 0.1395, 192.0, 1.0, 120.0, 15.5, 80.0, 2.0, 56.0, 0.0, 0.0, 0.0, 1.707474808192504E9, 0.0, 2024-02-09 11:33:28.192
46.0, -7508.666218360212, -11717.812623716907, 22591.109286678948, 1647.211807633854, 47599.49268096599, 21297.613835050328, 37915.621747448655, 12508.885563479134, 35696.6746683925, 9582.595179390333, 40008.706153476975, 29122.490182219768, 42083.976219174416, 37135.367052002795, 31456.347579520654, 24577.844092588915, 0.0885, 1.0145, 0.1395, 192.0, 0.0, 0.0, 0.0, 0.0, 0.0, 0.0, 0.0, 0.0, 0.0, 1.7074748082004776E9, 0.0, 2024-02-09 11:33:28.200
48.0, -7624.828234294443, -11786.700700128164, 22504.18335249226, 1654.431421092918, 47339.94422435096, 21222.467270191584, 37794.36353377861, 12424.664190371537, 35707.06822956422, 9549.112266196284, 40094.29098299635, 29101.636004642965, 42276.80471859035, 37174.996694922054, 31496.625423029116, 24646.218078877697, 0.0885, 1.0145, 0.1395, 192.0, 0.0, 0.0, 0.0, 0.0, 0.0, 0.0, 0.0, 0.0, 0.0, 1.7074748082085505E9, 0.0, 2024-02-09 11:33:28.208
50.0, -7528.581622669891, -11735.314039625411, 22574.926623693304, 1644.1943221323875, 47446.18206574703, 21265.36026780132, 37845.19140066998, 12447.150045293576, 35510.50698882425, 9522.6478007612, 39786.35099963558, 29057.37955062146, 41844.4772773358, 37010.84548364228, 31371.232136634844, 24500.730574218105, 0.0885, 1.0145, 0.1395, 192.0, 0.0, 0.0, 0.0, 0.0, 0.0, 0.0, 0.0, 0.0, 0.0, 1.7074748082165065E9, 0.0, 2024-02-09 11:33:28.216
52.0, -7539.802198386455, -11749.596804332354, 22563.013143898625, 1648.8211332346361, 47548.24013092997, 21270.9705556596, 37893.4935204379, 12489.014862658367, 35804.56653887827, 9598.71078714261, 40196.61726911274, 29155.593115758078, 42373.587772081824, 37240.442602687195, 31548.43676667652, 24670.98381173418, 0.0885, 1.0145, 0.1395, 192.0, 0.0, 0.0, 0.0, 0.0, 0.0, 0.0, 0.0, 0.0, 0.0, 1.7074748082248428E9, 0.0, 2024-02-09 11:33:28.224
54.0, -7585.958550686664, -11767.791124318974, 22530.290190016054, 1654.2973106261863, 47280.98032247786, 21219.829764345857, 37767.60849566561, 12398.110317958632, 35521.77226802972, 9516.858698947275, 39851.349872511615, 29053.64680929742, 41975.83847949964, 37043.90371369168, 31391.482817111355, 24544.919973006246, 0.08625, 1.01325, 0.14375, 192.0, 1.0, 80.0, 15.5, 80.0, 2.0, 80.0, 0.0, 0.0, 0.0, 1.7074748082337575E9, 0.0, 2024-02-09 11:33:28.233
56.0, -7483.207581425618, -11712.850536447828, 22601.100516450468, 1646.2283308778206, 47596.318733253334, 21300.40780310724, 37922.751953929896, 12524.867060764678, 35698.038124804276, 9583.936284057652, 40007.20858659847, 29124.34537700956, 42087.79836747627, 37136.95402585912, 31467.054065114746, 24592.77505788506, 0.08625, 1.01325, 0.14375, 192.0, 0.0, 0.0, 0.0, 0.0, 0.0, 0.0, 0.0, 0.0, 0.0, 1.707474808240528E9, 0.0, 2024-02-09 11:33:28.240
58.0, -7589.735995499611, -11779.458734924643, 22516.856791598417, 1650.5198658132394, 47335.831503371184, 21223.450746947616, 37799.72795244789, 12434.811882354246, 35717.64060469158, 9559.908158768196, 40102.091741811244, 29107.447458201346, 42282.727930871006, 37175.980171678086, 31503.979146954913, 24656.857509238424, 0.08625, 1.01325, 0.14375, 192.0, 0.0, 0.0, 0.0, 0.0, 0.0, 0.0, 0.0, 0.0, 0.0, 1.7074748082485285E9, 0.0, 2024-02-09 11:33:28.248
60.0, -7503.480613646581, -11723.80289123093, 22581.363926096434, 1646.5859587891055, 47429.507664383375, 21265.516730012507, 37843.96205472494, 12453.319126763241, 35515.782000515705, 9528.101626408295, 39799.58323235312, 29060.66525705639, 41833.01083243023, 37022.91542564815, 31372.550889557708, 24507.346690576876, 0.08625, 1.01325, 0.14375, 192.0, 0.0, 0.0, 0.0, 0.0, 0.0, 0.0, 0.0, 0.0, 0.0, 1.707474808256585E9, 0.0, 2024-02-09 11:33:28.256
62.0, -7527.173462769207, -11745.305269396935, 22560.152120608345, 1646.407144833463, 47530.470494088, 21274.39037256126, 37889.15728201357, 12495.340406339217, 35824.481943187944, 9592.027615550473, 40202.24990871548, 29151.838022689586, 42362.076623687346, 37246.96931206815, 31545.821612575248, 24673.397800135353, 0.08625, 1.01325, 0.14375, 192.0, 0.0, 0.0, 0.0, 0.0, 0.0, 0.0, 0.0, 0.0, 0.0, 1.7074748082645988E9, 0.0, 2024-02-09 11:33:28.264
64.0, -7573.240408091594, -11764.66188009523, 22535.02875984058, 1658.7676595172477, 47277.09111894263, 21235.96772384259, 37770.849498611635, 12404.838193039679, 35523.471000608326, 9507.672131976144, 39858.50243073731, 29055.546707576123, 41971.81516549768, 37054.92312370815, 31389.962898488393, 24545.9928567401, 0.084125, 1.011625, 0.143875, 192.0, 1.0, 72.0, 15.5, 72.0, 2.0, 64.0, 0.0, 0.0, 0.0, 1.7074748082726421E9, 0.0, 2024-02-09 11:33:28.272
66.0, -7475.317415632894, -11713.297571336934, 22605.928493252813, 1653.5597030591612, 47595.067035563836, 21311.874248012813, 37913.47597998095, 12510.025502446355, 35687.44339793246, 9584.718595113587, 40011.3436593227, 29126.58055145509, 42084.15503313005, 37143.25721779552, 31463.500137746352, 24592.05980206249, 0.084125, 1.011625, 0.143875, 192.0, 0.0, 0.0, 0.0, 0.0, 0.0, 0.0, 0.0, 0.0, 0.0, 1.7074748082806048E9, 0.0, 2024-02-09 11:33:28.280
68.0, -7590.115975155351, -11778.408202935243, 22520.701291644727, 1662.053365952178, 47344.34751800865, 21241.0639215784, 37802.05253387124, 12428.441635184483, 35705.70477315244, 9551.638013319733, 40104.66219242361, 29104.22880699978, 42282.90674482665, 37186.038456682974, 31501.47575157592, 24651.49309056915, 0.084125, 1.011625, 0.143875, 192.0, 0.0, 0.0, 0.0, 0.0, 0.0, 0.0, 0.0, 0.0, 0.0, 1.7074748082886274E9, 0.0, 2024-02-09 11:33:28.288
70.0, -7506.6992648481455, -11733.972934958094, 22581.47568481871, 1652.5091710697618, 47434.91678654156, 21276.35732607333, 37853.327435651714, 12454.74963840838, 35509.59056730158, 9525.397065329202, 39801.88546203202, 29062.22987916826, 41837.97291969931, 37026.17878033862, 31372.528537813254, 24513.962806935648, 0.084125, 1.011625, 0.143875, 192.0, 0.0, 0.0, 0.0, 0.0, 0.0, 0.0, 0.0, 0.0, 0.0, 1.7074748082956262E9, 0.0, 2024-02-09 11:33:28.295
72.0, -7528.805140114444, -11753.687173567674, 22550.80909142603, 1641.757981986759, 47530.246976643444, 21276.58084351788, 37891.54891867029, 12479.917702665056, 35811.16030349259, 9594.75452837402, 40201.98168778201, 29146.697121464866, 42350.20784738158, 37249.00332081358, 31540.77011832835, 24675.252994925144, 0.084125, 1.011625, 0.143875, 192.0, 0.0, 0.0, 0.0, 0.0, 0.0, 0.0, 0.0, 0.0, 0.0, 1.7074748083050387E9, 0.0, 2024-02-09 11:33:28.305
74.0, -7577.554294771468, -11778.698775613162, 22522.109451545413, 1647.3012146116753, 47275.21357240839, 21218.309845722895, 37762.936981074454, 12377.1220299151, 35519.04535520617, 9495.870410903743, 39851.64044518953, 29040.392224835425, 41957.30888334619, 37045.84831545929, 31379.077598938657, 24531.2407053996, 0.0870625, 1.0138125, 0.1429375, 192.0, 1.0, 104.0, 15.5, 96.0, 2.0, 56.0, 0.0, 0.0, 0.0, 1.7074748083126345E9, 0.0, 2024-02-09 11:33:28.312
76.0, -7478.267845900995, -11721.612420274309, 22599.401783871865, 1643.0767349096222, 47594.24002101899, 21303.805268264445, 37924.18246557504, 12524.889412509134, 35691.801988101244, 9571.12873448476, 40003.07351387424, 29116.432859472377, 42076.197812103965, 37147.660511453214, 31458.448643499454, 24580.325136223455, 0.0870625, 1.0138125, 0.1429375, 192.0, 0.0, 0.0, 0.0, 0.0, 0.0, 0.0, 0.0, 0.0, 0.0, 1.707474808320672E9, 0.0, 2024-02-09 11:33:28.320
78.0, -7591.904114711776, -11785.605464649852, 22511.35826246241, 1645.4013163329741, 47347.923797121504, 21228.54694468343, 37796.19637682395, 12419.635047869093, 35709.68338366549, 9547.502940595501, 40107.88084362517, 29091.063629515607, 42284.02433204941, 37178.26004961253, 31501.363992853643, 24646.39689283334, 0.0870625, 1.0138125, 0.1429375, 192.0, 0.0, 0.0, 0.0, 0.0, 0.0, 0.0, 0.0, 0.0, 0.0, 1.7074748083286567E9, 0.0, 2024-02-09 11:33:28.328
80.0, -7505.112290991819, -11729.346123855845, 22580.3804493404, 1649.692851268393, 47438.29189995431, 21278.346631329852, 37859.94355201049, 12460.695202433491, 35505.45549457735, 9522.066655405362, 39793.458854372366, 29049.31057087309, 41832.11676265201, 37025.262358815955, 31364.660723764984, 24499.344766061877, 0.0870625, 1.0138125, 0.1429375, 192.0, 0.0, 0.0, 0.0, 0.0, 0.0, 0.0, 0.0, 0.0, 0.0, 1.707474808336714E9, 0.0, 2024-02-09 11:33:28.336
82.0, -7511.303724205938, -11733.883527980272, 22566.097684633456, 1652.5091710697618, 47541.020517470904, 21290.617739035813, 37899.34967748519, 12504.750490754903, 35815.56359715028, 9600.364816232302, 40202.831054071314, 29150.29575232217, 42358.209771896574, 37249.91974233624, 31540.412490417064, 24677.532872859585, 0.0870625, 1.0138125, 0.1429375, 192.0, 0.0, 0.0, 0.0, 0.0, 0.0, 0.0, 0.0, 0.0, 0.0, 1.7074748083446894E9, 0.0, 2024-02-09 11:33:28.344
84.0, -7570.178219101217, -11769.311042941934, 22536.88395463037, 1657.8959414834908, 47276.82289800917, 21235.073654064377, 37779.99136209385, 12405.128765717598, 35535.04920423618, 9518.624486759245, 39874.41687278949, 29061.26875415668, 41971.748110264314, 37055.01253068597, 31395.84140728014, 24558.800406312992, 0.09153125000000001, 1.01390625, 0.14246875, 192.0, 1.5, 0.0, 15.5, 88.0, 2.0, 56.0, 0.0, 0.0, 0.0, 1.7074748083517103E9, 0.0, 2024-02-09 11:33:28.351
86.0, -7474.7139185326005, -11713.386978314755, 22612.209333444756, 1645.5577785441612, 47592.72010239603, 21312.65655906875, 37928.6528144661, 12516.976894971955, 35697.63579340408, 9566.725440827066, 40014.58466226872, 29117.86337111752, 42072.26390507983, 37137.22224679259, 31466.80819592574, 24597.1559997983, 0.09153125000000001, 1.01390625, 0.14246875, 192.0, 0.0, 0.0, 0.0, 0.0, 0.0, 0.0, 0.0, 0.0, 0.0, 1.7074748083607454E9, 0.0, 2024-02-09 11:33:28.360
88.0, -7587.612579776357, -11783.303234970956, 22525.775137636083, 1650.341051857597, 47347.2755965323, 21234.04547381943, 37797.962164635916, 12426.31821946123, 35729.10704959715, 9555.616623832777, 40119.70491644203, 29099.557292408623, 42291.7803873754, 37184.89851771576, 31507.22014990093, 24657.282192383074, 0.09153125000000001, 1.01390625, 0.14246875, 192.0, 0.0, 0.0, 0.0, 0.0, 0.0, 0.0, 0.0, 0.0, 0.0, 1.7074748083690856E9, 0.0, 2024-02-09 11:33:28.369
90.0, -7509.403825927237, -11738.219766404602, 22585.99073719868, 1647.6364907785048, 47428.97122251645, 21278.279576096487, 37841.659825046045, 12436.17533876602, 35514.15032317046, 9518.892707692708, 39794.442331128404, 29051.143413918428, 41832.74261149676, 37019.5403122354, 31366.225345876857, 24506.586731265394, 0.09153125000000001, 1.01390625, 0.14246875, 192.0, 0.0, 0.0, 0.0, 0.0, 0.0, 0.0, 0.0, 0.0, 0.0, 1.7074748083767176E9, 0.0, 2024-02-09 11:33:28.376
92.0, -7526.324096479905, -11755.609423590831, 22563.594289254463, 1642.7638104872478, 47535.94667147955, 21278.860721452325, 37888.19615700199, 12487.450240546494, 35816.34590820622, 9582.639882879244, 40191.85634754376, 29141.3774062845, 42346.13982989071, 37241.336672465404, 31535.942141526004, 24670.26855591161, 0.09153125000000001, 1.01390625, 0.14246875, 192.0, 0.0, 0.0, 0.0, 0.0, 0.0, 0.0, 0.0, 0.0, 0.0, 1.7074748083837347E9, 0.0, 2024-02-09 11:33:28.383
94.0, -7575.453230792669, -11772.574397632408, 22522.958817834715, 1649.46933382384, 47267.77044150477, 21225.01536905949, 37757.214934493895, 12392.611788822627, 35528.723660555326, 9504.475832519036, 39859.26239004879, 29045.22020163777, 41964.774365994264, 37050.005739927976, 31387.39244787603, 24547.177499196234, 0.090765625, 1.013953125, 0.14023437500000002, 192.0, 1.0, 104.0, 15.5, 88.0, 2.0, 40.0, 0.0, 0.0, 0.0, 1.707474808392768E9, 0.0, 2024-02-09 11:33:28.392
96.0, -7468.410726596204, -11708.22372534558, 22601.32403389502, 1649.2234646348315, 47590.4849279505, 21311.78484103499, 37930.575064489254, 12516.842784505223, 35682.41425543002, 9568.17830421666, 39995.988010881905, 29115.29292050516, 42061.04332936327, 37140.39619450524, 31457.174594065502, 24586.941252582223, 0.090765625, 1.013953125, 0.14023437500000002, 192.0, 0.0, 0.0, 0.0, 0.0, 0.0, 0.0, 0.0, 0.0, 0.0, 1.707474808399779E9, 0.0, 2024-02-09 11:33:28.399
98.0, -7574.223884847628, -11770.629795864797, 22519.471945699686, 1660.086412440111, 47345.66627093152, 21238.895802366234, 37805.22648158389, 12419.188012979987, 35717.886473880586, 9559.505827368, 40113.08880008326, 29108.363879724013, 42288.740550129485, 37195.24737539856, 31503.80033299927, 24648.386198089862, 0.090765625, 1.013953125, 0.14023437500000002, 192.0, 0.0, 0.0, 0.0, 0.0, 0.0, 0.0, 0.0, 0.0, 0.0, 1.707474808407778E9, 0.0, 2024-02-09 11:33:28.407
100.0, -7503.927648535687, -11725.680437765175, 22582.23564413019, 1651.4809908248176, 47424.65733583657, 21275.083276639376, 37844.47614484742, 12454.32495526373, 35516.29609063817, 9524.570050784356, 39792.43067412743, 29058.452434355313, 41831.06623066262, 37033.912483920154, 31371.478005823854, 24504.105687630858, 0.090765625, 1.013953125, 0.14023437500000002, 192.0, 0.0, 0.0, 0.0, 0.0, 0.0, 0.0, 0.0, 0.0, 0.0, 1.7074748084168038E9, 0.0, 2024-02-09 11:33:28.416
102.0, -7514.589430640868, -11736.968068715105, 22562.856681687437, 1646.9435867003904, 47542.22751167149, 21289.50015181305, 37897.98622107342, 12514.115871681675, 35819.16222800758, 9592.407595206214, 40192.45984464405, 29143.634932474488, 42348.3973560807, 37247.930437079725, 31541.95476078448, 24668.54747158855, 0.090765625, 1.013953125, 0.14023437500000002, 192.0, 0.0, 0.0, 0.0, 0.0, 0.0, 0.0, 0.0, 0.0, 0.0, 1.7074748084247997E9, 0.0, 2024-02-09 11:33:28.424
104.0, -7571.228751090616, -11768.796952819463, 22531.296018516543, 1650.6092727910607, 47277.98518872085, 21232.8608313633, 37775.09633005814, 12406.559277362738, 35534.19983794687, 9512.142480867205, 39866.370244785576, 29051.925724974364, 41972.41866259798, 37058.611161543275, 31398.25539568131, 24554.218298699656, 0.0863828125, 1.0109765625, 0.14011718750000002, 192.0, 1.0, 72.0, 15.5, 64.0, 2.0, 48.0, 0.0, 0.0, 0.0, 1.7074748084318E9, 0.0, 2024-02-09 11:33:28.431
106.0, -7464.543874805436, -11704.759204955008, 22610.19767644378, 1650.050479179678, 47599.738550154994, 21322.558381862447, 37931.625596478654, 12522.318961896774, 35687.17517699899, 9565.026708248462, 40004.43697028601, 29113.23656001527, 42058.36112002863, 37145.24652305204, 31461.756701678838, 24590.42812471725, 0.0863828125, 1.0109765625, 0.14011718750000002, 192.0, 0.0, 0.0, 0.0, 0.0, 0.0, 0.0, 0.0, 0.0, 0.0, 1.7074748084400904E9, 0.0, 2024-02-09 11:33:28.440
108.0, -7588.283132110016, -11784.085546026892, 22526.244524269645, 1655.5490083156835, 47358.98791062688, 21243.053226834923, 37812.06611538722, 12441.18212952401, 35728.50355249686, 9541.333859125836, 40119.48139899748, 29101.859522087518, 42296.787178133396, 37191.6263927968, 31512.249292403376, 24664.770026775604, 0.0863828125, 1.0109765625, 0.14011718750000002, 192.0, 0.0, 0.0, 0.0, 0.0, 0.0, 0.0, 0.0, 0.0, 0.0, 1.7074748084488616E9, 0.0, 2024-02-09 11:33:28.448
110.0, -7517.048122530952, -11739.717333283108, 22589.164684911335, 1655.9736914603343, 47436.28024295333, 21286.68383201168, 37854.89205776359, 12460.628147200126, 35512.51864582523, 9505.16873659715, 39792.36361889406, 29045.376663848958, 41833.39081208596, 37019.20503606857, 31377.468273337876, 24520.824792483425, 0.0863828125, 1.0109765625, 0.14011718750000002, 192.0, 0.0, 0.0, 0.0, 0.0, 0.0, 0.0, 0.0, 0.0, 0.0, 1.707474808455915E9, 0.0, 2024-02-09 11:33:28.455
112.0, -7533.566061683424, -11759.073943981402, 22565.270670088612, 1647.8823599675131, 47547.36841289621, 21292.942320459166, 37902.411866475566, 12505.868077977668, 35813.26136747139, 9576.381394431757, 40190.09055973179, 29126.312330521625, 42344.91048394567, 37247.32693997943, 31547.363882942664, 24684.327803173997, 0.0863828125, 1.0109765625, 0.14011718750000002, 192.0, 0.0, 0.0, 0.0, 0.0, 0.0, 0.0, 0.0, 0.0, 0.0, 1.7074748084638577E9, 0.0, 2024-02-09 11:33:28.463
114.0, -7588.260780365561, -11783.660862882241, 22521.39419572284, 1643.9708046878345, 47269.87150548357, 21222.802546358413, 37764.23338225286, 12388.856695754135, 35532.79167804619, 9489.522515478435, 39850.34404401112, 29020.454468781292, 41971.18931665293, 37048.30700734937, 31386.811302520193, 24548.496252119097, 0.08519140625, 1.01348828125, 0.13905859375000001, 192.0, 1.0, 80.0, 15.5, 96.0, 2.0, 40.0, 0.0, 0.0, 0.0, 1.707474808471926E9, 0.0, 2024-02-09 11:33:28.471
116.0, -7480.52537209098, -11726.060417420915, 22600.80994377255, 1633.309022582653, 47584.11468078073, 21308.476782855607, 37916.62757594915, 12515.85930774919, 35689.63386888908, 9549.98398423004, 39979.22420254043, 29087.688516102855, 42060.08220435169, 37137.468115981595, 31447.65275092754, 24574.848958831903, 0.08519140625, 1.01348828125, 0.13905859375000001, 192.0, 0.0, 0.0, 0.0, 0.0, 0.0, 0.0, 0.0, 0.0, 0.0, 1.7074748084809039E9, 0.0, 2024-02-09 11:33:28.480
118.0, -7591.412376333759, -11791.95336007516, 22516.83443985396, 1635.1642173724435, 47338.15608479454, 21222.243752747032, 37786.5180714748, 12406.73809131838, 35725.68723269549, 9528.615716530767, 40108.953727359025, 29074.6127455965, 42296.85423336676, 37191.67109628572, 31492.08801890469, 24636.338607828453, 0.08519140625, 1.01348828125, 0.13905859375000001, 192.0, 0.0, 0.0, 0.0, 0.0, 0.0, 0.0, 0.0, 0.0, 0.0, 1.707474808487908E9, 0.0, 2024-02-09 11:33:28.487
120.0, -7522.144320266762, -11748.903900254238, 22576.75946673864, 1634.9630516723457, 47416.38719038811, 21271.30583182643, 37833.43438308649, 12445.004277825867, 35510.43993359088, 9494.149326580684, 39783.042941456195, 29025.863590939476, 41833.59197778606, 37014.44411449959, 31359.00573241779, 24496.550798004962, 0.08519140625, 1.01348828125, 0.13905859375000001, 192.0, 0.0, 0.0, 0.0, 0.0, 0.0, 0.0, 0.0, 0.0, 0.0, 1.707474808495931E9, 0.0, 2024-02-09 11:33:28.495
122.0, -7532.023791316008, -11757.688135825174, 22559.749789208152, 1638.8746069520244, 47529.8669969877, 21285.901520955744, 37889.22433724694, 12507.43270008954, 35812.970794793466, 9561.94216751363, 40180.74753054947, 29115.695251905356, 42333.77931520693, 37233.871189817335, 31536.05390024828, 24670.045038467055, 0.08519140625, 1.01348828125, 0.13905859375000001, 192.0, 0.0, 0.0, 0.0, 0.0, 0.0, 0.0, 0.0, 0.0, 0.0, 1.7074748085049343E9, 0.0, 2024-02-09 11:33:28.504
124.0, -7576.302597081972, -11779.637548880286, 22528.189126037258, 1646.764772744748, 47270.02796769476, 21239.476947722073, 37763.87575434158, 12393.103527200643, 35542.067651995145, 9486.952064866075, 39859.97764587136, 29026.802364206596, 41970.33995036363, 37057.96296095407, 31398.389506148043, 24554.10653997738, 0.085595703125, 1.013744140625, 0.136529296875, 192.0, 1.0, 88.0, 15.5, 88.0, 2.0, 24.0, 0.0, 0.0, 0.0, 1.7074748085120196E9, 0.0, 2024-02-09 11:33:28.512
126.0, -7475.317415632894, -11720.114853395802, 22600.675833305817, 1627.8328451911027, 47575.26338997643, 21306.733346788093, 37909.340907256716, 12497.821449973757, 35692.673706135, 9552.12975169775, 39980.118272318636, 29091.89064406045, 42040.81500063121, 37134.383575246764, 31458.672160944006, 24579.09579027841, 0.085595703125, 1.013744140625, 0.136529296875, 192.0, 0.0, 0.0, 0.0, 0.0, 0.0, 0.0, 0.0, 0.0, 0.0, 1.7074748085199704E9, 0.0, 2024-02-09 11:33:28.519
128.0, -7581.197629117683, -11777.223560479113, 22530.871335371892, 1647.211807633854, 47353.35527102414, 21251.323372283387, 37803.5724524942, 12441.137426035099, 35727.22950306291, 9542.02676320395, 40117.08976234076, 29089.454303914823, 42286.43832045059, 37189.9276602182, 31507.04133594529, 24651.157814402322, 0.085595703125, 1.013744140625, 0.136529296875, 192.0, 0.0, 0.0, 0.0, 0.0, 0.0, 0.0, 0.0, 0.0, 0.0, 1.707474808528308E9, 0.0, 2024-02-09 11:33:28.528
130.0, -7510.879041061287, -11733.45884483562, 22591.735135523693, 1642.5179412982395, 47418.91293751156, 21284.806285477436, 37848.96884548293, 12472.407516528072, 35514.50795108175, 9505.861640675264, 39791.38014213803, 29039.94518994632, 41829.501608550745, 37031.7890681969, 31376.015409948282, 24513.76164123555, 0.085595703125, 1.013744140625, 0.136529296875, 192.0, 0.0, 0.0, 0.0, 0.0, 0.0, 0.0, 0.0, 0.0, 0.0, 1.707474808537018E9, 0.0, 2024-02-09 11:33:28.537
132.0, -7522.814872600422, -11755.922348013204, 22574.189016126278, 1645.825999477625, 47542.02634597139, 21294.149314659753, 37894.25347974938, 12512.819470503267, 35821.844437342224, 9561.115152968783, 40188.39182715319, 29123.89834212045, 42337.243835597495, 37246.522277179036, 31545.218115474956, 24674.56009084703, 0.085595703125, 1.013744140625, 0.136529296875, 192.0, 0.0, 0.0, 0.0, 0.0, 0.0, 0.0, 0.0, 0.0, 0.0, 1.707474808544034E9, 0.0, 2024-02-09 11:33:28.544
134.0, -7576.190838359695, -11774.787220333485, 22531.720701661194, 1660.6675577959488, 47269.58093280565, 21239.45459597762, 37760.27712348427, 12394.802259779246, 35544.25812295176, 9481.83351538581, 39866.50435525231, 29025.93064617284, 41984.153328437016, 37055.7948417419, 31401.11641897159, 24557.81692955696, 0.085595703125, 1.013744140625, 0.136529296875, 192.0, 0.0, 0.0, 0.0, 0.0, 0.0, 0.0, 0.0, 0.0, 0.0, 1.7074748085519855E9, 0.0, 2024-02-09 11:33:28.551
136.0, -7468.9024649742205, -11716.024484160482, 22613.930417767813, 1656.9571682163678, 47578.72791036701, 21327.900448787266, 37911.17375030205, 12511.366607113672, 35699.13336028258, 9546.295946394916, 39988.70134218947, 29098.752629608232, 42041.55260819824, 37139.45742123812, 31460.99674236736, 24588.125895038356, 0.08600000000000001, 1.014, 0.13, 192.0, 1.0, 88.0, 15.5, 88.0, 2.0, 8.0, 0.0, 0.0, 0.0, 1.7074748085610175E9, 0.0, 2024-02-09 11:33:28.561
138.0, -7583.365748329848, -11784.912560571738, 22520.857753855915, 1648.888188468002, 47334.088067303666, 21241.957991356612, 37790.1167023321, 12423.568954893228, 35741.48991602539, 9527.721646752554, 40121.85068390974, 29091.197739982337, 42291.04277980838, 37197.12492193281, 31509.075344690722, 24660.9702302182, 0.08600000000000001, 1.014, 0.13, 192.0, 0.0, 0.0, 0.0, 0.0, 0.0, 0.0, 0.0, 0.0, 0.0, 1.707474808568015E9, 0.0, 2024-02-09 11:33:28.568
140.0, -7511.907221306232, -11739.89614723875, 22576.670059760818, 1639.2992900966753, 47396.85176573417, 21287.26497736752, 37821.78912422527, 12437.516443433338, 35513.59152955908, 9491.35535852377, 39785.389874624, 29032.725576487253, 41814.50358802123, 37020.74730643598, 31364.548965042708, 24507.078469643413, 0.08600000000000001, 1.014, 0.13, 192.0, 0.0, 0.0, 0.0, 0.0, 0.0, 0.0, 0.0, 0.0, 0.0, 1.7074748085760908E9, 0.0, 2024-02-09 11:33:28.576
142.0, -7524.178329012196, -11754.625946834798, 22551.79256818206, 1626.1341126124994, 47527.18478765307, 21288.002584934544, 37874.092206250694, 12477.369603797151, 35813.28371921584, 9550.74394354152, 40181.50748986095, 29111.783696625676, 42322.491684256995, 37230.63018687131, 31526.889685021604, 24664.92648898679, 0.08600000000000001, 1.014, 0.13, 192.0, 0.0, 0.0, 0.0, 0.0, 0.0, 0.0, 0.0, 0.0, 0.0, 1.707474808584092E9, 0.0, 2024-02-09 11:33:28.584
144.0, -7582.806954718466, -11784.778450105006, 22509.056032783516, 1621.9990398882676, 47256.05812741019, 21214.800621843413, 37734.25969293829, 12353.809160448214, 35545.55452413017, 9476.290282760892, 39863.33040753966, 29016.31939605706, 41976.64314230003, 37058.05236793189, 31383.212671662888, 24541.678970060228, 0.08600000000000001, 1.014, 0.13, 192.0, 0.0, 0.0, 0.0, 0.0, 0.0, 0.0, 0.0, 0.0, 0.0, 1.7074748085930767E9, 0.0, 2024-02-09 11:33:28.593
146.0, -7477.373776122782, -11724.361684842312, 22593.36681286893, 1615.6064409740497, 47572.22355273051, 21307.001567721556, 37895.21460476096, 12490.80300221479, 35680.64846761805, 9529.17451014215, 39970.95405709196, 29077.451417142325, 42033.03659356077, 37117.35154597182, 31434.979311821382, 24554.24065044411, 0.088, 1.012, 0.14400000000000002, 192.0, 1.0, 96.0, 15.5, 80.0, 2.0, 64.0, 0.0, 0.0, 0.0, 1.707474808600351E9, 0.0, 2024-02-09 11:33:28.600
148.0, -7587.992559432097, -11789.941703074182, 22511.581779906963, 1621.6861154658934, 47336.680869660486, 21226.20001151562, 37773.79992887973, 12398.177373191998, 35731.655148465055, 9507.515669764956, 40114.80988440632, 29067.191966437338, 42295.75899788845, 37168.00059890754, 31489.271699103323, 24631.30946532601, 0.088, 1.012, 0.14400000000000002, 192.0, 0.0, 0.0, 0.0, 0.0, 0.0, 0.0, 0.0, 0.0, 0.0, 1.7074748086080923E9, 0.0, 2024-02-09 11:33:28.608
150.0, -7517.338695208871, -11747.026353719993, 22582.369754596923, 1625.7988364456698, 47399.95865821346, 21275.1726836172, 37813.09429563216, 12436.309449232753, 35513.613881303536, 9473.16103853715, 39778.77375826523, 29017.21346583527, 41826.32766083809, 36992.78527412239, 31355.34004632712, 24489.219425823623, 0.088, 1.012, 0.14400000000000002, 192.0, 0.0, 0.0, 0.0, 0.0, 0.0, 0.0, 0.0, 0.0, 0.0, 1.7074748086170778E9, 0.0, 2024-02-09 11:33:28.617
152.0, -7517.5622126534245, -11749.328583398888, 22573.831388214992, 1633.7784092162144, 47547.54722685185, 21303.000605464054, 37882.004723787875, 12491.562961526271, 35822.31382397578, 9547.145312684217, 40180.14403344918, 29103.98293781077, 42334.941605918604, 37240.152030009274, 31537.28324619332, 24663.563032575017, 0.088, 1.012, 0.14400000000000002, 192.0, 0.0, 0.0, 0.0, 0.0, 0.0, 0.0, 0.0, 0.0, 0.0, 1.707474808624086E9, 0.0, 2024-02-09 11:33:28.624
154.0, -7576.593169759891, -11785.739575116584, 22529.0161405821, 1643.3896593319964, 47259.992034434326, 21245.57897395837, 37750.12943150156, 12382.97818696239, 35554.47287016784, 9476.111468805251, 39866.52670699677, 29018.800439691597, 41995.28449717576, 37056.28658011992, 31392.645107823028, 24549.546784108494, 0.088, 1.012, 0.14400000000000002, 192.0, 0.0, 0.0, 0.0, 0.0, 0.0, 0.0, 0.0, 0.0, 0.0, 1.7074748086321356E9, 0.0, 2024-02-09 11:33:28.632
156.0, -7461.951072448621, -11712.492908536544, 22608.834220032004, 1646.787124489203, 47576.33627371029, 21338.204602981164, 37910.726715412944, 12513.691188537025, 35689.76797935581, 9532.750789254998, 39983.78395840931, 29093.254100472226, 42042.424326232, 37129.80146763343, 31449.597352695153, 24584.504912436594, 0.084, 1.016, 0.14, 192.0, 1.0, 80.0, 15.5, 96.0, 2.0, 48.0, 0.0, 0.0, 0.0, 1.7074748086401455E9, 0.0, 2024-02-09 11:33:28.640
158.0, -7566.914864410743, -11770.182760975691, 22524.054053313026, 1655.9960432047897, 47339.22896852839, 21259.280593309475, 37788.99911510934, 12429.961553807445, 35747.86016319515, 9533.711914266576, 40136.73694571698, 29093.030583027674, 42298.46355896754, 37199.38244812279, 31505.1861411555, 24665.753503531636, 0.084, 1.016, 0.14, 192.0, 0.0, 0.0, 0.0, 0.0, 0.0, 0.0, 0.0, 0.0, 0.0, 1.7074748086491563E9, 0.0, 2024-02-09 11:33:28.649
160.0, -7500.19490721165, -11731.022504689992, 22581.833312729992, 1652.6879850254043, 47386.927591196014, 21285.566244788915, 37816.13413287808, 12436.801187610768, 35524.78975353119, 9503.134727851717, 39795.559918351166, 29040.861611468987, 41820.98559391327, 37031.543199007894, 31363.029046419746, 24512.353481334863, 0.084, 1.016, 0.14, 192.0, 0.0, 0.0, 0.0, 0.0, 0.0, 0.0, 0.0, 0.0, 0.0, 1.7074748086561248E9, 0.0, 2024-02-09 11:33:28.656
162.0, -7504.598200869346, -11732.430664590676, 22580.715725507227, 1656.9348164719127, 47543.255691916434, 21319.36208240534, 37885.73746511191, 12510.561944313282, 35826.33713797774, 9576.314339198392, 40184.390864895686, 29128.413394500425, 42323.251643568474, 37246.9916638126, 31540.837173561715, 24679.16455020482, 0.084, 1.016, 0.14, 192.0, 0.0, 0.0, 0.0, 0.0, 0.0, 0.0, 0.0, 0.0, 0.0, 1.7074748086641989E9, 0.0, 2024-02-09 11:33:28.664
164.0, -7571.452268535169, -11776.128325000802, 22543.812995411517, 1653.1350199145104, 47274.36420611909, 21240.371017500285, 37754.219800736886, 12395.785736535281, 35555.41164343496, 9494.708120192066, 39875.80268094572, 29033.776108476653, 41980.5099940908, 37064.400263357194, 31412.962843532903, 24571.58560414143, 0.084, 1.016, 0.14, 192.0, 0.0, 0.0, 0.0, 0.0, 0.0, 0.0, 0.0, 0.0, 0.0, 1.7074748086721792E9, 0.0, 2024-02-09 11:33:28.672
166.0, -7465.214427139095, -11715.957428927117, 22613.259865434156, 1632.8843394380021, 47585.18756451459, 21327.274599942517, 37906.70340141099, 12510.316075124274, 35688.78450259978, 9535.835329989832, 39976.22906878341, 29090.86246381551, 42027.09102953566, 37116.72569712707, 31458.26982954381, 24578.514644922572, 0.078, 1.018, 0.136, 192.0, 1.0, 56.0, 15.5, 104.0, 2.0, 32.0, 0.0, 0.0, 0.0, 1.707474808680578E9, 0.0, 2024-02-09 11:33:28.680
168.0, -7582.426975062725, -11786.611293150341, 22517.952027076724, 1624.6141939895385, 47358.00443387085, 21241.890936123247, 37784.34995226264, 12422.227850225909, 35742.74161371489, 9530.22504213155, 40126.81277117882, 29078.613707854, 42301.74926540247, 37185.61377353832, 31510.863484247147, 24656.54458481605, 0.078, 1.018, 0.136, 192.0, 0.0, 0.0, 0.0, 0.0, 0.0, 0.0, 0.0, 0.0, 0.0, 1.7074748086881964E9, 0.0, 2024-02-09 11:33:28.688
170.0, -7511.415482928215, -11742.757170529028, 22581.833312729992, 1630.470351036829, 47409.77107402934, 21286.572073289404, 37818.41401081253, 12443.529062691816, 35516.676070293914, 9487.108527077262, 39780.673656543935, 29016.922893157353, 41820.80677995763, 37009.817303397336, 31362.805528975194, 24501.781106207505, 0.078, 1.018, 0.136, 192.0, 0.0, 0.0, 0.0, 0.0, 0.0, 0.0, 0.0, 0.0, 0.0, 1.7074748086962512E9, 0.0, 2024-02-09 11:33:28.696
172.0, -7514.880003318787, -11756.145865457758, 22572.780856225596, 1630.8056272036586, 47548.79892454135, 21296.205675149642, 37885.67040987854, 12505.28693262183, 35822.827914098256, 9556.689507566633, 40177.685341559096, 29109.660280902423, 42317.66370745465, 37238.900332319776, 31535.718624081448, 24668.391009377363, 0.078, 1.018, 0.136, 192.0, 0.0, 0.0, 0.0, 0.0, 0.0, 0.0, 0.0, 0.0, 0.0, 1.7074748087042592E9, 0.0, 2024-02-09 11:33:28.704
174.0, -7572.54750401348, -11778.274092468511, 22531.02779758308, 1639.8357319636027, 47255.07465065416, 21237.644104676736, 37740.98756801934, 12378.26196888232, 35560.35137895958, 9489.969550367541, 39874.59568674513, 29016.811134435076, 41986.07557846017, 37066.70249303609, 31397.540139858742, 24559.67212434675, 0.078, 1.018, 0.136, 192.0, 0.0, 0.0, 0.0, 0.0, 0.0, 0.0, 0.0, 0.0, 0.0, 1.707474808711257E9, 0.0, 2024-02-09 11:33:28.711
176.0, -7458.240682869039, -11704.826260188373, 22611.22585668872, 1632.7055254823597, 47562.478192147995, 21321.50784987305, 37896.756875128376, 12498.402595329595, 35689.63386888908, 9548.240548162526, 39969.836469869195, 29084.447513156836, 42013.59057588465, 37125.085249553355, 31434.755794376826, 24565.282412205033, 0.076, 1.016, 0.136, 192.0, 1.0, 48.0, 15.5, 96.0, 2.0, 32.0, 0.0, 0.0, 0.0, 1.7074748087202852E9, 0.0, 2024-02-09 11:33:28.720
178.0, -7566.780753944011, -11772.686156354684, 22532.190088294756, 1640.9086156974574, 47348.08025933269, 21242.53913671245, 37783.366475506606, 12417.869260057123, 35758.83486972271, 9539.925699225152, 40134.188846849065, 29087.532053891668, 42298.41885547863, 37187.60307879485, 31501.498103320373, 24650.93429695777, 0.076, 1.016, 0.136, 192.0, 0.0, 0.0, 0.0, 0.0, 0.0, 0.0, 0.0, 0.0, 0.0, 1.7074748087283113E9, 0.0, 2024-02-09 11:33:28.728
180.0, -7503.972352024598, -11733.212975646613, 22589.455257589252, 1643.0320314207115, 47392.49317556539, 21274.748000472548, 37815.86591194462, 12442.165606280043, 35518.46420985034, 9502.419472029147, 39796.677505573934, 29034.647826510412, 41820.672669490894, 37020.94847213608, 31362.82788071965, 24495.433210782197, 0.076, 1.016, 0.136, 192.0, 0.0, 0.0, 0.0, 0.0, 0.0, 0.0, 0.0, 0.0, 0.0, 1.7074748087353036E9, 0.0, 2024-02-09 11:33:28.735
182.0, -7502.452433401637, -11737.951545471138, 22582.23564413019, 1650.3187001131416, 47546.9213780071, 21289.254282624042, 37888.73259886892, 12503.834069232234, 35823.99020480993, 9569.072373994872, 40191.789292310394, 29129.70979567883, 42326.67146047014, 37241.202561998674, 31541.15009798409, 24669.665058811315, 0.076, 1.016, 0.136, 192.0, 0.0, 0.0, 0.0, 0.0, 0.0, 0.0, 0.0, 0.0, 0.0, 1.707474808744334E9, 0.0, 2024-02-09 11:33:28.744
184.0, -7566.713698710644, -11773.624929621808, 22541.153137821333, 1657.404203105474, 47267.658682782494, 21228.613999916794, 37755.42679493747, 12375.020965936299, 35565.51463192876, 9501.056015617372, 39887.24677410684, 29044.259076626193, 41998.324334421675, 37067.01541745847, 31407.486666141354, 24559.560365624475, 0.076, 1.016, 0.136, 192.0, 0.0, 0.0, 0.0, 0.0, 0.0, 0.0, 0.0, 0.0, 0.0, 1.7074748087523365E9, 0.0, 2024-02-09 11:33:28.752
186.0, -7452.026897910464, -11709.229553846068, 22616.970255013737, 1651.1233629135327, 47581.18660225709, 21328.45924239865, 37911.97841310244, 12517.893316494623, 35688.29276422176, 9557.963557000585, 39976.7878623948, 29108.430934957378, 42026.24166324636, 37125.241711764545, 31456.057006842737, 24579.989860056623, 0.074, 1.018, 0.132, 192.0, 1.0, 40.0, 15.5, 104.0, 2.0, 16.0, 0.0, 0.0, 0.0, 1.7074748087605493E9, 0.0, 2024-02-09 11:33:28.760
188.0, -7557.705945695156, -11766.919406285217, 22527.675035914785, 1646.8094762336584, 47357.84797165966, 21242.181508801164, 37788.84265289815, 12410.537887875782, 35752.486974297404, 9557.628280833755, 40136.96046316153, 29106.173408767394, 42312.85808239676, 37205.618584825825, 31514.86444650465, 24663.965363975214, 0.074, 1.018, 0.132, 192.0, 0.0, 0.0, 0.0, 0.0, 0.0, 0.0, 0.0, 0.0, 0.0, 1.7074748087673512E9, 0.0, 2024-02-09 11:33:28.767
190.0, -7491.187154196162, -11730.307248867422, 22583.777914497605, 1649.1564094014657, 47397.09763492318, 21287.622605278804, 37822.41497307002, 12436.622373655126, 35521.235826162796, 9518.333914081326, 39789.86022351506, 29056.150204676414, 41827.06526840512, 37014.89114938869, 31364.83953772063, 24511.392356323286, 0.074, 1.018, 0.132, 192.0, 0.0, 0.0, 0.0, 0.0, 0.0, 0.0, 0.0, 0.0, 0.0, 1.7074748087763212E9, 0.0, 2024-02-09 11:33:28.776
192.0, -7488.460241372614, -11732.743589013051, 22579.285213862087, 1650.3187001131416, 47553.872770532704, 21315.964617248133, 37916.91814862706, 12516.261639149385, 35827.07474554476, 9602.28706625546, 40190.87287078772, 29161.605735016554, 42332.32645181733, 37258.52516395154, 31547.207420731476, 24686.317108430518, 0.074, 1.018, 0.132, 192.0, 0.0, 0.0, 0.0, 0.0, 0.0, 0.0, 0.0, 0.0, 0.0, 1.7074748087843714E9, 0.0, 2024-02-09 11:33:28.784
194.0, -7563.651509720267, -11772.730859843596, 22532.88299237287, 1652.9785577033233, 47265.66937752598, 21234.268991263987, 37774.49283295785, 12380.564198561216, 35555.74691960179, 9519.630315259734, 39893.10293115413, 29059.391207622437, 42007.2650322038, 37080.76174029848, 31416.047384267735, 24572.658487875284, 0.074, 1.018, 0.132, 192.0, 0.0, 0.0, 0.0, 0.0, 0.0, 0.0, 0.0, 0.0, 0.0, 1.7074748087913673E9, 0.0, 2024-02-09 11:33:28.791
196.0, -7454.709107245101, -11711.4647282916, 22609.86240027695, 1641.5791680311165, 47573.877581820205, 21317.30572191545, 37928.56340748828, 12502.80588898729, 35676.89337454955, 9571.12873448476, 39968.98710357989, 29108.609748913022, 42026.30871847972, 37132.12604905678, 31454.26886728631, 24576.033601288036, 0.078, 1.014, 0.138, 192.0, 1.0, 56.0, 15.5, 88.0, 2.0, 40.0, 0.0, 0.0, 0.0, 1.707474808799381E9, 0.0, 2024-02-09 11:33:28.799
198.0, -7559.896416651776, -11777.625891879308, 22525.596323680442, 1645.3342610996083, 47357.8256199152, 21236.280648264965, 37815.41887705551, 12413.868297799623, 35761.293561612794, 9558.589405845334, 40133.4735910265, 29107.872141345997, 42320.50237900047, 37202.489340602086, 31520.38532738511, 24659.53971857306, 0.078, 1.014, 0.138, 192.0, 0.0, 0.0, 0.0, 0.0, 0.0, 0.0, 0.0, 0.0, 0.0, 1.7074748088084679E9, 0.0, 2024-02-09 11:33:28.808
200.0, -7490.784822795967, -11730.910745967716, 22580.872187718414, 1644.37313608803, 47394.61659128864, 21259.884090409767, 37837.65886278854, 12419.970324035923, 35515.20085515986, 9527.11814965226, 39788.273249658734, 29058.474786099767, 41829.211035872824, 37012.65597494316, 31367.231174377346, 24497.489571272086, 0.078, 1.014, 0.138, 192.0, 0.0, 0.0, 0.0, 0.0, 0.0, 0.0, 0.0, 0.0, 0.0, 1.70747480881544E9, 0.0, 2024-02-09 11:33:28.815
202.0, -7488.52729660598, -11737.213937904113, 22578.70406850625, 1645.8483512220803, 47561.18179096959, 21283.21931162111, 37909.31855551226, 12493.462859804971, 35824.772515865865, 9597.548496430934, 40190.93992602109, 29156.375426814015, 42332.79583845089, 37226.673928102726, 31549.53200215483, 24667.206366921233, 0.078, 1.014, 0.138, 192.0, 0.0, 0.0, 0.0, 0.0, 0.0, 0.0, 0.0, 0.0, 0.0, 1.7074748088234441E9, 0.0, 2024-02-09 11:33:28.823
204.0, -7559.4717335071255, -11773.75904008854, 22531.228963283178, 1659.9746537178344, 47268.440993838434, 21216.834630588848, 37774.22461202438, 12374.529227558283, 35563.03358829422, 9515.718759980055, 39896.65685852252, 29057.915992488386, 42011.78008458377, 37064.064987190366, 31420.87536107008, 24563.360162181874, 0.078, 1.014, 0.138, 192.0, 0.0, 0.0, 0.0, 0.0, 0.0, 0.0, 0.0, 0.0, 0.0, 1.7074748088325071E9, 0.0, 2024-02-09 11:33:28.832
206.0, -7453.323299088872, -11713.766957970496, 22605.48145836371, 1650.3187001131416, 47568.51316315093, 21302.575922319404, 37918.97450911695, 12475.536760751816, 35675.12758673759, 9570.927568784664, 39964.91908608903, 29109.973205324797, 42016.786875341764, 37109.88606332375, 31459.767396422318, 24571.92088030826, 0.084, 1.016, 0.134, 192.0, 1.0, 80.0, 15.5, 96.0, 2.0, 24.0, 0.0, 0.0, 0.0, 1.7074748088404646E9, 0.0, 2024-02-09 11:33:28.840
208.0, -7555.806047416455, -11778.050575023959, 22526.713910903207, 1659.7064327843707, 47358.630282715596, 21236.191241287142, 37813.65308924355, 12420.551469391761, 35754.47627955393, 9567.395993160724, 40135.105268371735, 29115.33762399407, 42317.44019001009, 37204.90332900325, 31523.76044079786, 24661.238451151665, 0.084, 1.016, 0.134, 192.0, 0.0, 0.0, 0.0, 0.0, 0.0, 0.0, 0.0, 0.0, 0.0, 1.707474808847428E9, 0.0, 2024-02-09 11:33:28.847
210.0, -7492.707072819123, -11736.453978592632, 22582.66032727484, 1650.2963483686863, 47388.693379007986, 21275.8208842064, 37834.529618564804, 12438.388161467095, 35507.5789103006, 9527.252260118992, 39786.4404066134, 29056.03844595414, 41824.807742215125, 37019.51796049094, 31377.512976826787, 24507.79372546598, 0.084, 1.016, 0.134, 192.0, 0.0, 0.0, 0.0, 0.0, 0.0, 0.0, 0.0, 0.0, 0.0, 1.707474808855478E9, 0.0, 2024-02-09 11:33:28.855
212.0, -7492.796479796944, -11738.89031873826, 22586.393068598878, 1647.0329936782116, 47562.634654359186, 21306.39807062126, 37920.91911088456, 12522.251906663407, 35816.36825995067, 9601.862383110809, 40192.66101034415, 29154.095548879573, 42317.99898362148, 37249.85268710288, 31560.976095315946, 24681.399724650353, 0.084, 1.016, 0.134, 192.0, 0.0, 0.0, 0.0, 0.0, 0.0, 0.0, 0.0, 0.0, 0.0, 1.7074748088644779E9, 0.0, 2024-02-09 11:33:28.864
214.0, -7557.191855572683, -11769.467505153121, 22536.727492419184, 1657.3594996165634, 47265.848191481615, 21240.907459367212, 37777.80089113723, 12398.825573781201, 35553.08706201161, 9518.825652459342, 39901.57424230269, 29054.406768608904, 42005.253375202825, 37069.85408900429, 31423.22229423789, 24572.077342519446, 0.084, 1.016, 0.134, 192.0, 0.0, 0.0, 0.0, 0.0, 0.0, 0.0, 0.0, 0.0, 0.0, 1.707474808871667E9, 0.0, 2024-02-09 11:33:28.871
216.0, -7451.825732210366, -11706.234420089057, 22612.209333444756, 1648.7540780012703, 47576.76095685494, 21321.97723650661, 37929.3010150553, 12516.060473449288, 35673.51826113681, 9586.529086414468, 39973.4351007265, 29118.310406006625, 42013.72468635139, 37141.4690782391, 31462.248440056854, 24581.1521507683, 0.074, 1.016, 0.14200000000000002, 192.0, 1.0, 40.0, 15.5, 96.0, 2.0, 56.0, 0.0, 0.0, 0.0, 1.7074748088795323E9, 0.0, 2024-02-09 11:33:28.879
218.0, -7558.77882942901, -11776.463601167632, 22523.964646335204, 1648.7764297457254, 47373.76241371184, 21241.66741867869, 37822.638490514575, 12430.050960785265, 35747.41312830605, 9571.08403099585, 40141.34140507477, 29112.23073151478, 42310.891128884694, 37195.917927732226, 31526.733222810417, 24664.121826186398, 0.074, 1.016, 0.14200000000000002, 192.0, 0.0, 0.0, 0.0, 0.0, 0.0, 0.0, 0.0, 0.0, 0.0, 1.7074748088885276E9, 0.0, 2024-02-09 11:33:28.888
220.0, -7491.813003040911, -11729.212013389113, 22575.88774870488, 1648.6870227679042, 47393.94603895498, 21274.569186516906, 37838.35176686666, 12424.463024671439, 35509.970546957324, 9534.538928811424, 39787.15566243597, 29056.485480843246, 41810.99436414175, 37011.02429759792, 31374.406084347498, 24503.56924576393, 0.074, 1.016, 0.14200000000000002, 192.0, 0.0, 0.0, 0.0, 0.0, 0.0, 0.0, 0.0, 0.0, 0.0, 1.7074748088965297E9, 0.0, 2024-02-09 11:33:28.896
222.0, -7488.840221028355, -11729.480234322577, 22570.679792246796, 1644.0602116656557, 47553.93982576607, 21294.26107338203, 37909.966756101465, 12504.437566332528, 35818.67048962957, 9607.673836669188, 40182.58037359481, 29149.91577266643, 42306.84546313828, 37226.5845211249, 31542.96058928497, 24665.93231748728, 0.074, 1.016, 0.14200000000000002, 192.0, 0.0, 0.0, 0.0, 0.0, 0.0, 0.0, 0.0, 0.0, 0.0, 1.7074748089035828E9, 0.0, 2024-02-09 11:33:28.903
224.0, -7558.488256751091, -11771.412106920732, 22529.329065004476, 1662.6568630524712, 47266.18346764844, 21230.24567726203, 37777.353856248126, 12390.443669610462, 35560.105509770576, 9530.381504342737, 39897.975611445385, 29059.905297744906, 41999.2631076888, 37064.48967033502, 31415.488590656354, 24567.092903505913, 0.074, 1.016, 0.14200000000000002, 192.0, 0.0, 0.0, 0.0, 0.0, 0.0, 0.0, 0.0, 0.0, 0.0, 1.7074748089115791E9, 0.0, 2024-02-09 11:33:28.911
226.0, -7450.574034520869, -11706.167364855692, 22613.125754967423, 1663.5062293417727, 47580.53840166789, 21312.634207324292, 37930.709174955984, 12513.467671092472, 35668.48911863436, 9583.13162125726, 39966.08137680071, 29119.360937996025, 41994.12220646408, 37115.00461280401, 31455.60997195363, 24577.48646467763, 0.076, 1.014, 0.14, 192.0, 1.0, 48.0, 15.5, 88.0, 2.0, 48.0, 0.0, 0.0, 0.0, 1.7074748089205873E9, 0.0, 2024-02-09 11:33:28.920
228.0, -7559.538788740491, -11772.61910112132, 22529.64198942685, 1662.6121595635605, 47369.85085843216, 21236.191241287142, 37820.24685385786, 12431.123844519121, 35750.83294520771, 9582.461068923601, 40145.722346988005, 29118.980958340286, 42304.52088171493, 37206.71382030414, 31530.197743200988, 24676.9740792482, 0.076, 1.014, 0.14, 192.0, 0.0, 0.0, 0.0, 0.0, 0.0, 0.0, 0.0, 0.0, 0.0, 1.7074748089275749E9, 0.0, 2024-02-09 11:33:28.927
230.0, -7496.10453797633, -11731.782464001473, 22588.762353511138, 1657.0242234497339, 47393.163727899046, 21255.033761862967, 37831.71329876343, 12425.737074105391, 35502.79563698717, 9534.963611956075, 39787.245069413795, 29056.194908165326, 41811.664916475405, 37015.29348078889, 31376.97653495986, 24513.38166157981, 0.076, 1.014, 0.14, 192.0, 0.0, 0.0, 0.0, 0.0, 0.0, 0.0, 0.0, 0.0, 0.0, 1.7074748089355793E9, 0.0, 2024-02-09 11:33:28.935
232.0, -7478.133735434263, -11728.161481399713, 22607.671929320328, 1665.182610175921, 47570.79304108537, 21305.347538631864, 37914.235939292426, 12504.526973310349, 35819.16222800758, 9611.317171015402, 40198.69598134708, 29162.164528627938, 42311.00288760697, 37239.34736720889, 31553.15298475659, 24674.31422165802, 0.076, 1.014, 0.14, 192.0, 0.0, 0.0, 0.0, 0.0, 0.0, 0.0, 0.0, 0.0, 0.0, 1.7074748089437635E9, 0.0, 2024-02-09 11:33:28.943
234.0, -7553.59322471538, -11767.94758653016, 22555.257088572635, 1672.692796312904, 47264.41767983648, 21238.40406398822, 37781.37717025008, 12398.892629014568, 35570.49907094229, 9543.010239959984, 39924.35066990265, 29074.165710707395, 42020.81018934372, 37077.92306875266, 31435.202829265934, 24581.509778679585, 0.076, 1.014, 0.14, 192.0, 0.0, 0.0, 0.0, 0.0, 0.0, 0.0, 0.0, 0.0, 0.0, 1.707474808951568E9, 0.0, 2024-02-09 11:33:28.951
236.0, -7444.784932706944, -11705.273295077479, 22616.724385824728, 1658.0747554391332, 47576.76095685494, 21311.874248012813, 37922.39432601861, 12500.9506941975, 35671.618362858106, 9581.499943912024, 39971.177574536516, 29115.89641760545, 42004.135787980056, 37132.17075254569, 31460.54970747825, 24578.358182711385, 0.079, 1.0150000000000001, 0.14200000000000002, 192.0, 1.0, 72.0, 15.5, 96.0, 2.0, 64.0, 0.0, 0.0, 0.0, 1.707474808959731E9, 0.0, 2024-02-09 11:33:28.959
238.0, -7559.203512573661, -11773.557874388442, 22525.93159984727, 1659.8628949955578, 47368.15212585356, 21251.949221128132, 37818.83869395718, 12453.922623863535, 35760.667712768045, 9582.729289857065, 40157.74758550496, 29116.924597850397, 42324.23512032451, 37214.69339307468, 31531.941179268502, 24679.365715904918, 0.079, 1.0150000000000001, 0.14200000000000002, 192.0, 0.0, 0.0, 0.0, 0.0, 0.0, 0.0, 0.0, 0.0, 0.0, 1.707474808967641E9, 0.0, 2024-02-09 11:33:28.967
240.0, -7500.485479889569, -11732.095388423848, 22573.965498681726, 1654.632586793016, 47387.41932957403, 21265.695543968148, 37828.00290918385, 12437.181167266508, 35510.194064401876, 9533.644859033211, 39792.005990982776, 29050.070530184574, 41823.71250673682, 37018.78035292392, 31369.578107545152, 24516.019167425537, 0.079, 1.0150000000000001, 0.14200000000000002, 192.0, 0.0, 0.0, 0.0, 0.0, 0.0, 0.0, 0.0, 0.0, 0.0, 1.707474808976645E9, 0.0, 2024-02-09 11:33:28.976
242.0, -7488.572000094891, -11730.933097712172, 22586.437772087786, 1661.4722205963399, 47577.83384058879, 21301.88301824129, 37925.3000527978, 12509.533764068337, 35820.9056640751, 9605.863345368309, 40197.06430400185, 29148.842888932573, 42317.77546617693, 37242.118983521344, 31552.66124637857, 24686.339460174975, 0.079, 1.0150000000000001, 0.14200000000000002, 192.0, 0.0, 0.0, 0.0, 0.0, 0.0, 0.0, 0.0, 0.0, 0.0, 1.7074748089836602E9, 0.0, 2024-02-09 11:33:28.983
244.0, -7559.739954440589, -11774.586054633386, 22545.13174833438, 1679.7112440718704, 47281.1591364335, 21236.124186053778, 37784.84169064066, 12406.112242473631, 35569.15796627497, 9531.677905521145, 39920.32735590069, 29058.519489588678, 42029.90734933702, 37079.308876908886, 31431.090108286156, 24596.21722653118, 0.079, 1.0150000000000001, 0.14200000000000002, 192.0, 0.0, 0.0, 0.0, 0.0, 0.0, 0.0, 0.0, 0.0, 0.0, 1.7074748089917061E9, 0.0, 2024-02-09 11:33:28.991
246.0, -7449.635261253747, -11705.966199155593, 22623.072281250035, 1671.530505601228, 47584.47230869202, 21315.472878870118, 37937.23588433694, 12514.741720526425, 35668.600877356635, 9583.310435212903, 39970.21644952494, 29113.080097804082, 42006.48272114786, 37120.97252857358, 31460.19207956697, 24599.72645041066, 0.0825, 1.0135, 0.14200000000000002, 192.0, 1.0, 88.0, 15.5, 80.0, 2.0, 56.0, 0.0, 0.0, 0.0, 1.707474808999643E9, 0.0, 2024-02-09 11:33:28.999
248.0, -7555.291957293983, -11775.52482790051, 22544.79647216755, 1677.9678080043566, 47385.117099895135, 21259.30294505393, 37837.14477266607, 12435.348324221173, 35765.58509654822, 9584.405670691212, 40160.16157390614, 29122.91486536442, 42326.827922681325, 37223.857608301354, 31537.417356660055, 24699.16936149232, 0.0825, 1.0135, 0.14200000000000002, 192.0, 0.0, 0.0, 0.0, 0.0, 0.0, 0.0, 0.0, 0.0, 0.0, 1.7074748090079887E9, 0.0, 2024-02-09 11:33:29.007
250.0, -7502.161860723718, -11736.521033825999, 22594.17147566932, 1672.5586858461722, 47394.0354459328, 21269.718857970103, 37846.39839487057, 12439.103417289665, 35512.94332896988, 9539.590423058322, 39796.811616040664, 29061.04523671213, 41827.57935852759, 37028.816286184345, 31379.16700591648, 24536.068682201945, 0.0825, 1.0135, 0.14200000000000002, 192.0, 0.0, 0.0, 0.0, 0.0, 0.0, 0.0, 0.0, 0.0, 0.0, 1.7074748090156977E9, 0.0, 2024-02-09 11:33:29.015
252.0, -7486.873267516287, -11732.810644246418, 22604.05094671857, 1665.1379066870102, 47564.84747706026, 21293.612872792826, 37922.059049851785, 12503.85642097669, 35817.82112334027, 9620.66020019772, 40197.466635402045, 29164.19853737337, 42313.90861438616, 37254.837126116414, 31553.28709522332, 24698.78938183658, 0.0825, 1.0135, 0.14200000000000002, 192.0, 0.0, 0.0, 0.0, 0.0, 0.0, 0.0, 0.0, 0.0, 0.0, 1.7074748090236912E9, 0.0, 2024-02-09 11:33:29.023
254.0, -7552.20741655915, -11764.214845206125, 22558.319277563012, 1669.563552089161, 47266.56344730419, 21227.742281883035, 37774.17990853547, 12379.759535760824, 35566.36399821806, 9539.433960847135, 39920.93085300098, 29064.107425702507, 42017.94916605344, 37074.7044175511, 31421.165933748, 24590.562235183985, 0.0825, 1.0135, 0.14200000000000002, 192.0, 0.0, 0.0, 0.0, 0.0, 0.0, 0.0, 0.0, 0.0, 0.0, 1.7074748090327375E9, 0.0, 2024-02-09 11:33:29.032
0.0, -7439.554624504402, -11698.03132987396, 22639.523165169143, 1665.696700298393, 47587.66860814913, 21318.758585305048, 37922.84136090772, 12507.544458811815, 35674.65820010402, 9599.671912154188, 39976.72080716143, 29120.590283941066, 42000.291287933745, 37141.49142998355, 31465.221222069413, 24594.92082535277, 0.08225, 1.01375, 0.14300000000000002, 192.0, 1.0, 72.0, 15.5, 88.0, 2.0, 64.0, 0.0, 0.0, 0.0, 1.707474809039759E9, 0.0, 2024-02-09 11:33:29.039
2.0, -7542.797332143466, -11760.593862604364, 22550.697332703752, 1669.5859038336164, 47391.979085442916, 21244.327276268876, 37830.97569119641, 12435.594193410183, 35777.63268680962, 9594.978045818574, 40168.81169901034, 29126.625254944, 42320.122399344735, 37221.39891641127, 31539.808993316772, 24692.240320711175, 0.08225, 1.01375, 0.14300000000000002, 192.0, 0.0, 0.0, 0.0, 0.0, 0.0, 0.0, 0.0, 0.0, 0.0, 1.707474809047752E9, 0.0, 2024-02-09 11:33:29.047
4.0, -7493.914067019709, -11728.541461055454, 22594.931434980805, 1672.625741079538, 47404.87604199363, 21270.478817281582, 37848.11947919363, 12448.289984260797, 35520.16294242894, 9547.190016173126, 39800.83493004262, 29058.78771052214, 41826.282957349176, 37035.745326965494, 31382.340953629133, 24527.820888497936, 0.08225, 1.01375, 0.14300000000000002, 192.0, 0.0, 0.0, 0.0, 0.0, 0.0, 0.0, 0.0, 0.0, 0.0, 1.7074748090557673E9, 0.0, 2024-02-09 11:33:29.055
6.0, -7485.934494249165, -11732.497719824043, 22592.919777979827, 1666.1660869319544, 47582.84063134678, 21291.534160558484, 37924.67420395306, 12514.42879610405, 35827.991167067434, 9610.177232048181, 40197.35487667977, 29154.58728725759, 42311.025239351424, 37239.36971895334, 31550.604885888686, 24692.396782922362, 0.08225, 1.01375, 0.14300000000000002, 192.0, 0.0, 0.0, 0.0, 0.0, 0.0, 0.0, 0.0, 0.0, 0.0, 1.7074748090637753E9, 0.0, 2024-02-09 11:33:29.063
8.0, -7560.566968985435, -11771.680327854196, 22540.70610293223, 1674.7715085472475, 47275.59355206413, 21239.45459597762, 37782.40535049503, 12399.227905181397, 35572.48837619882, 9536.550585812402, 39928.172818204504, 29059.99470472273, 42034.37769822809, 37084.04744673341, 31421.277692470278, 24590.115200294877, 0.08225, 1.01375, 0.14300000000000002, 192.0, 0.0, 0.0, 0.0, 0.0, 0.0, 0.0, 0.0, 0.0, 0.0, 1.7074748090720096E9, 0.0, 2024-02-09 11:33:29.072
