%OpenBCI Raw EXG Data
%Number of channels = 16
%Sample Rate = 125 Hz
%Board = OpenBCI_GUI$BoardCytonSerialDaisy
Sample Index, EXG Channel 0, EXG Channel 1, EXG Channel 2, EXG Channel 3, EXG Channel 4, EXG Channel 5, EXG Channel 6, EXG Channel 7, EXG Channel 8, EXG Channel 9, EXG Channel 10, EXG Channel 11, EXG Channel 12, EXG Channel 13, EXG Channel 14, EXG Channel 15, Accel Channel 0, Accel Channel 1, Accel Channel 2, Other, Other, Other, Other, Other, Other, Other, Analog Channel 0, Analog Channel 1, Analog Channel 2, Timestamp, Other, Timestamp (Formatted)
0.0, -18343.853157025955, -7091.537963335271, 13394.416975309488, -3711.5742220371035, 45232.5770536157, 15863.033039931423, 32448.630922869557, 7014.469148453373, 0.0, 0.0, 0.0, 0.0, 0.0, 0.0, 0.0, 0.0, 0.0, 0.0, 0.0, 192.0, 0.0, 0.0, 0.0, 0.0, 0.0, 0.0, 0.0, 0.0, 0.0, 1.707474157526346E9, 0.0, 2024-02-09 11:22:37.526
164.0, -18345.998924493662, -7097.237658171375, 13396.808611966208, -3717.11745466202, 45030.293766295166, 15836.769740196436, 32345.768194886234, 6935.3886765704965, 26704.94785367821, 4923.463454659397, 38439.390175269866, 27116.42111735596, 38228.79203901196, 32353.92658161242, 26610.668195565726, 24331.61727566925, 0.0, 0.0, 0.0, 192.0, 0.0, 0.0, 0.0, 0.0, 0.0, 0.0, 0.0, 0.0, 0.0, 1.7074741575264473E9, 0.0, 2024-02-09 11:22:37.526
0.0, -9191.417299678005, -3686.696730458347, 6800.942933671825, -1818.560280628238, 22719.564762063597, 8026.600840878587, 16346.881252155454, 3629.8115408195904, 13534.696523510996, 2528.0940566175054, 19473.979708430732, 13624.103501332225, 19396.575617382005, 16319.098033797507, 13430.783263538273, 12292.543028896216, 0.082, 0.998, 0.254, 192.0, 1.0, 72.0, 15.5, 24.0, 3.5, 120.0, 0.0, 0.0, 0.0, 1.707474157616325E9, 0.0, 2024-02-09 11:22:37.616
2.0, -18487.932501784864, -7508.845032315855, 13542.206709647979, -3630.4820931532495, 45053.20430436186, 15963.30296555793, 32491.702734434934, 7101.462137873428, 27054.663247425946, 4976.839420418671, 38669.12140478151, 27207.258606822328, 38703.40898077595, 32598.7452386314, 26807.27413979461, 24487.498341500563, 0.082, 0.998, 0.254, 192.0, 0.0, 0.0, 0.0, 0.0, 0.0, 0.0, 0.0, 0.0, 0.0, 1.7074741576242952E9, 0.0, 2024-02-09 11:22:37.624
4.0, -18414.77524218264, -7404.998827576498, 13624.17055656559, -3648.430543950861, 45319.234766868925, 16034.672085603725, 32650.914210190083, 7219.345238130718, 26974.018153431196, 4961.88610337807, 38469.27445760661, 27197.826170662185, 38334.69460424121, 32504.845560174654, 26712.770964237567, 24326.811650611362, 0.082, 0.998, 0.254, 192.0, 0.0, 0.0, 0.0, 0.0, 0.0, 0.0, 0.0, 0.0, 0.0, 1.7074741576333015E9, 0.0, 2024-02-09 11:22:37.633
6.0, -18495.688557110854, -7501.915991534709, 13565.899558770605, -3647.916453828389, 45278.24166753789, 15978.30098608744, 32607.842398624707, 7161.387164758106, 27219.19443836146, 5016.379656360109, 38884.905145753044, 27252.766758533333, 38929.00513756337, 32714.81784758781, 26925.760737152188, 24574.983069298636, 0.082, 0.998, 0.254, 192.0, 0.0, 0.0, 0.0, 0.0, 0.0, 0.0, 0.0, 0.0, 0.0, 1.7074741576403728E9, 0.0, 2024-02-09 11:22:37.640
8.0, -18522.175374290393, -7532.493177949569, 13571.26397743988, -3647.0223840501767, 45073.05265343817, 15953.53525323096, 32492.306231535225, 7067.867465957102, 26875.782236550123, 4903.503346860808, 38391.33392469095, 27133.743719308823, 38321.3953162903, 32444.160573978494, 26667.262812526562, 24299.229597953512, 0.062, 1.004, 0.254, 192.0, 0.5, 120.0, 15.5, 48.0, 3.5, 120.0, 0.0, 0.0, 0.0, 1.7074741576483436E9, 0.0, 2024-02-09 11:22:37.648
10.0, -18482.769248815686, -7473.5963313098355, 13603.271675499878, -3668.5471139606375, 45444.717460241016, 16017.058910972943, 32680.396161126635, 7228.934136502045, 27147.22182121537, 4982.583818743685, 38737.36128060357, 27216.6239877491, 38697.2846027952, 32640.118317618173, 26862.88527999941, 24463.313753999922, 0.062, 1.004, 0.254, 192.0, 0.0, 0.0, 0.0, 0.0, 0.0, 0.0, 0.0, 0.0, 0.0, 1.707474157657328E9, 0.0, 2024-02-09 11:22:37.657
12.0, -18582.39097385299, -7609.785510276021, 13532.841328721206, -3646.86592183899, 45060.78154573221, 15929.39536921923, 32471.832033614166, 7044.554596490217, 27022.901418554953, 4908.9348207634475, 38638.007776499726, 27146.953600281908, 38697.55282372866, 32565.530546370814, 26805.329538026996, 24454.261297495523, 0.062, 1.004, 0.254, 192.0, 0.0, 0.0, 0.0, 0.0, 0.0, 0.0, 0.0, 0.0, 0.0, 1.707474157664286E9, 0.0, 2024-02-09 11:22:37.664
14.0, -18492.46990590929, -7489.376662895283, 13602.511716188397, -3676.213762308808, 45319.81591222476, 15996.249436885053, 32603.41675322256, 7133.581594655704, 26946.39139728444, 4913.785149310249, 38432.84111414446, 27146.79713807072, 38319.87539766734, 32469.44039695745, 26704.29965308901, 24287.696097814573, 0.062, 1.004, 0.254, 192.0, 0.0, 0.0, 0.0, 0.0, 0.0, 0.0, 0.0, 0.0, 0.0, 1.707474157672344E9, 0.0, 2024-02-09 11:22:37.672
16.0, -18564.308412588645, -7584.036300663508, 13542.340820114712, -3674.0456430966433, 45276.07354832572, 15964.39820103624, 32546.553915328255, 7118.337704937185, 27195.5686444722, 4955.225283530389, 38849.14235462456, 27189.57837695818, 38911.213148976945, 32670.337876121746, 26902.17964675184, 24534.61581881235, 0.062, 1.004, 0.254, 192.0, 0.0, 0.0, 0.0, 0.0, 0.0, 0.0, 0.0, 0.0, 0.0, 1.70747415768035E9, 0.0, 2024-02-09 11:22:37.680
18.0, -18557.446427040868, -7577.956626171664, 13555.170721432058, -3658.466477211294, 45081.43455760891, 15954.563433475905, 32494.09437109165, 7036.284451041753, 26864.78517827811, 4850.86498866856, 38366.09880520091, 27085.59806175209, 38307.604289961375, 32407.70487877189, 26657.78567287751, 24279.448304110563, 0.046, 1.008, 0.258, 192.0, 0.5, 56.0, 15.5, 64.0, 4.0, 8.0, 0.0, 0.0, 0.0, 1.7074741576883864E9, 0.0, 2024-02-09 11:22:37.688
20.0, -18489.340661685546, -7481.262979658006, 13588.810096837295, -3671.944579117844, 45454.28400686789, 16030.60406811286, 32677.266916902892, 7204.928362957045, 27157.391864942536, 4966.199990057944, 38730.767515989246, 27196.730935183878, 38676.83275661859, 32632.898704159106, 26853.27402988363, 24444.11360551281, 0.046, 1.008, 0.258, 192.0, 0.0, 0.0, 0.0, 0.0, 0.0, 0.0, 0.0, 0.0, 0.0, 1.7074741576973813E9, 0.0, 2024-02-09 11:22:37.697
22.0, -18568.488188801788, -7594.519268813046, 13524.05709315027, -3647.402363705917, 45071.331569115115, 15941.599421691826, 32473.95544933742, 7041.939442388945, 27030.813936092134, 4897.021340968769, 38642.72399457979, 27136.627094343556, 38684.0300183332, 32561.529584113312, 26800.278043780094, 24440.78319558897, 0.046, 1.008, 0.258, 192.0, 0.0, 0.0, 0.0, 0.0, 0.0, 0.0, 0.0, 0.0, 0.0, 1.7074741577043931E9, 0.0, 2024-02-09 11:22:37.704
24.0, -18441.820852973564, -7425.316563286372, 13614.69341691654, -3654.1302387869646, 45349.52138060587, 16022.400977897762, 32635.782079193843, 7147.3502692401735, 26969.503101051225, 4916.467358644886, 38453.80705044354, 27153.18973698494, 38314.48862725361, 32486.76299891031, 26717.107202661897, 24290.646528082674, 0.046, 1.008, 0.258, 192.0, 0.0, 0.0, 0.0, 0.0, 0.0, 0.0, 0.0, 0.0, 0.0, 1.707474157712397E9, 0.0, 2024-02-09 11:22:37.712
26.0, -18471.70513531031, -7470.400031852727, 13561.473913368454, -3652.8114858641015, 45318.318345346255, 15966.856892926324, 32601.60626192168, 7103.294980918763, 27238.30517987075, 4991.658626992539, 38895.36576215813, 27222.413089563026, 38931.352070731176, 32702.5690916263, 26930.164030809883, 24534.34759787889, 0.046, 1.008, 0.258, 192.0, 0.0, 0.0, 0.0, 0.0, 0.0, 0.0, 0.0, 0.0, 0.0, 1.7074741577194288E9, 0.0, 2024-02-09 11:22:37.719
28.0, -18440.010361672685, -7446.5954240078245, 13581.389317678133, -3641.210930491797, 45113.1963864799, 15947.947317117134, 32499.5705484832, 7013.709189141892, 26924.71020516279, 4900.374102637065, 38437.46792524671, 27134.07899547565, 38343.747060745605, 32449.592047881135, 26690.66508897127, 24279.738876788484, 0.048, 1.002, 0.272, 192.0, 0.5, 64.0, 15.5, 40.0, 4.0, 64.0, 0.0, 0.0, 0.0, 1.7074741577284007E9, 0.0, 2024-02-09 11:22:37.728
30.0, -18351.028066996107, -7338.8823674776995, 13628.79736766784, -3648.698764884325, 45505.80477783737, 16027.430120400206, 32721.657481391132, 7175.044080620299, 27229.63270302209, 5007.148385900067, 38808.03749657125, 27247.558802075244, 38722.85499845207, 32655.04928291432, 26884.812341310066, 24434.859983308314, 0.048, 1.002, 0.272, 192.0, 0.0, 0.0, 0.0, 0.0, 0.0, 0.0, 0.0, 0.0, 0.0, 1.7074741577364235E9, 0.0, 2024-02-09 11:22:37.736
32.0, -18430.063835390072, -7457.525427046469, 13549.53808182932, -3634.6395176219366, 45111.98939227932, 15920.186450503643, 32485.891280876553, 6969.4303833759295, 27114.834143499633, 4933.141760008545, 38730.767515989246, 27188.19256880195, 38752.11343194407, 32587.614069892654, 26835.951427930766, 24439.330332199377, 0.048, 1.002, 0.272, 192.0, 0.0, 0.0, 0.0, 0.0, 0.0, 0.0, 0.0, 0.0, 0.0, 1.7074741577446575E9, 0.0, 2024-02-09 11:22:37.744
34.0, -18322.686055026777, -7317.558803267337, 13625.489309488454, -3653.012651564199, 45380.09856702072, 16007.78293702399, 32659.385521338645, 7098.399948883051, 27044.090872298584, 4942.529492679774, 38515.721382584736, 27184.593937944646, 38379.80042455202, 32482.80674014172, 26736.620275571382, 24270.99934470646, 0.048, 1.002, 0.272, 192.0, 0.0, 0.0, 0.0, 0.0, 0.0, 0.0, 0.0, 0.0, 0.0, 1.7074741577514832E9, 0.0, 2024-02-09 11:22:37.751
36.0, -18376.509055675157, -7391.587780903314, 13557.741172044418, -3661.0145760791993, 45350.23663642843, 15955.837482909857, 32614.637328939123, 7053.338832061152, 27302.767610879855, 4992.530345026296, 38943.17614354803, 27244.787185762787, 38995.367466851174, 32687.012277485406, 26945.94436239533, 24526.926818719723, 0.048, 1.002, 0.272, 192.0, 0.0, 0.0, 0.0, 0.0, 0.0, 0.0, 0.0, 0.0, 0.0, 1.707474157760944E9, 0.0, 2024-02-09 11:22:37.760
38.0, -18359.58878512249, -7378.780231330423, 13572.180398962546, -3649.481075940261, 45137.29156700272, 15948.439055495151, 32524.49274355087, 6988.652883607493, 26968.899603950933, 4892.34982637761, 38460.24435284667, 27145.6571991035, 38398.33002070546, 32428.626111582056, 26687.692306958714, 24265.210242892535, 0.07, 0.986, 0.276, 192.0, 1.0, 24.0, 15.0, 104.0, 4.0, 80.0, 0.0, 0.0, 0.0, 1.7074741577684515E9, 0.0, 2024-02-09 11:22:37.768
40.0, -18282.698784196233, -7275.9175033471, 13615.051044827826, -3662.1321633019643, 45509.6939813726, 16021.842184286379, 32718.75175461194, 7159.241397290397, 27252.29737189977, 5007.349551600165, 38805.24352851433, 27255.7842440348, 38760.115356459064, 32632.004634380894, 26877.659783084368, 24429.294398938942, 0.07, 0.986, 0.276, 192.0, 0.0, 0.0, 0.0, 0.0, 0.0, 0.0, 0.0, 0.0, 0.0, 1.7074741577754714E9, 0.0, 2024-02-09 11:22:37.775
42.0, -18363.232119468703, -7392.325388470339, 13546.833520750228, -3635.9806222892553, 45114.26927021376, 15927.093139540333, 32514.05447889024, 6991.402148175496, 27133.94488500892, 4948.162132282511, 38724.37491707503, 27201.33539454167, 38778.510842145784, 32569.889136539598, 26823.345044057973, 24437.832765320873, 0.07, 0.986, 0.276, 192.0, 0.0, 0.0, 0.0, 0.0, 0.0, 0.0, 0.0, 0.0, 0.0, 1.7074741577854705E9, 0.0, 2024-02-09 11:22:37.785
44.0, -18259.05063856252, -7256.851465326723, 13627.925649634082, -3648.475247439772, 45370.66613086058, 16003.469050344116, 32689.202748442025, 7120.50582414935, 27056.719607915835, 4957.751030653838, 38517.4424669078, 27208.331490556182, 38382.37087516438, 32475.788292382753, 26738.229601172163, 24285.840903024782, 0.07, 0.986, 0.276, 192.0, 0.0, 0.0, 0.0, 0.0, 0.0, 0.0, 0.0, 0.0, 0.0, 1.7074741577925324E9, 0.0, 2024-02-09 11:22:37.792
46.0, -18313.387729333368, -7322.297373091862, 13569.095858227714, -3643.535511915149, 45324.129798904636, 15968.197997593643, 32613.27387252735, 7114.940239779979, 27306.433296970525, 5019.821825006226, 38946.70771917197, 27268.54709011878, 38975.54146951932, 32698.031687501873, 26947.173708340375, 24542.461281116164, 0.07, 0.986, 0.276, 192.0, 0.0, 0.0, 0.0, 0.0, 0.0, 0.0, 0.0, 0.0, 0.0, 1.707474157800516E9, 0.0, 2024-02-09 11:22:37.800
48.0, -18311.733700243676, -7323.280849847895, 13586.105535758203, -3631.9573082873, 45106.6473253545, 15945.622735693782, 32537.63556929059, 7025.175634047465, 26974.219319131294, 4921.518852891785, 38466.21226861623, 27167.964240069898, 38370.83737502544, 32449.927324047963, 26690.66508897127, 24285.259757668944, 0.08, 0.99, 0.272, 192.0, 1.0, 64.0, 15.0, 120.0, 4.0, 64.0, 0.0, 0.0, 0.0, 1.7074741578075163E9, 0.0, 2024-02-09 11:22:37.807
50.0, -18246.176033756263, -7231.996325492421, 13640.84495792925, -3635.24301472223, 45480.860231025246, 16029.642943101282, 32740.05296707785, 7200.837993721723, 27256.745369046377, 5046.688621841505, 38806.763447137295, 27279.655907113065, 38717.04354489369, 32665.174623152572, 26883.426533153837, 24442.12430025629, 0.08, 0.99, 0.272, 192.0, 0.0, 0.0, 0.0, 0.0, 0.0, 0.0, 0.0, 0.0, 0.0, 1.7074741578165088E9, 0.0, 2024-02-09 11:22:37.816
52.0, -18353.19618620827, -7377.5061818964705, 13565.027840736848, -3615.1264447124536, 45068.35878710256, 15941.197090291631, 32498.654126960533, 7028.997782349323, 27139.644579845022, 4987.076519379201, 38731.594530534094, 27224.514153541822, 38748.00071096429, 32614.12323881665, 26830.31878832803, 24461.03387606548, 0.08, 0.99, 0.272, 192.0, 0.0, 0.0, 0.0, 0.0, 0.0, 0.0, 0.0, 0.0, 0.0, 1.7074741578240013E9, 0.0, 2024-02-09 11:22:37.824
54.0, -18270.584138701455, -7259.086639772254, 13644.55534750883, -3628.023401263166, 45311.92574643204, 16014.577867338405, 32641.83940194123, 7142.522292437827, 27046.30369499966, 4983.880219922093, 38504.63491733491, 27222.033109907283, 38353.894752728316, 32513.562740512225, 26716.324891605964, 24290.981804249503, 0.08, 0.99, 0.272, 192.0, 0.0, 0.0, 0.0, 0.0, 0.0, 0.0, 0.0, 0.0, 0.0, 1.7074741578315496E9, 0.0, 2024-02-09 11:22:37.831
56.0, -18347.20591869425, -7352.114600195241, 13597.348463219221, -3617.1604534578864, 45303.38738005011, 15988.918064703712, 32613.83266613873, 7151.820618131235, 27299.034869555817, 5044.475799140429, 38937.29763475629, 27287.233148483414, 38967.49484151541, 32736.56609494282, 26938.925914636366, 24564.164824982265, 0.08, 0.99, 0.272, 192.0, 0.0, 0.0, 0.0, 0.0, 0.0, 0.0, 0.0, 0.0, 0.0, 1.7074741578405662E9, 0.0, 2024-02-09 11:22:37.840
58.0, -18387.86374185845, -7392.437147192615, 13588.854800326206, -3625.2070814617973, 45068.470545824835, 15949.154311317721, 32481.13035930757, 7033.222262051376, 26950.437063030848, 4926.5479953942295, 38446.20745732873, 27174.155673284018, 38360.91320048728, 32461.75139686482, 26685.18891157972, 24308.86319981375, 0.076, 1.006, 0.27, 192.0, 1.0, 48.0, 15.5, 56.0, 4.0, 56.0, 0.0, 0.0, 0.0, 1.707474157848578E9, 0.0, 2024-02-09 11:22:37.848
60.0, -18372.6869073733, -7344.067972191331, 13624.014094354403, -3647.5811776615597, 45451.55709404434, 16032.54866988047, 32685.022972228882, 7211.253906637897, 27208.599711489645, 5011.797548746771, 38767.133804218036, 27257.527680102314, 38690.780245158705, 32644.834535698243, 26865.07575095603, 24453.74720737305, 0.076, 1.006, 0.27, 192.0, 0.0, 0.0, 0.0, 0.0, 0.0, 0.0, 0.0, 0.0, 0.0, 1.707474157855652E9, 0.0, 2024-02-09 11:22:37.855
62.0, -18532.591287206567, -7538.483445463592, 13532.528404298831, -3646.86592183899, 45054.25483635126, 15930.177680275165, 32466.489966689347, 7045.068686612688, 27061.525232973723, 4923.217585470389, 38667.98146581429, 27174.043914561742, 38711.65677447996, 32576.326438942724, 26820.282855067595, 24462.732608644084, 0.076, 1.006, 0.27, 192.0, 0.0, 0.0, 0.0, 0.0, 0.0, 0.0, 0.0, 0.0, 0.0, 1.707474157863626E9, 0.0, 2024-02-09 11:22:37.863
64.0, -18485.09383023904, -7465.4379445836485, 13598.35429171971, -3677.0407768536543, 45302.26979282735, 15991.108535660333, 32621.409907509078, 7137.582556913204, 26946.860783918, 4900.39645438152, 38419.83239887147, 27148.56292588269, 38306.59846146089, 32464.746530621833, 26711.988653181634, 24282.555196589852, 0.076, 1.006, 0.27, 192.0, 0.0, 0.0, 0.0, 0.0, 0.0, 0.0, 0.0, 0.0, 0.0, 1.70747415787364E9, 0.0, 2024-02-09 11:22:37.873
66.0, -18558.67577298591, -7567.227788833116, 13542.832558492728, -3675.140878574953, 45294.2902200568, 15950.294250284942, 32614.950253361498, 7124.350324195662, 27194.696926438442, 4945.256405503322, 38840.0675463757, 27199.01081311832, 38914.208282733955, 32677.401027369622, 26927.392414497426, 24530.79367051049, 0.076, 1.006, 0.27, 192.0, 0.0, 0.0, 0.0, 0.0, 0.0, 0.0, 0.0, 0.0, 0.0, 1.7074741578806088E9, 0.0, 2024-02-09 11:22:37.880
68.0, -18557.893461929973, -7572.301634824471, 13549.739247529418, -3665.5519802036265, 45065.184839389905, 15932.457558209606, 32486.494777976848, 7041.782980177758, 26860.65010555388, 4846.14877058849, 38367.81988952397, 27100.394916581503, 38323.80930469147, 32416.8020387652, 26683.736048190123, 24281.817589022827, 0.058, 1.016, 0.26, 192.0, 0.5, 104.0, 15.5, 96.0, 4.0, 16.0, 0.0, 0.0, 0.0, 1.707474157887663E9, 0.0, 2024-02-09 11:22:37.887
70.0, -18476.197835945826, -7464.4991713165255, 13599.851858598216, -3674.7161954303024, 45440.78355321688, 16003.35729162184, 32670.919021477584, 7197.440528564517, 27144.27139094727, 4964.277740034788, 38716.574158260126, 27213.539447014267, 38660.51598316622, 32605.11548580116, 26853.69871302828, 24431.529573384476, 0.058, 1.016, 0.26, 192.0, 0.0, 0.0, 0.0, 0.0, 0.0, 0.0, 0.0, 0.0, 0.0, 1.7074741578958561E9, 0.0, 2024-02-09 11:22:37.895
72.0, -18558.206386352347, -7587.746690243089, 13535.992924689404, -3645.927148571867, 45058.903999197966, 15913.81620333388, 32469.32863823517, 7032.976392862367, 27040.805165863654, 4918.277849945766, 38665.9251053244, 27167.025466802774, 38706.87350116653, 32554.578191587712, 26816.7289276992, 24451.176756760688, 0.058, 1.016, 0.26, 192.0, 0.0, 0.0, 0.0, 0.0, 0.0, 0.0, 0.0, 0.0, 0.0, 1.7074741579047034E9, 0.0, 2024-02-09 11:22:37.904
74.0, -18437.931649438342, -7434.525482001959, 13629.266754301401, -3654.040831809143, 45314.764417977865, 15995.109497917832, 32632.40696578109, 7140.331821481207, 26960.5624032691, 4928.269079717288, 38441.53594273757, 27172.56869942769, 38312.67813595273, 32472.70375164792, 26717.598941039916, 24284.85742626875, 0.058, 1.016, 0.26, 192.0, 0.0, 0.0, 0.0, 0.0, 0.0, 0.0, 0.0, 0.0, 0.0, 1.7074741579118173E9, 0.0, 2024-02-09 11:22:37.911
76.0, -18471.660431821398, -7480.413613368704, 13579.69058509953, -3647.24590149473, 45316.82077846775, 15962.610061479816, 32621.901645887097, 7115.543736880271, 27239.71333977143, 5018.570127316729, 38893.309401668244, 27252.476185855412, 38939.21988477944, 32707.933510295574, 26952.359313054003, 24547.803348040983, 0.058, 1.016, 0.26, 192.0, 0.0, 0.0, 0.0, 0.0, 0.0, 0.0, 0.0, 0.0, 0.0, 1.7074741579197135E9, 0.0, 2024-02-09 11:22:37.919
78.0, -18462.160940427893, -7475.4738778440815, 13582.238683967435, -3646.374183460973, 45097.57251710565, 15938.403122234718, 32524.090412150672, 7026.337924759141, 26914.160181779884, 4920.423617413476, 38427.007308841625, 27151.37924568406, 38355.34761611791, 32451.983684537852, 26714.983786938643, 24298.08965898629, 0.054, 0.998, 0.26, 192.0, 0.5, 88.0, 15.5, 24.0, 4.0, 16.0, 0.0, 0.0, 0.0, 1.7074741579287162E9, 0.0, 2024-02-09 11:22:37.928
80.0, -18377.000794053172, -7363.782210800911, 13628.193870567546, -3654.0631835535987, 45485.44233863859, 16013.907315004744, 32726.485458193478, 7186.868153437156, 27201.581263730677, 5035.155121702566, 38766.39619665101, 27261.193366192983, 38690.57907945861, 32646.756785721398, 26890.51203614617, 24442.325465956386, 0.054, 0.998, 0.26, 192.0, 0.0, 0.0, 0.0, 0.0, 0.0, 0.0, 0.0, 0.0, 0.0, 1.707474157936768E9, 0.0, 2024-02-09 11:22:37.936
82.0, -18462.51856833918, -7482.134697691763, 13545.291250382812, -3639.1322182574536, 45097.77368280574, 15907.401252675207, 32512.489856778368, 6999.694645368415, 27105.02172768375, 4982.7179292104165, 38714.80837044816, 27213.740612714366, 38744.64794929599, 32599.393439220603, 26851.061207182553, 24460.765655132014, 0.054, 0.998, 0.26, 192.0, 0.0, 0.0, 0.0, 0.0, 0.0, 0.0, 0.0, 0.0, 0.0, 1.7074741579437482E9, 0.0, 2024-02-09 11:22:37.943
84.0, -18345.238965182183, -7333.853224975255, 13627.322152533789, -3647.3576602170065, 45341.83238051324, 15988.225160625598, 32662.626524284668, 7114.962591524433, 27018.63223536399, 4980.46040302043, 38479.511556567144, 27212.265397580315, 38339.0978978989, 32483.074961075185, 26741.00121748462, 24284.075115212814, 0.054, 0.998, 0.26, 192.0, 0.0, 0.0, 0.0, 0.0, 0.0, 0.0, 0.0, 0.0, 0.0, 1.7074741579517725E9, 0.0, 2024-02-09 11:22:37.951
86.0, -18380.577073166023, -7383.7870220884115, 13579.847047310717, -3640.115695013487, 45337.4514386, 15957.625622466281, 32654.46813755848, 7115.208460713442, 27297.425543955036, 5056.0316510238235, 38925.07123053923, 27290.07182002924, 38961.750443190394, 32705.98890852796, 26967.424388816882, 24558.018095257055, 0.054, 0.998, 0.26, 192.0, 0.0, 0.0, 0.0, 0.0, 0.0, 0.0, 0.0, 0.0, 0.0, 1.7074741579609387E9, 0.0, 2024-02-09 11:22:37.960
88.0, -18377.894863831385, -7390.5372489139145, 13585.077355513258, -3635.1983112333196, 45095.4938048713, 15921.751072615514, 32539.267246635827, 7010.24466875132, 26969.57015628459, 4951.067859061702, 38453.225905087704, 27188.23727229086, 38381.58856410844, 32441.433661154948, 26717.308368361995, 24309.690214358594, 0.06, 0.99, 0.254, 192.0, 1.0, 8.0, 15.0, 88.0, 3.5, 96.0, 0.0, 0.0, 0.0, 1.70747415796778E9, 0.0, 2024-02-09 11:22:37.967
90.0, -18293.494676768147, -7279.516134204404, 13639.79442593985, -3640.2274537357634, 45474.89231525568, 16010.040463213976, 32740.544705455868, 7207.431758336039, 27242.909639228543, 5055.651671368083, 38782.40004568101, 27293.82691309773, 38706.67233546643, 32634.373919293157, 26892.56839663606, 24464.945431345157, 0.06, 0.99, 0.254, 192.0, 0.0, 0.0, 0.0, 0.0, 0.0, 0.0, 0.0, 0.0, 0.0, 1.7074741579760404E9, 0.0, 2024-02-09 11:22:37.976
92.0, -18380.621776654934, -7401.199031019096, 13566.659518082086, -3614.947630756811, 45087.67069431194, 15918.15244175821, 32531.31002560974, 7034.920994629979, 27152.13920499554, 5004.533231798796, 38735.52843755823, 27246.038883452286, 38766.93263851794, 32598.477017697936, 26855.8891839849, 24494.248568326067, 0.06, 0.99, 0.254, 192.0, 0.0, 0.0, 0.0, 0.0, 0.0, 0.0, 0.0, 0.0, 0.0, 1.7074741579848313E9, 0.0, 2024-02-09 11:22:37.984
94.0, -18279.010746361106, -7267.222674753985, 13646.969335910004, -3624.9165087838783, 45318.0948279017, 15994.081317672888, 32664.347608607724, 7121.802225327758, 27047.287171755695, 5001.359284086142, 38496.96826898673, 27246.5306218303, 38349.31264511498, 32492.6191559576, 26744.421034386283, 24324.0400342989, 0.06, 0.99, 0.254, 192.0, 0.0, 0.0, 0.0, 0.0, 0.0, 0.0, 0.0, 0.0, 0.0, 1.7074741579918528E9, 0.0, 2024-02-09 11:22:37.991
96.0, -18329.793909763564, -7331.707457507546, 13594.867419584683, -3617.9651162582777, 45316.06081915627, 15975.283500585974, 32661.46423357299, 7150.613623930648, 27308.444953971502, 5067.632206396128, 38932.42495446503, 27313.652910429588, 38956.40837626557, 32726.463106449024, 26959.37776081297, 24591.143380539823, 0.06, 0.99, 0.254, 192.0, 0.0, 0.0, 0.0, 0.0, 0.0, 0.0, 0.0, 0.0, 0.0, 1.7074741579998903E9, 0.0, 2024-02-09 11:22:37.999
98.0, -18336.700598800257, -7345.185559414096, 13594.3086259733, -3619.0379999921324, 45066.59299929059, 15948.39435200624, 32528.00196743035, 7059.642023997549, 26978.53320581117, 4969.1727720705, 38461.76427146963, 27214.09824062565, 38377.18527045075, 32479.81160638471, 26713.597978782414, 24353.67844744664, 0.07, 0.99, 0.246, 192.0, 1.0, 64.0, 15.0, 120.0, 3.5, 56.0, 0.0, 0.0, 0.0, 1.7074741580078793E9, 0.0, 2024-02-09 11:22:38.007
100.0, -18278.47430449418, -7256.203264737519, 13641.694324218552, -3637.9699275457774, 45453.41228883413, 16030.157033223753, 32753.396958517667, 7244.110970987198, 27245.703607285453, 5066.872247084648, 38781.50597590279, 27306.902683604087, 38685.2817160227, 32667.923887720575, 26876.69865807279, 24485.441981010674, 0.07, 0.99, 0.246, 192.0, 0.0, 0.0, 0.0, 0.0, 0.0, 0.0, 0.0, 0.0, 0.0, 1.7074741580169156E9, 0.0, 2024-02-09 11:22:38.016
102.0, -18402.839410643508, -7415.168871303663, 13553.181416175536, -3629.856244308501, 45069.811650492156, 15928.233078507554, 32547.67150255102, 7089.16867842301, 27137.834088544143, 4995.659589250039, 38727.682975254414, 27236.986426947886, 38748.49244934231, 32611.485732970923, 26850.45771008226, 24505.55855102045, 0.07, 0.99, 0.246, 192.0, 0.0, 0.0, 0.0, 0.0, 0.0, 0.0, 0.0, 0.0, 0.0, 1.7074741580249865E9, 0.0, 2024-02-09 11:22:38.024
104.0, -18356.25837519865, -7331.081608662797, 13624.55053622133, -3650.084573040554, 45289.08226359871, 15999.669253786715, 32670.136710421648, 7188.969217415955, 27016.44176440737, 4972.100850594145, 38467.50866979464, 27212.712432469423, 38322.26703432405, 32489.847539645143, 26726.182010910754, 24318.3403394628, 0.07, 0.99, 0.246, 192.0, 0.0, 0.0, 0.0, 0.0, 0.0, 0.0, 0.0, 0.0, 0.0, 1.7074741580318964E9, 0.0, 2024-02-09 11:22:38.031
106.0, -18468.151207941915, -7452.496284544026, 13567.620643093664, -3653.6161486644924, 45285.170708319034, 15967.39333479325, 32633.345739048214, 7173.2335893194195, 27258.958191747453, 5025.6332785646055, 38887.006209731844, 27265.82017729523, 38926.300576484275, 32713.588501642767, 26936.66838844638, 24569.23867097362, 0.07, 0.99, 0.246, 192.0, 0.0, 0.0, 0.0, 0.0, 0.0, 0.0, 0.0, 0.0, 0.0, 1.707474158039892E9, 0.0, 2024-02-09 11:22:38.039
108.0, -18544.77298793471, -7537.321154751916, 13558.67994531154, -3651.671546896881, 45036.48519950929, 15938.470177468083, 32504.487932263368, 7077.635178284071, 26890.199111723796, 4892.081605444147, 38391.08805550195, 27134.32486466466, 38349.37970034834, 32442.595951866624, 26681.23265281113, 24320.642569141695, 0.07600000000000001, 0.997, 0.241, 192.0, 1.0, 72.0, 15.5, 48.0, 3.5, 48.0, 0.0, 0.0, 0.0, 1.7074741580479057E9, 0.0, 2024-02-09 11:22:38.047
110.0, -18512.027682307682, -7485.398052382237, 13608.300818002323, -3671.050509339632, 45421.80692217433, 16008.766413780024, 32713.923777809596, 7219.52405208636, 27135.7553763098, 4960.522646966297, 38692.121349826026, 27213.874723181096, 38652.24583771775, 32626.796677922808, 26852.89405022789, 24466.71121915713, 0.07600000000000001, 0.997, 0.241, 192.0, 0.0, 0.0, 0.0, 0.0, 0.0, 0.0, 0.0, 0.0, 0.0, 1.70747415805591E9, 0.0, 2024-02-09 11:22:38.055
112.0, -18615.40450041348, -7628.516272129568, 13549.672192296051, -3641.1438752584313, 45049.382156060004, 15923.405101705206, 32494.407295514025, 7054.434067539462, 27035.306636727648, 4897.535431091241, 38646.27792194819, 27154.46378641889, 38720.217492606345, 32586.49648266989, 26825.222590592217, 24492.147504347267, 0.07600000000000001, 0.997, 0.241, 192.0, 0.0, 0.0, 0.0, 0.0, 0.0, 0.0, 0.0, 0.0, 0.0, 1.7074741580639093E9, 0.0, 2024-02-09 11:22:38.063
114.0, -18531.317237772615, -7513.404788184737, 13613.061739571303, -3664.456744725316, 45279.09103382719, 15998.64107354177, 32627.176657578548, 7179.4026707890835, 26928.822926142566, 4895.032035712246, 38403.13564576336, 27150.552231139212, 38299.31179276846, 32469.663914402, 26715.296711361018, 24322.60952265376, 0.07600000000000001, 0.997, 0.241, 192.0, 0.0, 0.0, 0.0, 0.0, 0.0, 0.0, 0.0, 0.0, 0.0, 1.707474158071915E9, 0.0, 2024-02-09 11:22:38.071
116.0, -18572.377392337014, -7570.35703305686, 13567.464180882476, -3652.7444306307357, 45290.44572001049, 15970.008488894522, 32621.83459065373, 7158.74965891238, 27199.368441029605, 4958.5333417097745, 38844.6720057335, 27215.23817959287, 38916.51051241285, 32702.502036392932, 26934.56732446758, 24576.48063617714, 0.07600000000000001, 0.997, 0.241, 192.0, 0.0, 0.0, 0.0, 0.0, 0.0, 0.0, 0.0, 0.0, 0.0, 1.707474158079928E9, 0.0, 2024-02-09 11:22:38.079
118.0, -18588.761221022753, -7600.710702027167, 13558.992869733915, -3654.4655149537944, 45043.39188854598, 15933.083407054355, 32488.931118122473, 7041.9841458778565, 26875.02227723864, 4866.578265020641, 38379.77807280756, 27120.64559705801, 38357.58279056344, 32454.487079916846, 26686.440609269215, 24328.935066334616, 0.07300000000000001, 1.0025, 0.2365, 192.0, 1.0, 24.0, 15.5, 64.0, 3.5, 32.0, 0.0, 0.0, 0.0, 1.7074741580879436E9, 0.0, 2024-02-09 11:22:38.087
120.0, -18511.37948171848, -7502.273619445994, 13604.590428422742, -3667.2507127822296, 45429.272404822404, 16012.45445161515, 32709.565187640812, 7225.134339944642, 27133.22962918635, 4952.028984073279, 38689.26032653575, 27210.14198185706, 38657.297331964655, 32621.141686575615, 26850.949448460276, 24459.044570808957, 0.07300000000000001, 1.0025, 0.2365, 192.0, 0.0, 0.0, 0.0, 0.0, 0.0, 0.0, 0.0, 0.0, 0.0, 1.7074741580959804E9, 0.0, 2024-02-09 11:22:38.095
122.0, -18599.512410105755, -7635.869996055365, 13530.829671720228, -3649.5928346625374, 45056.42295556342, 15921.259334237497, 32504.57733924119, 7077.121088161599, 27051.377540991016, 4895.233201412345, 38659.33134071009, 27157.14599575353, 38747.77719351974, 32578.002819776873, 26824.239113836185, 24494.114457859334, 0.07300000000000001, 1.0025, 0.2365, 192.0, 0.0, 0.0, 0.0, 0.0, 0.0, 0.0, 0.0, 0.0, 0.0, 1.7074741581049497E9, 0.0, 2024-02-09 11:22:38.104
124.0, -18486.457286650813, -7481.9335319916645, 13617.666198929097, -3658.9358638448557, 45287.22706880893, 16010.398091125262, 32647.807317710798, 7187.359891815173, 26942.815118171588, 4901.4246346264645, 38408.94709932174, 27152.049798017717, 38323.764601202565, 32467.160519023008, 26707.76417347958, 24317.446269684588, 0.07300000000000001, 1.0025, 0.2365, 192.0, 0.0, 0.0, 0.0, 0.0, 0.0, 0.0, 0.0, 0.0, 0.0, 1.7074741581119702E9, 0.0, 2024-02-09 11:22:38.111
126.0, -18528.47856622679, -7544.250195533061, 13565.184302948035, -3673.7550704187242, 45300.50400501538, 15964.48760801406, 32629.45653551299, 7165.924568882534, 27224.447098308457, 4979.968664642413, 38861.61462803061, 27222.793069218766, 38947.57943720573, 32694.544815366844, 26936.37781576846, 24579.09579027841, 0.07300000000000001, 1.0025, 0.2365, 192.0, 0.0, 0.0, 0.0, 0.0, 0.0, 0.0, 0.0, 0.0, 0.0, 1.707474158120253E9, 0.0, 2024-02-09 11:22:38.120
128.0, -18513.03351080817, -7539.846901875366, 13571.68866058453, -3664.814372636601, 45056.49001079679, 15932.859889609801, 32503.169179340504, 7053.852922183624, 26900.011527539675, 4872.210904623378, 38406.108427775915, 27122.5007918478, 38382.63909609784, 32423.440506868425, 26691.246234327107, 24319.3908714522, 0.0665, 1.00325, 0.23925, 192.0, 0.5, 112.0, 15.5, 48.0, 3.5, 72.0, 0.0, 0.0, 0.0, 1.7074741581293046E9, 0.0, 2024-02-09 11:22:38.129
130.0, -18422.46424227527, -7421.092083584319, 13616.235687283957, -3680.4158902664058, 45443.77868697389, 16010.845126014368, 32712.828542331285, 7214.941944473022, 27171.831091860666, 4983.634350733084, 38723.30203334118, 27230.19149663347, 38678.57619268611, 32608.93763410302, 26859.59957356448, 24444.091253768358, 0.0665, 1.00325, 0.23925, 192.0, 0.0, 0.0, 0.0, 0.0, 0.0, 0.0, 0.0, 0.0, 0.0, 1.70747415813599E9, 0.0, 2024-02-09 11:22:38.135
132.0, -18506.10447002703, -7543.847864132866, 13535.38942758911, -3658.600587678026, 45073.87966798302, 15923.405101705206, 32505.605519486133, 7049.851959926124, 27092.97413742234, 4932.895890819537, 38694.825910905114, 27178.33544949716, 38766.57501060665, 32572.124310985128, 26836.97960817571, 24475.718972172617, 0.0665, 1.00325, 0.23925, 192.0, 0.0, 0.0, 0.0, 0.0, 0.0, 0.0, 0.0, 0.0, 0.0, 1.7074741581440392E9, 0.0, 2024-02-09 11:22:38.144
134.0, -18397.452640229778, -7398.762690873467, 13613.620533182686, -3664.6132069365035, 45299.20760383697, 16000.719785776113, 32639.760689706887, 7144.913929094545, 26983.875272735986, 4925.363352938099, 38440.66422470382, 27170.154711026516, 38331.45360129519, 32452.18485023795, 26717.397775339818, 24296.837961296795, 0.0665, 1.00325, 0.23925, 192.0, 0.0, 0.0, 0.0, 0.0, 0.0, 0.0, 0.0, 0.0, 0.0, 1.7074741581519933E9, 0.0, 2024-02-09 11:22:38.151
136.0, -18423.335960309025, -7434.748999446511, 13578.371832176666, -3645.0330787936546, 45320.08413315823, 15979.485628543573, 32633.971587892964, 7147.149103540076, 27273.620936110132, 5019.061865694745, 38904.17234947352, 27262.132139460104, 38956.9448181325, 32694.27659443338, 26948.80538568561, 24568.746932595604, 0.0665, 1.00325, 0.23925, 192.0, 0.0, 0.0, 0.0, 0.0, 0.0, 0.0, 0.0, 0.0, 0.0, 1.7074741581590457E9, 0.0, 2024-02-09 11:22:38.159
138.0, -18420.340826552016, -7434.100798857307, 13585.747907846917, -3616.556956357593, 45086.642514066996, 15958.095009099843, 32535.221580889414, 7050.924843659979, 26954.102749121517, 4921.272983702777, 38454.00821614364, 27173.127493039072, 38406.71192487621, 32452.56482989369, 26722.13634516434, 24335.506479204476, 0.06125, 1.003625, 0.24362499999999998, 192.0, 0.5, 96.0, 15.5, 48.0, 3.5, 96.0, 0.0, 0.0, 0.0, 1.7074741581679976E9, 0.0, 2024-02-09 11:22:38.167
140.0, -18337.95229648975, -7316.552974766848, 13637.738065449961, -3625.721171584269, 45471.5842570763, 16038.807158327958, 32722.953882569538, 7201.128566399642, 27211.684252224477, 5046.375697419131, 38766.64206584002, 27289.580081651224, 38697.73163768431, 32655.585724781246, 26892.56839663606, 24477.55181521795, 0.06125, 1.003625, 0.24362499999999998, 192.0, 0.0, 0.0, 0.0, 0.0, 0.0, 0.0, 0.0, 0.0, 0.0, 1.7074741581762364E9, 0.0, 2024-02-09 11:22:38.176
142.0, -18423.157146353384, -7440.8957291717215, 13569.095858227714, -3602.117729439465, 45103.83100555313, 15946.136825816255, 32507.125438109095, 7042.788808678247, 27141.589181612635, 4995.547830527763, 38746.43608885242, 27246.463566596936, 38800.54966217872, 32631.691709958523, 26874.08350397152, 24515.79564998098, 0.06125, 1.003625, 0.24362499999999998, 192.0, 0.0, 0.0, 0.0, 0.0, 0.0, 0.0, 0.0, 0.0, 0.0, 1.707474158183472E9, 0.0, 2024-02-09 11:22:38.183
144.0, -18314.840592722965, -7303.208983327029, 13654.79244646936, -3612.623049333459, 45320.93349944753, 16028.525355878515, 32635.111526860182, 7154.8604553771565, 27036.088947783584, 4992.79856595976, 38489.97217297222, 27236.360578103137, 38360.466165598176, 32507.125438109095, 26743.214040185696, 24327.28103724492, 0.06125, 1.003625, 0.24362499999999998, 192.0, 0.0, 0.0, 0.0, 0.0, 0.0, 0.0, 0.0, 0.0, 0.0, 1.7074741581910381E9, 0.0, 2024-02-09 11:22:38.191
146.0, -18358.270032199627, -7359.043640976387, 13609.328998247267, -3613.0700842225656, 45352.31534866278, 16004.206657911142, 32647.002654910408, 7169.836124162212, 27317.564465709267, 5070.493229686407, 38940.96332084695, 27310.188390039017, 38979.2518590989, 32754.827470162807, 26968.094941150543, 24593.177389285254, 0.06125, 1.003625, 0.24362499999999998, 192.0, 0.0, 0.0, 0.0, 0.0, 0.0, 0.0, 0.0, 0.0, 0.0, 1.7074741582001011E9, 0.0, 2024-02-09 11:22:38.200
148.0, -18372.93277656231, -7385.9551413005765, 13599.248361497923, -3620.848491293012, 45102.378142163536, 15958.25147131103, 32532.651130277056, 7062.771268221291, 26985.68576403687, 4957.080478320179, 38474.03537917559, 27196.932100883976, 38424.43685822927, 32483.678458175476, 26727.590170811436, 24346.592944454307, 0.060625, 1.0008124999999999, 0.2468125, 192.0, 0.5, 112.0, 15.5, 24.0, 3.5, 104.0, 0.0, 0.0, 0.0, 1.7074741582081044E9, 0.0, 2024-02-09 11:22:38.208
150.0, -18295.349871557937, -7280.67842491608, 13645.56117600932, -3645.4577619383053, 45474.981722233504, 16025.619629099327, 32712.023879530894, 7210.583354304237, 27247.11176718614, 5048.968499775947, 38774.68869384393, 27291.5917386522, 38711.969698902336, 32640.632407740643, 26878.88912902941, 24459.357495231332, 0.060625, 1.0008124999999999, 0.2468125, 192.0, 0.0, 0.0, 0.0, 0.0, 0.0, 0.0, 0.0, 0.0, 0.0, 1.707474158215142E9, 0.0, 2024-02-09 11:22:38.215
152.0, -18393.02699482763, -7415.794720148411, 13571.085163484237, -3623.2848314386406, 45114.045752769205, 15938.716046657091, 32527.62198777461, 7062.547750776738, 27165.32673422417, 4992.999731659857, 38756.628484324036, 27240.450947338457, 38810.20561578341, 32606.16601779056, 26858.66080029736, 24497.042536382978, 0.060625, 1.0008124999999999, 0.2468125, 192.0, 0.0, 0.0, 0.0, 0.0, 0.0, 0.0, 0.0, 0.0, 0.0, 1.7074741582241E9, 0.0, 2024-02-09 11:22:38.224
154.0, -18298.389708803858, -7287.5180587194045, 13650.165635367113, -3630.012706519688, 45317.692496501506, 16014.220239427119, 32647.583800266246, 7168.047984605788, 27038.704101884858, 4983.723757710905, 38493.41434161834, 27232.180801889994, 38357.69454928572, 32485.444245987448, 26735.52504009307, 24316.261627228454, 0.060625, 1.0008124999999999, 0.2468125, 192.0, 0.0, 0.0, 0.0, 0.0, 0.0, 0.0, 0.0, 0.0, 0.0, 1.7074741582322197E9, 0.0, 2024-02-09 11:22:38.232
156.0, -18343.87550877041, -7345.274966391918, 13607.294989501834, -3618.6803720808475, 45346.146267193115, 15994.997739195554, 32643.26991358637, 7177.055737621276, 27324.381747768137, 5063.787706349815, 38948.13823081711, 27308.422602227045, 38971.249934583895, 32719.891693579164, 26958.595449757035, 24582.135627524334, 0.060625, 1.0008124999999999, 0.2468125, 192.0, 0.0, 0.0, 0.0, 0.0, 0.0, 0.0, 0.0, 0.0, 0.0, 1.7074741582392063E9, 0.0, 2024-02-09 11:22:38.239
158.0, -18364.953203791763, -7375.963911529054, 13602.98110282196, -3609.8737847654565, 45085.63668556651, 15963.25826206902, 32515.350880068647, 7073.187181137465, 26991.944252484354, 4956.812257386716, 38489.52513808312, 27209.11380161212, 38411.85282610093, 32472.457882458915, 26724.99736845462, 24348.761063666472, 0.0643125, 1.00040625, 0.24940625, 192.0, 1.0, 16.0, 15.5, 32.0, 3.5, 112.0, 0.0, 0.0, 0.0, 1.707474158247166E9, 0.0, 2024-02-09 11:22:38.247
160.0, -18300.311958827016, -7276.923331847589, 13650.679725489585, -3621.541395371127, 45473.12652744371, 16046.69732412068, 32732.229856518494, 7234.767941804879, 27234.10305191315, 5058.110363258167, 38779.18139447944, 27300.800657367785, 38689.21562304683, 32656.189221881537, 26883.605347109482, 24470.51101571453, 0.0643125, 1.00040625, 0.24940625, 192.0, 0.0, 0.0, 0.0, 0.0, 0.0, 0.0, 0.0, 0.0, 0.0, 1.7074741582561617E9, 0.0, 2024-02-09 11:22:38.256
162.0, -18411.891867147908, -7424.064865596875, 13577.678928098552, -3596.1274619254427, 45103.74159857531, 15956.77625617698, 32510.34408931066, 7067.2863206012635, 27152.98857128484, 5003.817975976226, 38764.02691173874, 27255.53837484579, 38799.11915053358, 32639.85009668471, 26867.31092540156, 24516.980292437114, 0.0643125, 1.00040625, 0.24940625, 192.0, 0.0, 0.0, 0.0, 0.0, 0.0, 0.0, 0.0, 0.0, 0.0, 1.7074741582641904E9, 0.0, 2024-02-09 11:22:38.264
164.0, -18337.259392411637, -7314.4072072991385, 13659.642775016162, -3607.437444619828, 45315.85965345617, 16025.418463399228, 32643.202858353005, 7163.3764700146285, 27018.565180130623, 4981.846211176659, 38487.35701887096, 27235.734729258387, 38355.23585739564, 32515.775563213298, 26740.10714770641, 24331.214944269057, 0.0643125, 1.00040625, 0.24940625, 192.0, 0.0, 0.0, 0.0, 0.0, 0.0, 0.0, 0.0, 0.0, 0.0, 1.7074741582712324E9, 0.0, 2024-02-09 11:22:38.271
166.0, -18396.91619836285, -7381.194219731596, 13622.382417009167, -3603.548241084605, 45339.61955781216, 16001.16682066522, 32623.73448893243, 7162.482400236417, 27295.860921843163, 5064.570017405751, 38932.76023063186, 27306.50035220389, 38968.031283382334, 32754.96158062954, 26966.798539972133, 24598.25123527661, 0.0643125, 1.00040625, 0.24940625, 192.0, 0.0, 0.0, 0.0, 0.0, 0.0, 0.0, 0.0, 0.0, 0.0, 1.7074741582801945E9, 0.0, 2024-02-09 11:22:38.280
168.0, -18433.595411014012, -7420.75680741749, 13616.369797750689, -3601.625991061448, 45076.3383598731, 15965.940471403655, 32508.220673587406, 7061.519570531795, 26959.15424336842, 4955.337042252665, 38467.88864945038, 27197.848522406643, 38410.55642492252, 32506.074906119695, 26724.036243443043, 24356.49476724801, 0.06815625, 1.0022031249999999, 0.25270312500000003, 192.0, 1.0, 32.0, 15.5, 48.0, 4.0, 0.0, 0.0, 0.0, 0.0, 1.7074741582882173E9, 0.0, 2024-02-09 11:22:38.288
170.0, -18395.73155590672, -7340.558748311848, 13653.60780401323, -3631.6220321204705, 45462.15182091616, 16043.098693263377, 32724.317338981313, 7229.649392324614, 27195.255720049827, 5043.022935750835, 38749.54298133171, 27284.59564263769, 38680.632553175994, 32676.283440146857, 26887.60630936698, 24475.56250996143, 0.06815625, 1.0022031249999999, 0.25270312500000003, 192.0, 0.0, 0.0, 0.0, 0.0, 0.0, 0.0, 0.0, 0.0, 0.0, 1.707474158297588E9, 0.0, 2024-02-09 11:22:38.297
172.0, -18535.34055177457, -7513.874174818298, 13556.914157499572, -3638.8639973239897, 45089.30237165718, 15921.728720871059, 32502.744496195854, 7034.183387062953, 27095.969271179354, 4971.877333149592, 38717.624690249526, 27214.61233074812, 38788.032685283746, 32629.568294235265, 26855.017465951143, 24502.719879474625, 0.06815625, 1.0022031249999999, 0.25270312500000003, 192.0, 0.0, 0.0, 0.0, 0.0, 0.0, 0.0, 0.0, 0.0, 0.0, 1.7074741583032768E9, 0.0, 2024-02-09 11:22:38.303
174.0, -18490.07826925257, -7439.532272759948, 13609.820736625283, -3673.151573318431, 45276.07354832572, 15975.194093608154, 32598.16409327556, 7127.747789352869, 26947.888964162943, 4920.781245324761, 38417.016079070105, 27164.678533634968, 38329.15137161629, 32466.825242856175, 26706.311310089986, 24290.668879827128, 0.06815625, 1.0022031249999999, 0.25270312500000003, 192.0, 0.0, 0.0, 0.0, 0.0, 0.0, 0.0, 0.0, 0.0, 0.0, 1.7074741583123093E9, 0.0, 2024-02-09 11:22:38.312
176.0, -18555.23360433979, -7521.63023014429, 13572.605082107197, -3662.847419124534, 45320.620575025154, 15970.388468550262, 32618.07949758524, 7161.230702546919, 27214.321758070204, 4980.683920464983, 38857.993645428855, 27227.174011132007, 38940.15865804657, 32688.733361808463, 26920.776298138655, 24543.735330550116, 0.06815625, 1.0022031249999999, 0.25270312500000003, 192.0, 0.0, 0.0, 0.0, 0.0, 0.0, 0.0, 0.0, 0.0, 0.0, 1.7074741583202667E9, 0.0, 2024-02-09 11:22:38.320
178.0, -18600.540590350698, -7589.668940266245, 13565.363116903678, -3660.545189445638, 45055.35007182957, 15923.874488338768, 32486.42772274348, 7046.29803255773, 26875.446960383295, 4854.53067475923, 38395.40194218182, 27114.99060571082, 38397.03361952706, 32436.248056441316, 26699.58343500894, 24320.039072041403, 0.069078125, 0.9971015624999999, 0.2543515625, 192.0, 1.0, 24.0, 15.5, 0.0, 4.0, 0.0, 0.0, 0.0, 0.0, 1.7074741583273149E9, 0.0, 2024-02-09 11:22:38.327
180.0, -18529.797319149653, -7499.39024441126, 13610.513640703397, -3682.7404716897577, 45442.16936137311, 15990.192114137664, 32691.706143821022, 7176.340481798707, 27118.723347034855, 4935.600451898629, 38668.58496291458, 27192.752324670833, 38657.0738145201, 32600.443971210003, 26840.913515199845, 24418.40909938921, 0.069078125, 0.9971015624999999, 0.2543515625, 192.0, 0.0, 0.0, 0.0, 0.0, 0.0, 0.0, 0.0, 0.0, 0.0, 1.7074741583353245E9, 0.0, 2024-02-09 11:22:38.335
182.0, -18618.28787544821, -7629.276231441049, 13541.670267781052, -3645.0777822825653, 45087.35776988957, 15934.715084399591, 32497.00009787084, 7087.6487598000485, 27052.562183447146, 4886.739538519328, 38672.27300074971, 27146.864193304085, 38781.9530107919, 32589.089285026705, 26840.377073332915, 24479.138789074277, 0.069078125, 0.9971015624999999, 0.2543515625, 192.0, 0.0, 0.0, 0.0, 0.0, 0.0, 0.0, 0.0, 0.0, 0.0, 1.7074741583443542E9, 0.0, 2024-02-09 11:22:38.344
184.0, -18518.4202812219, -7502.385378168271, 13616.325094261778, -3652.8785410974674, 45290.78099617732, 16007.98410272409, 32634.820954182265, 7180.542609756304, 26925.336054007537, 4887.2536286418, 38398.12885500537, 27138.057605988695, 38327.56439775996, 32464.880641088563, 26716.101374161408, 24307.52209514643, 0.069078125, 0.9971015624999999, 0.2543515625, 192.0, 0.0, 0.0, 0.0, 0.0, 0.0, 0.0, 0.0, 0.0, 0.0, 1.7074741583533616E9, 0.0, 2024-02-09 11:22:38.353
186.0, -18546.181147835392, -7540.673916420212, 13586.887846814137, -3640.1603985023976, 45338.3008048893, 15991.287349615974, 32639.447765284513, 7188.835106949224, 27216.311063326724, 4966.356452269131, 38861.21229663042, 27217.04867089375, 38940.11395455765, 32711.174513241593, 26947.956019396308, 24575.00542104309, 0.069078125, 0.9971015624999999, 0.2543515625, 192.0, 0.0, 0.0, 0.0, 0.0, 0.0, 0.0, 0.0, 0.0, 0.0, 1.7074741583593407E9, 0.0, 2024-02-09 11:22:38.359
188.0, -18539.654438454443, -7541.277413520505, 13588.944207304026, -3620.4238081483613, 45073.45498483837, 15970.20965459462, 32519.19538011496, 7082.999596953345, 26895.22825422624, 4879.497573315808, 38415.58556742496, 27127.909914005988, 38392.563270636, 32475.743588893845, 26723.611560298392, 24350.213927056066, 0.069078125, 0.9971015624999999, 0.2543515625, 192.0, 0.0, 0.0, 0.0, 0.0, 0.0, 0.0, 0.0, 0.0, 0.0, 1.7074741583675427E9, 0.0, 2024-02-09 11:22:38.367
190.0, -18447.87817572095, -7424.914231886177, 13635.301725304333, -3643.021421792677, 45466.733928529495, 16044.573908397426, 32727.915969838617, 7247.866064055689, 27151.46865266188, 4988.395272302065, 38701.822006919625, 27228.6268745216, 38654.25749471873, 32645.84036419873, 26876.542195861603, 24467.56058544643, 0.068, 0.992, 0.246, 192.0, 1.0, 16.0, 15.5, 0.0, 3.5, 88.0, 0.0, 0.0, 0.0, 1.707474158375362E9, 0.0, 2024-02-09 11:22:38.375
192.0, -18524.477603969288, -7536.650602418256, 13561.697430813007, -3623.307183183096, 45106.31204918767, 15951.992982863545, 32526.079717407196, 7085.704158032437, 27097.176265379938, 4929.923108806981, 38713.62372799203, 27179.90007160903, 38789.7537696068, 32626.103773844694, 26866.998000979187, 24516.71207150365, 0.068, 0.992, 0.246, 192.0, 0.0, 0.0, 0.0, 0.0, 0.0, 0.0, 0.0, 0.0, 0.0, 1.707474158383401E9, 0.0, 2024-02-09 11:22:38.383
194.0, -18403.06292808806, -7386.670397123146, 13641.60491724073, -3629.185691974842, 45298.24647882539, 16025.664332588236, 32638.620750739665, 7178.352138799684, 26972.453531319326, 4937.8132745997045, 38441.200666570745, 27176.770827385288, 38328.41376404926, 32493.24500480235, 26728.551295823014, 24321.223714497533, 0.068, 0.992, 0.246, 192.0, 0.0, 0.0, 0.0, 0.0, 0.0, 0.0, 0.0, 0.0, 0.0, 1.7074741583913863E9, 0.0, 2024-02-09 11:22:38.391
196.0, -18419.089128862517, -7418.029894593942, 13602.243495254934, -3625.4976541397164, 45340.11129619018, 16000.809192753935, 32636.474983271957, 7181.3919760456065, 27276.97369777843, 5026.125016942623, 38913.783599589304, 27266.803654051266, 38955.08962334271, 32731.514600695922, 26955.0638741331, 24587.96943282717, 0.068, 0.992, 0.246, 192.0, 0.0, 0.0, 0.0, 0.0, 0.0, 0.0, 0.0, 0.0, 0.0, 1.707474158400434E9, 0.0, 2024-02-09 11:22:38.400
198.0, -18419.55851549608, -7428.266993554473, 13601.59529466573, -3619.9320697703447, 45064.134307400505, 15953.155273575221, 32488.57349021119, 7059.217340852898, 26962.507005036714, 4922.7258470923725, 38459.41733830182, 27166.176100513472, 38412.72454413468, 32479.364571495604, 26716.727223006157, 24343.977790353038, 0.068, 0.992, 0.246, 192.0, 0.0, 0.0, 0.0, 0.0, 0.0, 0.0, 0.0, 0.0, 0.0, 1.7074741584074323E9, 0.0, 2024-02-09 11:22:38.407
200.0, -18329.77155801911, -7312.954343909543, 13653.317231335312, -3639.9592328023, 45454.82044873482, 16029.46412914564, 32704.468989905, 7230.342296402729, 27207.884455667074, 5024.292173897287, 38735.103754413576, 27259.82990978121, 38664.11461402352, 32642.867582186176, 26866.372152134438, 24451.422625949697, 0.074, 1.0, 0.252, 192.0, 1.0, 40.0, 15.5, 32.0, 3.5, 112.0, 0.0, 0.0, 0.0, 1.7074741584154222E9, 0.0, 2024-02-09 11:22:38.415
202.0, -18418.418576528857, -7437.922947159165, 13568.090029727226, -3628.246918707719, 45087.96126698986, 15935.653857666715, 32488.037048344264, 7070.2814543582745, 27149.23347821635, 4975.431260517987, 38739.06001318217, 27212.444211535956, 38797.55452842171, 32625.522628488856, 26858.03495145261, 24499.74709746207, 0.074, 1.0, 0.252, 192.0, 0.0, 0.0, 0.0, 0.0, 0.0, 0.0, 0.0, 0.0, 0.0, 1.7074741584234324E9, 0.0, 2024-02-09 11:22:38.423
204.0, -18313.454784566737, -7303.186631582575, 13643.929498664082, -3636.3606019449953, 45289.55165023228, 15999.915122975723, 32627.93661689003, 7138.141350524587, 27018.16284873043, 4964.277740034788, 38453.47177427671, 27193.691097937954, 38324.83748493642, 32491.85919664612, 26716.459002072694, 24302.112972988245, 0.074, 1.0, 0.252, 192.0, 0.0, 0.0, 0.0, 0.0, 0.0, 0.0, 0.0, 0.0, 0.0, 1.7074741584314868E9, 0.0, 2024-02-09 11:22:38.431
206.0, -18336.454729611247, -7341.341059367784, 13618.40380649612, -3618.501558125205, 45347.77794453835, 16006.732405034592, 32658.89378296063, 7209.33165661474, 27313.138820307115, 5054.578787634228, 38928.60280616317, 27287.121389761138, 38953.74851867539, 32739.516525210922, 26962.082321892063, 24574.468979176163, 0.074, 1.0, 0.252, 192.0, 0.0, 0.0, 0.0, 0.0, 0.0, 0.0, 0.0, 0.0, 0.0, 1.7074741584395952E9, 0.0, 2024-02-09 11:22:38.439
208.0, -18347.45178788326, -7365.50329512397, 13614.916934361094, -3605.895174252412, 45069.29756036968, 15970.053192383433, 32498.38590602707, 7078.216323639909, 26993.66533680741, 4949.011498571814, 38484.94303046978, 27192.19353105945, 38424.99565184065, 32495.86015890362, 26732.686368547245, 24364.697857463107, 0.074, 1.0, 0.252, 192.0, 0.0, 0.0, 0.0, 0.0, 0.0, 0.0, 0.0, 0.0, 0.0, 1.7074741584474947E9, 0.0, 2024-02-09 11:22:38.447
210.0, -18256.211967016694, -7245.250909954419, 13675.870141490715, -3613.4947673672164, 45477.55217284586, 16065.517492952049, 32742.95869385704, 7256.404430437617, 27241.367368861123, 5048.789685820304, 38763.75869080528, 27287.814293839252, 38667.66854139192, 32664.057035929807, 26884.834693054523, 24474.422570994207, 0.074, 1.002, 0.256, 192.0, 1.0, 40.0, 15.5, 40.0, 4.0, 0.0, 0.0, 0.0, 0.0, 1.7074741584565284E9, 0.0, 2024-02-09 11:22:38.456
212.0, -18351.25158444066, -7378.512010396959, 13589.950035804515, -3600.5531073275934, 45117.66673537096, 15963.370020791295, 32534.238104133383, 7086.330006877185, 27192.215882803906, 5011.75284525786, 38784.38935093753, 27247.067063697228, 38810.943223350434, 32646.443861299023, 26886.712239588767, 24536.58277232442, 0.074, 1.002, 0.256, 192.0, 0.0, 0.0, 0.0, 0.0, 0.0, 0.0, 0.0, 0.0, 0.0, 1.7074741584625232E9, 0.0, 2024-02-09 11:22:38.462
214.0, -18258.156568784307, -7260.025413039376, 13656.267661603411, -3622.793093060624, 45296.57009799124, 16018.064739473431, 32633.926884404053, 7156.022746088833, 27040.96162807484, 4981.846211176659, 38485.97121071473, 27216.33341507118, 38330.738345472615, 32496.217786814905, 26729.132441178852, 24319.748499363483, 0.074, 1.002, 0.256, 192.0, 0.0, 0.0, 0.0, 0.0, 0.0, 0.0, 0.0, 0.0, 0.0, 1.7074741584715302E9, 0.0, 2024-02-09 11:22:38.471
216.0, -18282.877598151874, -7293.217753555507, 13630.049065357336, -3608.3538661424955, 45361.658377845095, 16016.366006894828, 32658.960838193994, 7209.935153715033, 27349.348646324714, 5077.757546634382, 38961.57162923475, 27306.768573137353, 38960.78931817882, 32748.97131311552, 26965.077455649076, 24594.429086974753, 0.074, 1.002, 0.256, 192.0, 0.0, 0.0, 0.0, 0.0, 0.0, 0.0, 0.0, 0.0, 0.0, 1.7074741584795415E9, 0.0, 2024-02-09 11:22:38.479
218.0, -18301.831877449975, -7326.4995010494595, 13621.063664086303, -3601.6483428059037, 45075.511345328254, 15969.583805749871, 32504.309118307727, 7077.568123050705, 27027.282360468194, 4969.038661603769, 38518.20242621928, 27207.795048689255, 38427.923730364295, 32500.755190939333, 26735.368577881884, 24367.670639475662, 0.074, 1.002, 0.256, 192.0, 0.0, 0.0, 0.0, 0.0, 0.0, 0.0, 0.0, 0.0, 0.0, 1.7074741584875548E9, 0.0, 2024-02-09 11:22:38.487
220.0, -18217.6999113202, -7217.467691596472, 13674.03729844538, -3615.9758110017556, 45470.980759976, 16051.502949178572, 32721.255149990935, 7243.887453542645, 27266.49072962889, 5070.984968064424, 38787.83151958365, 27303.84049461371, 38665.209849501836, 32655.18339338105, 26876.98923075071, 24462.79966387745, 0.074, 1.0, 0.256, 192.0, 1.0, 40.0, 15.5, 32.0, 4.0, 0.0, 0.0, 0.0, 0.0, 1.7074741584955947E9, 0.0, 2024-02-09 11:22:38.495
222.0, -18320.29441837006, -7354.953271741066, 13592.565189905787, -3601.558935828082, 45112.436427168424, 15952.864700897302, 32510.43349628848, 7074.282416615774, 27214.165295859017, 5021.744075029383, 38809.19978728292, 27255.046636467774, 38814.07246757418, 32646.98030316595, 26868.540271346603, 24514.208676124654, 0.074, 1.0, 0.256, 192.0, 0.0, 0.0, 0.0, 0.0, 0.0, 0.0, 0.0, 0.0, 0.0, 1.7074741585035727E9, 0.0, 2024-02-09 11:22:38.503
224.0, -18229.45692890369, -7234.231499937952, 13672.51737982242, -3610.700799310303, 45297.86649916965, 16026.133719221798, 32625.053241855294, 7162.638862447604, 27064.229794052815, 5004.8461562211705, 38511.318088927044, 27234.751252502356, 38335.74513623061, 32510.411144544025, 26727.09843243342, 24312.10420275977, 0.074, 1.0, 0.256, 192.0, 0.0, 0.0, 0.0, 0.0, 0.0, 0.0, 0.0, 0.0, 0.0, 1.7074741585116045E9, 0.0, 2024-02-09 11:22:38.511
226.0, -18275.6132812039, -7287.495706974949, 13625.735178677462, -3617.6745435803587, 45358.68559583254, 16000.317454375918, 32637.145535605618, 7164.985795615411, 27366.157158155103, 5082.540819947818, 38977.17314686455, 27314.770497652353, 38959.13528908912, 32757.666141708632, 26961.970563169787, 24575.60891814338, 0.074, 1.0, 0.256, 192.0, 0.0, 0.0, 0.0, 0.0, 0.0, 0.0, 0.0, 0.0, 0.0, 1.7074741585185997E9, 0.0, 2024-02-09 11:22:38.518
228.0, -18304.8717146959, -7331.930974952099, 13604.948056334026, -3617.8086540470904, 45064.134307400505, 15951.568299718894, 32470.490928946845, 7029.578927705161, 27031.708005870343, 4960.1203155661005, 38518.91768204185, 27196.350955528138, 38430.18125655428, 32499.883472905574, 26718.04597592902, 24332.466641958552, 0.074, 1.0, 0.256, 192.0, 0.0, 0.0, 0.0, 0.0, 0.0, 0.0, 0.0, 0.0, 0.0, 1.7074741585276268E9, 0.0, 2024-02-09 11:22:38.527
230.0, -18230.149832981806, -7233.113912715186, 13650.3220975783, -3643.1108287704983, 45452.92055045612, 16022.110405219843, 32667.298038875826, 7181.839010934712, 27256.454796368456, 5049.527293387329, 38769.72660657485, 27275.63259311111, 38654.41395692992, 32646.756785721398, 26842.232268122705, 24420.979550001568, 0.066, 1.0, 0.252, 192.0, 1.0, 8.0, 15.5, 32.0, 3.5, 112.0, 0.0, 0.0, 0.0, 1.7074741585355904E9, 0.0, 2024-02-09 11:22:38.535
232.0, -18329.793909763564, -7366.799696302378, 13588.45246892601, -3615.2605551791858, 45110.0447905117, 15946.62856419427, 32505.270243319304, 7073.880085215579, 27201.84948466414, 5003.862679465137, 38796.07931328766, 27232.851354223654, 38814.98888909684, 32637.12318386116, 26854.101044428477, 24498.964786406137, 0.066, 1.0, 0.252, 192.0, 0.0, 0.0, 0.0, 0.0, 0.0, 0.0, 0.0, 0.0, 0.0, 1.7074741585436053E9, 0.0, 2024-02-09 11:22:38.543
234.0, -18246.51130992309, -7255.219787981486, 13654.457170302532, -3633.834854821546, 45293.217336322945, 16004.45252710015, 32623.17569532105, 7149.60779543016, 27044.739072887787, 4982.27089432131, 38491.112111939445, 27206.900978911042, 38328.57022626045, 32484.86310063161, 26717.397775339818, 24295.630967096207, 0.066, 1.0, 0.252, 192.0, 0.0, 0.0, 0.0, 0.0, 0.0, 0.0, 0.0, 0.0, 0.0, 1.7074741585506136E9, 0.0, 2024-02-09 11:22:38.550
236.0, -18284.397516774836, -7303.812480427323, 13615.967466350492, -3629.4539129083055, 45365.79345056933, 15991.577922293893, 32640.74416646292, 7181.257865578875, 27342.5537160103, 5064.994700550402, 38960.92342864555, 27288.529549661824, 38954.35201577569, 32732.609836174233, 26952.80634794311, 24563.851900559894, 0.066, 1.0, 0.252, 192.0, 0.0, 0.0, 0.0, 0.0, 0.0, 0.0, 0.0, 0.0, 0.0, 1.70747415855965E9, 0.0, 2024-02-09 11:22:38.559
238.0, -18340.00865697964, -7368.721946325535, 13598.533105675353, -3626.279965195652, 45073.54439181619, 15943.655782181715, 32485.958336109918, 7054.501122772828, 27009.132743970484, 4952.140742795556, 38509.48524588171, 27183.14107455505, 38428.549579209044, 32489.08758033366, 26716.257836372595, 24334.52300244844, 0.066, 1.0, 0.252, 192.0, 0.0, 0.0, 0.0, 0.0, 0.0, 0.0, 0.0, 0.0, 0.0, 1.707474158567952E9, 0.0, 2024-02-09 11:22:38.567
240.0, -18314.617075278413, -7305.935896150577, 13652.266699345912, -3646.508293927705, 45467.85151575226, 16027.944210522677, 32709.989870785463, 7231.996325492421, 27224.603560519645, 5030.66242106705, 38751.95696973288, 27260.455758625958, 38652.08937550657, 32635.782079193843, 26847.037893180597, 24427.439204149152, 0.066, 0.994, 0.252, 192.0, 1.0, 8.0, 15.5, 8.0, 3.5, 112.0, 0.0, 0.0, 0.0, 1.7074741585747058E9, 0.0, 2024-02-09 11:22:38.574
242.0, -18473.157998699906, -7495.635151342768, 13566.458352381987, -3635.4218286778723, 45105.797959065196, 15930.82588086437, 32490.272222789794, 7061.9666054209, 27146.17128922597, 4962.802524900738, 38764.876278028045, 27205.224598076893, 38807.389295982044, 32620.26996854186, 26850.07773042652, 24490.873454913315, 0.066, 0.994, 0.252, 192.0, 0.0, 0.0, 0.0, 0.0, 0.0, 0.0, 0.0, 0.0, 0.0, 1.7074741585836823E9, 0.0, 2024-02-09 11:22:38.583
244.0, -18433.237783102726, -7424.824824908355, 13624.88581238816, -3663.3615092470063, 45277.12408031512, 15988.78395423698, 32613.11741031616, 7126.585498641193, 26968.541976039647, 4925.162187238001, 38435.09864033444, 27159.783501599253, 38308.05132485048, 32466.847594600633, 26696.387135551828, 24276.56492907583, 0.066, 0.994, 0.252, 192.0, 0.0, 0.0, 0.0, 0.0, 0.0, 0.0, 0.0, 0.0, 0.0, 1.707474158591686E9, 0.0, 2024-02-09 11:22:38.591
246.0, -18494.302748954626, -7498.160898466218, 13577.29894844281, -3670.5140674727045, 45339.79837176781, 15973.96474766311, 32623.108640087685, 7143.997507571878, 27247.379988119603, 4986.875353679104, 38879.674837550505, 27217.54040927177, 38922.00904154886, 32701.160931725615, 26922.340920250528, 24531.777147266526, 0.066, 0.994, 0.252, 192.0, 0.0, 0.0, 0.0, 0.0, 0.0, 0.0, 0.0, 0.0, 0.0, 1.7074741585996974E9, 0.0, 2024-02-09 11:22:38.599
248.0, -18536.681656441888, -7556.20837881665, 13554.813093520772, -3665.2390557812523, 45053.092545639585, 15936.279706511463, 32485.80187389873, 7042.542939489239, 26908.639300899424, 4859.269244583756, 38416.34552673644, 27097.578596780135, 38396.63128812686, 32457.057530529208, 26685.546539491006, 24305.37632767872, 0.066, 0.994, 0.252, 192.0, 0.0, 0.0, 0.0, 0.0, 0.0, 0.0, 0.0, 0.0, 0.0, 1.7074741586068149E9, 0.0, 2024-02-09 11:22:38.606
250.0, -18457.534129325646, -7449.389392064738, 13609.88779185865, -3679.5218204881935, 45448.204332376044, 16033.688608847691, 32710.66042311912, 7243.9098052871, 27137.677626332956, 4945.770495625794, 38666.61800940252, 27182.984612343862, 38617.35476462302, 32604.489636956412, 26821.19927659026, 24410.764802785496, 0.074, 0.994, 0.252, 192.0, 1.0, 40.0, 15.5, 8.0, 3.5, 112.0, 0.0, 0.0, 0.0, 1.707474158615753E9, 0.0, 2024-02-09 11:22:38.615
252.0, -18549.48920601478, -7579.633007005812, 13527.029875162825, -3660.187561534353, 45091.98458099182, 15938.961915846101, 32496.441304259457, 7079.222152140397, 27096.08102990163, 4906.789053295738, 38703.8336639206, 27144.18198396945, 38786.848042827616, 32605.964852090463, 26829.916456927833, 24487.811265922937, 0.074, 0.994, 0.252, 192.0, 0.0, 0.0, 0.0, 0.0, 0.0, 0.0, 0.0, 0.0, 0.0, 1.707474158623836E9, 0.0, 2024-02-09 11:22:38.623
254.0, -18456.014210702684, -7459.872360214277, 13596.946131819026, -3676.6831489423694, 45257.38748996109, 15984.671233257204, 32586.071799525238, 7133.425132444518, 26943.865650160988, 4883.878515229048, 38393.83732006995, 27119.304492390693, 38285.654876906265, 32452.69894036042, 26669.60974569437, 24265.679629526097, 0.074, 0.994, 0.252, 192.0, 0.0, 0.0, 0.0, 0.0, 0.0, 0.0, 0.0, 0.0, 0.0, 1.7074741586307812E9, 0.0, 2024-02-09 11:22:38.630
0.0, -18473.515626611188, -7483.766375037, 13563.530273858343, -3678.8959716434447, 45349.81195328378, 15971.036669139467, 32636.005596638395, 7167.8915223946005, 27248.54227883128, 4966.848190647148, 38863.69334026496, 27200.709545696922, 38908.64269836458, 32686.565242596298, 26909.309853233084, 24529.38551060981, 0.074, 0.994, 0.252, 192.0, 0.0, 0.0, 0.0, 0.0, 0.0, 0.0, 0.0, 0.0, 0.0, 1.7074741586387813E9, 0.0, 2024-02-09 11:22:38.638
2.0, -18473.962661500296, -7502.608895612824, 13558.545834844808, -3668.1671343048974, 45056.95939743035, 15927.875450596268, 32474.894222604544, 7042.4535325114175, 26944.469147261283, 4867.137058632024, 38427.38728849737, 27101.110172404075, 38407.158959765315, 32442.305379188703, 26685.23361506863, 24307.81266782435, 0.074, 0.994, 0.252, 192.0, 0.0, 0.0, 0.0, 0.0, 0.0, 0.0, 0.0, 0.0, 0.0, 1.7074741586481388E9, 0.0, 2024-02-09 11:22:38.648
4.0, -18371.144637005884, -7368.565484114348, 13617.50973671791, -3684.327445546084, 45453.0770126673, 16011.515678348027, 32683.056018716816, 7199.563944287771, 27177.463731463402, 4966.60232145814, 38681.43721597639, 27194.85338864963, 38625.759020538215, 32598.141741531104, 26824.17205860282, 24397.890197979235, 0.074, 1.0, 0.256, 192.0, 1.0, 40.0, 15.5, 32.0, 4.0, 0.0, 0.0, 0.0, 0.0, 1.7074741586548042E9, 0.0, 2024-02-09 11:22:38.654
6.0, -18447.36408559848, -7479.564247079403, 13546.610003305675, -3655.024308565177, 45108.56957537765, 15935.452691966617, 32489.176987311483, 7065.319367089197, 27146.595972370622, 4934.862844331604, 38740.624635294036, 27171.51816743829, 38805.556452936704, 32602.388572977612, 26842.679303011813, 24478.624698951808, 0.074, 1.0, 0.256, 192.0, 0.0, 0.0, 0.0, 0.0, 0.0, 0.0, 0.0, 0.0, 0.0, 1.7074741586628106E9, 0.0, 2024-02-09 11:22:38.662
8.0, -18337.840537767475, -7340.73756226749, 13620.683684430562, -3660.4557824678163, 45274.128946558114, 16002.30675963244, 32585.513005913857, 7139.236586002897, 26994.358240885525, 4932.78413209726, 38435.47861999019, 27164.27620223477, 38306.0396678495, 32461.147899764528, 26686.686478458225, 24276.81079826484, 0.074, 1.0, 0.256, 192.0, 0.0, 0.0, 0.0, 0.0, 0.0, 0.0, 0.0, 0.0, 0.0, 1.707474158671816E9, 0.0, 2024-02-09 11:22:38.671
10.0, -18351.67626758531, -7369.88423703721, 13592.319320716779, -3647.3353084725513, 45361.36780516718, 16004.385471866784, 32638.687805973033, 7181.593141745704, 27303.438163213512, 5017.8772232386145, 38910.54259664328, 27253.25849691135, 38935.97888183342, 32702.65849860412, 26915.501286447205, 24541.209583426666, 0.074, 1.0, 0.256, 192.0, 0.0, 0.0, 0.0, 0.0, 0.0, 0.0, 0.0, 0.0, 0.0, 1.707474158678798E9, 0.0, 2024-02-09 11:22:38.678
12.0, -18363.768561335633, -7395.924019327644, 13591.31349221629, -3623.061313994088, 45071.465679581845, 15970.321413316897, 32498.76588568281, 7069.566198535705, 26992.05601120663, 4925.251594215822, 38479.645667033874, 27162.443359189438, 38424.906244862825, 32487.612365199613, 26703.47263854416, 24343.039017085914, 0.074, 1.0, 0.256, 192.0, 0.0, 0.0, 0.0, 0.0, 0.0, 0.0, 0.0, 0.0, 0.0, 1.7074741586869273E9, 0.0, 2024-02-09 11:22:38.686
14.0, -18268.52777821157, -7274.621102168692, 13659.374554082699, -3632.247880965219, 45472.65714081015, 16057.917899837244, 32706.100667250237, 7243.619232609181, 27215.573455759702, 5023.75573203036, 38721.33507982911, 27253.01262772234, 38625.624910071485, 32632.630483225643, 26834.61032326345, 24430.948428028638, 0.07200000000000001, 1.004, 0.25, 192.0, 1.0, 32.0, 15.5, 48.0, 3.5, 104.0, 0.0, 0.0, 0.0, 1.7074741586949253E9, 0.0, 2024-02-09 11:22:38.694
16.0, -18365.959032292252, -7407.368112488761, 13579.802343821806, -3613.7853400451354, 45132.575348922655, 15966.722782459592, 32531.757060498843, 7109.352303666152, 27195.14396132755, 4986.137746112078, 38782.91413580348, 27220.066156395216, 38822.007336855815, 32639.64893098461, 26867.199166679286, 24516.309740103454, 0.07200000000000001, 1.004, 0.25, 192.0, 0.0, 0.0, 0.0, 0.0, 0.0, 0.0, 0.0, 0.0, 0.0, 1.7074741587038915E9, 0.0, 2024-02-09 11:22:38.703
18.0, -18284.48692375266, -7297.531640235382, 13636.396960782644, -3643.1555322594086, 45286.020074608336, 16013.795556282468, 32621.052279597796, 7155.396897244084, 27030.8809913255, 4959.628577188084, 38460.53492552459, 27189.13134206907, 38319.02603137804, 32479.185757539963, 26708.077097901954, 24296.614443852242, 0.07200000000000001, 1.004, 0.25, 192.0, 0.0, 0.0, 0.0, 0.0, 0.0, 0.0, 0.0, 0.0, 0.0, 1.7074741587108884E9, 0.0, 2024-02-09 11:22:38.710
20.0, -18318.550982302546, -7337.563614554837, 13597.415518452588, -3647.0447357946323, 45365.6593401026, 16011.940361492678, 32649.684864245042, 7199.385130332128, 27323.532381478835, 5040.787761305304, 38926.591149162196, 27268.34592441868, 38937.67761441202, 32728.742984383465, 26933.785013411645, 24552.60897309887, 0.07200000000000001, 1.004, 0.25, 192.0, 0.0, 0.0, 0.0, 0.0, 0.0, 0.0, 0.0, 0.0, 0.0, 1.7074741587190945E9, 0.0, 2024-02-09 11:22:38.719
22.0, -18353.553814119558, -7385.55280990038, 13582.708070600997, -3640.1380467579424, 45064.268417867235, 15957.044477110443, 32489.646373945045, 7062.123067632087, 27008.037508492176, 4932.091228019146, 38493.839024762994, 27167.85248134762, 38437.37851826889, 32487.366496010603, 26708.166504879777, 24336.62406642724, 0.07200000000000001, 1.004, 0.25, 192.0, 0.0, 0.0, 0.0, 0.0, 0.0, 0.0, 0.0, 0.0, 0.0, 1.7074741587281826E9, 0.0, 2024-02-09 11:22:38.728
24.0, -18284.196351074737, -7288.143907564153, 13644.063609130813, -3662.6686051688916, 45464.923437228616, 16039.522414150528, 32713.76731559841, 7232.5774708482595, 27225.855258209143, 5021.878185496114, 38724.93371068641, 27257.371217891126, 38633.515075864205, 32625.16500057757, 26840.9358669443, 24412.485887108553, 0.076, 1.0, 0.25, 192.0, 1.0, 48.0, 15.5, 32.0, 3.5, 104.0, 0.0, 0.0, 0.0, 1.7074741587349076E9, 0.0, 2024-02-09 11:22:38.734
26.0, -18405.901599633886, -7445.723705974067, 13561.608023835186, -3643.7366776152467, 45110.201252722894, 15939.386598990752, 32502.364516540114, 7068.49331480185, 27180.749437898332, 4966.512914480319, 38771.71591183137, 27214.142944114563, 38823.30373803422, 32627.757802934386, 26856.045646196086, 24490.225254324112, 0.076, 1.0, 0.25, 192.0, 0.0, 0.0, 0.0, 0.0, 0.0, 0.0, 0.0, 0.0, 0.0, 1.707474158743117E9, 0.0, 2024-02-09 11:22:38.743
28.0, -18338.555793590047, -7351.198178672574, 13621.667161186597, -3651.5821399190595, 45263.9812545754, 15999.088108430877, 32610.993994592907, 7133.223966744419, 27008.05986023663, 4936.516873421297, 38446.90036140685, 27179.22951927537, 38319.0930866114, 32461.147899764528, 26694.8001616955, 24275.916728486627, 0.076, 1.0, 0.25, 192.0, 0.0, 0.0, 0.0, 0.0, 0.0, 0.0, 0.0, 0.0, 0.0, 1.7074741587509084E9, 0.0, 2024-02-09 11:22:38.750
30.0, -18402.63824494341, -7418.879260883244, 13575.086125741736, -3655.113715542998, 45347.50972360489, 15985.274730357496, 32640.565352507278, 7150.32305125273, 27294.430410198023, 5023.621621563629, 38911.548425143774, 27262.35565690466, 38943.31025401477, 32707.687641106564, 26928.644112186925, 24548.04921722999, 0.076, 1.0, 0.25, 192.0, 0.0, 0.0, 0.0, 0.0, 0.0, 0.0, 0.0, 0.0, 0.0, 1.7074741587600024E9, 0.0, 2024-02-09 11:22:38.760
32.0, -18473.314460911093, -7502.698302590645, 13552.712029541974, -3649.123448028976, 45040.88849316699, 15943.074636825877, 32489.266394289305, 7027.924898615468, 26951.264077575695, 4894.339131634132, 38454.499954521656, 27141.767995568276, 38426.9179018638, 32464.075978288172, 26696.47654252965, 24319.81555459685, 0.076, 1.0, 0.25, 192.0, 0.0, 0.0, 0.0, 0.0, 0.0, 0.0, 0.0, 0.0, 0.0, 1.707474158766962E9, 0.0, 2024-02-09 11:22:38.766
34.0, -18424.140623109415, -7421.449711495604, 13615.632190183664, -3664.0097098362103, 45433.94391941356, 16037.756626338558, 32707.84410331775, 7221.781578276346, 27149.725216594365, 4980.996844887358, 38675.75987288474, 27223.597732019156, 38612.59384305404, 32612.357451004682, 26827.8824481824, 24414.609302831806, 0.075, 0.999, 0.248, 192.0, 1.0, 40.0, 15.5, 24.0, 3.5, 88.0, 0.0, 0.0, 0.0, 1.707474158774958E9, 0.0, 2024-02-09 11:22:38.774
36.0, -18555.63593573999, -7588.55135304348, 13538.496320068398, -3647.3800119614616, 45087.760101289765, 15938.492529212539, 32511.685193977977, 7050.991898893345, 27104.909968961474, 4933.5887948976515, 38723.346736830084, 27180.257699520316, 38806.96461283739, 32620.918169131062, 26851.061207182553, 24499.300062572966, 0.075, 0.999, 0.248, 192.0, 0.0, 0.0, 0.0, 0.0, 0.0, 0.0, 0.0, 0.0, 0.0, 1.7074741587843275E9, 0.0, 2024-02-09 11:22:38.784
38.0, -18486.725507584277, -7494.629322842279, 13605.775070878874, -3665.5519802036265, 45236.68977459548, 16002.530277076994, 32600.958061332472, 7134.252146989364, 26921.178629538852, 4893.400358367009, 38382.773206564576, 27138.37053041107, 38296.67428692273, 32458.800966596722, 26693.012022139075, 24282.80106577886, 0.075, 0.999, 0.248, 192.0, 0.0, 0.0, 0.0, 0.0, 0.0, 0.0, 0.0, 0.0, 0.0, 1.707474158791018E9, 0.0, 2024-02-09 11:22:38.791
40.0, -18523.71764465781, -7539.712791408634, 13568.470009382965, -3673.8444773965452, 45327.281394872836, 15987.040518169466, 32629.657701213087, 7165.879865393623, 27229.498592555356, 4975.207743073433, 38853.27742734879, 27220.44613605096, 38917.69515486898, 32703.016126515406, 26930.94634186582, 24550.016170742056, 0.075, 0.999, 0.248, 192.0, 0.0, 0.0, 0.0, 0.0, 0.0, 0.0, 0.0, 0.0, 0.0, 1.7074741587990253E9, 0.0, 2024-02-09 11:22:38.799
42.0, -18548.885708914484, -7580.437669806203, 13559.998698234403, -3648.9893375622437, 45029.71262093933, 15953.401142764229, 32497.894167649054, 7066.526361289783, 26906.31471947607, 4877.955302948392, 38423.76630589561, 27119.21508541287, 38414.289166246555, 32474.983629582362, 26706.199551367707, 24335.282961759924, 0.075, 0.999, 0.248, 192.0, 0.0, 0.0, 0.0, 0.0, 0.0, 0.0, 0.0, 0.0, 0.0, 1.7074741588070145E9, 0.0, 2024-02-09 11:22:38.807
44.0, -18463.479693350757, -7459.872360214277, 13620.50487047492, -3668.2341895382633, 45433.29571882435, 16042.472844418628, 32725.3231674818, 7251.084715257253, 27125.04889071571, 4966.5799697136845, 38655.59859938605, 27211.974824902398, 38597.729932991264, 32616.872503384653, 26847.239058880696, 24429.182640216666, 0.0755, 0.9975, 0.248, 192.0, 1.0, 48.0, 15.5, 16.0, 3.5, 96.0, 0.0, 0.0, 0.0, 1.7074741588160532E9, 0.0, 2024-02-09 11:22:38.816
46.0, -18552.171415349414, -7591.9935216895965, 13530.784968231317, -3657.639462666448, 45088.43065362342, 15931.787005875947, 32513.160409112028, 7070.370861336096, 27101.825428226643, 4935.689858876451, 38716.015364648745, 27175.13915004005, 38800.0579238007, 32626.84138141172, 26866.148634689886, 24507.79372546598, 0.0755, 0.9975, 0.248, 192.0, 0.0, 0.0, 0.0, 0.0, 0.0, 0.0, 0.0, 0.0, 0.0, 1.7074741588230495E9, 0.0, 2024-02-09 11:22:38.823
48.0, -18445.50889080869, -7457.011336923998, 13597.795498108328, -3665.9096081149114, 45240.69073685297, 15992.293178116463, 32619.68882318602, 7140.577690670216, 26937.115423335486, 4904.598582339118, 38384.80721531001, 27140.27042868977, 38290.16992928623, 32452.52012640478, 26697.437667541228, 24280.744705288973, 0.0755, 0.9975, 0.248, 192.0, 0.0, 0.0, 0.0, 0.0, 0.0, 0.0, 0.0, 0.0, 0.0, 1.7074741588310778E9, 0.0, 2024-02-09 11:22:38.831
50.0, -18445.620649530967, -7457.681889257657, 13576.82956180925, -3651.6044916635146, 45347.84499977172, 15991.108535660333, 32665.800471997318, 7181.61549349016, 27260.656924326056, 5005.382598088097, 38874.24336364787, 27245.278924140803, 38930.61446316415, 32714.303757465335, 26939.909391392397, 24553.078359732433, 0.0755, 0.9975, 0.248, 192.0, 0.0, 0.0, 0.0, 0.0, 0.0, 0.0, 0.0, 0.0, 0.0, 1.7074741588390784E9, 0.0, 2024-02-09 11:22:38.839
52.0, -18450.582736800043, -7483.676968059179, 13569.006451249892, -3629.0292297636547, 45036.44049602038, 15948.327296772874, 32500.24110081686, 7054.925805917479, 26959.020132901685, 4913.963963265892, 38458.90324817935, 27153.6591236185, 38441.55829448203, 32485.399542498537, 26715.319063105475, 24341.832022885326, 0.0755, 0.9975, 0.248, 192.0, 0.0, 0.0, 0.0, 0.0, 0.0, 0.0, 0.0, 0.0, 0.0, 1.7074741588483045E9, 0.0, 2024-02-09 11:22:38.848
54.0, -18348.05528498355, -7350.192350172085, 13636.240498571457, -3642.3285177145626, 45439.263634593925, 16037.421350171728, 32717.94709181155, 7230.297592913818, 27178.156635541516, 5013.093949925179, 38690.10969282505, 27248.408168364545, 38616.99713671173, 32634.999768137906, 26844.914477457343, 24430.411986161707, 0.07375000000000001, 0.99575, 0.248, 192.0, 1.0, 32.0, 15.5, 8.0, 3.5, 96.0, 0.0, 0.0, 0.0, 1.7074741588560984E9, 0.0, 2024-02-09 11:22:38.856
56.0, -18431.762567968675, -7470.645901041735, 13563.64203258062, -3627.732828585247, 45104.16628171996, 15945.130997315766, 32528.560761041736, 7082.172582408498, 27162.532766167256, 4983.500240266352, 38770.419510652966, 27221.787240718277, 38834.77018293979, 32654.088157902737, 26873.61411733796, 24521.18242039471, 0.07375000000000001, 0.99575, 0.248, 192.0, 0.0, 0.0, 0.0, 0.0, 0.0, 0.0, 0.0, 0.0, 0.0, 1.707474158863096E9, 0.0, 2024-02-09 11:22:38.863
58.0, -18332.520822587114, -7345.565539069837, 13633.915917148104, -3639.9368810578444, 45244.33407119919, 16002.954960221645, 32608.11061955817, 7142.656402904559, 26994.760572285722, 4962.60135920064, 38440.75363168164, 27200.95541488593, 38322.915234913264, 32482.605574441623, 26705.66310950078, 24297.486161885998, 0.07375000000000001, 0.99575, 0.248, 192.0, 0.0, 0.0, 0.0, 0.0, 0.0, 0.0, 0.0, 0.0, 0.0, 1.7074741588720984E9, 0.0, 2024-02-09 11:22:38.872
60.0, -18344.255488426148, -7363.357527656261, 13606.043291812337, -3643.62491889297, 45351.44363062902, 15985.900579202245, 32656.144518392626, 7170.439621262506, 27309.58489293872, 5058.758563847371, 38926.68055614002, 27291.21175899646, 38947.691195928004, 32725.010243059427, 26946.39139728444, 24561.393208669808, 0.07375000000000001, 0.99575, 0.248, 192.0, 0.0, 0.0, 0.0, 0.0, 0.0, 0.0, 0.0, 0.0, 0.0, 1.7074741588791344E9, 0.0, 2024-02-09 11:22:38.879
62.0, -18368.373020693423, -7402.003693819487, 13588.608931137196, -3634.3489449440176, 45042.14019085648, 15935.497395455528, 32489.825187900686, 7054.568178006194, 27001.19787468885, 4953.5489026962405, 38504.03142023461, 27190.964185114408, 38451.214248086726, 32477.911708106007, 26723.969188209678, 24346.995275854504, 0.07375000000000001, 0.99575, 0.248, 192.0, 0.0, 0.0, 0.0, 0.0, 0.0, 0.0, 0.0, 0.0, 0.0, 1.7074741588871672E9, 0.0, 2024-02-09 11:22:38.887
64.0, -18271.075877079475, -7271.760078878413, 13656.55823428133, -3644.2954712266296, 45442.07995439529, 16021.573963352916, 32709.5204841519, 7225.022581222365, 27216.04284239326, 5051.248377710388, 38726.05129790918, 27287.7919420948, 38615.38781111095, 32623.93565463253, 26844.869773968432, 24421.24777093503, 0.07287500000000001, 0.9978750000000001, 0.249, 192.0, 1.0, 32.0, 15.5, 32.0, 3.5, 104.0, 0.0, 0.0, 0.0, 1.707474158895197E9, 0.0, 2024-02-09 11:22:38.895
66.0, -18365.82492182552, -7406.965781088565, 13576.002547264403, -3619.8426627925237, 45106.96024977687, 15944.34868625983, 32519.10597313714, 7101.417434384518, 27198.697888695944, 5017.296077882776, 38803.544795935726, 27253.236145166895, 38838.25705507482, 32649.08136714475, 26873.23413768222, 24511.638225512295, 0.07287500000000001, 0.9978750000000001, 0.249, 192.0, 0.0, 0.0, 0.0, 0.0, 0.0, 0.0, 0.0, 0.0, 0.0, 1.7074741589032464E9, 0.0, 2024-02-09 11:22:38.903
68.0, -18269.75712415661, -7283.740613906457, 13651.41733305661, -3620.2002907038086, 45256.71693762743, 16009.906352747244, 32630.015329124373, 7172.250112563385, 27025.96360754533, 4993.424414804508, 38468.13451863939, 27226.81638322072, 38322.356441301876, 32491.725086179387, 26712.14511539282, 24302.85058055527, 0.07287500000000001, 0.9978750000000001, 0.249, 192.0, 0.0, 0.0, 0.0, 0.0, 0.0, 0.0, 0.0, 0.0, 0.0, 1.707474158911173E9, 0.0, 2024-02-09 11:22:38.911
70.0, -18285.76097318661, -7306.919372906611, 13617.956771607016, -3619.7532558147022, 45360.74195632243, 16002.999663710556, 32663.85587022971, 7189.170383116053, 27350.198012614015, 5097.717654432971, 38956.38602452112, 27327.44393675851, 38962.28688505732, 32751.564115472334, 26956.91906892289, 24566.355295938887, 0.07287500000000001, 0.9978750000000001, 0.249, 192.0, 0.0, 0.0, 0.0, 0.0, 0.0, 0.0, 0.0, 0.0, 0.0, 1.7074741589197285E9, 0.0, 2024-02-09 11:22:38.919
72.0, -18321.702578270742, -7359.356565398761, 13599.337768475745, -3607.370389386462, 45046.67759498091, 15952.127093330277, 32497.894167649054, 7048.130875603066, 27026.678863367903, 4982.583818743685, 38530.87586532544, 27222.346034329657, 38475.62235303192, 32506.879568920085, 26732.99929296962, 24358.77464518245, 0.07287500000000001, 0.9978750000000001, 0.249, 192.0, 0.0, 0.0, 0.0, 0.0, 0.0, 0.0, 0.0, 0.0, 0.0, 1.7074741589273477E9, 0.0, 2024-02-09 11:22:38.927
74.0, -18234.597830128412, -7239.081828484754, 13665.409525085632, -3619.6191453479705, 45449.56778878782, 16058.476693448627, 32717.745926111453, 7258.080811271765, 27241.881458983597, 5074.740061132916, 38746.52549583024, 27306.656814415077, 38638.45481138883, 32648.70138748901, 26853.564602561546, 24432.423643162685, 0.07143750000000001, 0.9979375, 0.2495, 192.0, 1.0, 24.0, 15.5, 24.0, 3.5, 104.0, 0.0, 0.0, 0.0, 1.7074741589351857E9, 0.0, 2024-02-09 11:22:38.935
76.0, -18344.635468081888, -7389.46436518006, 13578.438887410031, -3617.3169156690738, 45118.20317723789, 15960.419590523195, 32537.836734990688, 7099.539887850272, 27213.38298480308, 5028.404894877064, 38815.79355189724, 27268.25651744086, 38859.535915796274, 32670.89666973313, 26891.584919880024, 24532.961789722656, 0.07143750000000001, 0.9979375, 0.2495, 192.0, 0.0, 0.0, 0.0, 0.0, 0.0, 0.0, 0.0, 0.0, 0.0, 1.7074741589432497E9, 0.0, 2024-02-09 11:22:38.943
78.0, -18261.9116618528, -7279.337320248762, 13644.89062367566, -3630.8173693200793, 45261.209638262946, 16013.88496326029, 32635.536210004833, 7164.359946770662, 27035.06076753864, 4995.36901657212, 38459.55144876855, 27224.804726219743, 38329.53135127203, 32494.988440869864, 26722.51632482008, 24305.108106745258, 0.07143750000000001, 0.9979375, 0.2495, 192.0, 0.0, 0.0, 0.0, 0.0, 0.0, 0.0, 0.0, 0.0, 0.0, 1.707474158951271E9, 0.0, 2024-02-09 11:22:38.951
80.0, -18280.016574861595, -7306.964076395521, 13609.59721918073, -3635.511235655694, 45371.26962796088, 16000.205695653642, 32672.595402311734, 7191.405557561584, 27340.78792819833, 5083.792517637315, 38935.531846944315, 27312.423564484547, 38953.770870419845, 32742.511658967935, 26961.63528700296, 24571.16092099678, 0.07143750000000001, 0.9979375, 0.2495, 192.0, 0.0, 0.0, 0.0, 0.0, 0.0, 0.0, 0.0, 0.0, 0.0, 1.707474158958346E9, 0.0, 2024-02-09 11:22:38.958
82.0, -18307.889200197365, -7354.7297542965125, 13590.844105582728, -3623.754218072202, 45050.16446711594, 15949.221366551086, 32501.649260717546, 7062.435992054462, 27031.48448842579, 4976.41473727402, 38520.43760066481, 27212.421859791502, 38479.444501333775, 32498.542368238257, 26735.27917090406, 24356.070084103358, 0.07143750000000001, 0.9979375, 0.2495, 192.0, 0.0, 0.0, 0.0, 0.0, 0.0, 0.0, 0.0, 0.0, 0.0, 1.7074741589672444E9, 0.0, 2024-02-09 11:22:38.967
84.0, -18216.4482136307, -7235.036162738343, 13659.08398140478, -3637.724058356769, 45442.57169277331, 16038.94126879469, 32714.594330143256, 7236.220805194474, 27237.075833925705, 5071.141430275611, 38735.26021662477, 27295.682107887522, 38632.822171786094, 32626.64021571162, 26849.11660541494, 24428.489736138552, 0.06871875000000001, 0.9979687500000001, 0.24975, 192.0, 1.0, 8.0, 15.5, 24.0, 3.5, 104.0, 0.0, 0.0, 0.0, 1.7074741589752517E9, 0.0, 2024-02-09 11:22:38.975
86.0, -18314.90764795633, -7367.000862002476, 13576.538989131332, -3614.925279012356, 45108.83779631112, 15948.05907583941, 32513.920368423507, 7083.759556264825, 27236.561743803235, 5038.016144992846, 38831.55153173823, 27267.11657847364, 38871.73996826887, 32655.161041636595, 26880.27493718564, 24529.38551060981, 0.06871875000000001, 0.9979687500000001, 0.24975, 192.0, 0.0, 0.0, 0.0, 0.0, 0.0, 0.0, 0.0, 0.0, 0.0, 1.707474158983276E9, 0.0, 2024-02-09 11:22:38.983
88.0, -18235.402492928803, -7259.779543850368, 13650.120931878202, -3619.082703481043, 45243.81998107672, 16008.654655057748, 32608.580006191733, 7146.255033761863, 27045.431976965905, 5005.874336466114, 38482.6855042798, 27242.686121783987, 38346.049290424504, 32482.42676048598, 26708.77000198007, 24305.309272445356, 0.06871875000000001, 0.9979687500000001, 0.24975, 192.0, 0.0, 0.0, 0.0, 0.0, 0.0, 0.0, 0.0, 0.0, 0.0, 1.7074741589905655E9, 0.0, 2024-02-09 11:22:38.990
90.0, -18266.203196788218, -7290.759061665423, 13622.829451898271, -3612.980677244744, 45367.51453489239, 16013.907315004744, 32675.255259901915, 7205.375397846151, 27349.192184113526, 5099.617552711672, 38956.60954196567, 27333.434204272537, 38969.28298107183, 32741.237609533982, 26955.332095066562, 24578.827569344947, 0.06871875000000001, 0.9979687500000001, 0.24975, 192.0, 0.0, 0.0, 0.0, 0.0, 0.0, 0.0, 0.0, 0.0, 0.0, 1.7074741589993348E9, 0.0, 2024-02-09 11:22:38.999
92.0, -18306.413985063315, -7347.9795274710095, 13609.820736625283, -3596.2615723921745, 45044.66593797993, 15968.041535382456, 32497.603594971133, 7072.337814848163, 27036.468927439324, 4991.792737459271, 38539.61539740746, 27231.30908385624, 38489.32397238302, 32514.121534123606, 26736.687330804747, 24381.19344487112, 0.06871875000000001, 0.9979687500000001, 0.24975, 192.0, 0.0, 0.0, 0.0, 0.0, 0.0, 0.0, 0.0, 0.0, 0.0, 1.707474159007316E9, 0.0, 2024-02-09 11:22:39.007
94.0, -18254.624993160367, -7258.013756038399, 13672.942062967071, -3624.8494535505124, 45446.01386141943, 16053.55930966846, 32725.792554115364, 7245.273261698874, 27228.895095455064, 5068.258055240876, 38740.199952149385, 27309.719003405455, 38630.721107807294, 32642.197029852516, 26842.656951267356, 24433.049492007434, 0.067359375, 0.998984375, 0.251875, 192.0, 1.0, 8.0, 15.5, 32.0, 3.5, 120.0, 0.0, 0.0, 0.0, 1.7074741590153553E9, 0.0, 2024-02-09 11:22:39.015
96.0, -18417.83743117302, -7448.8082467089, 13582.55160838981, -3626.704648340303, 45120.95244180589, 15952.618831708292, 32544.497554838366, 7106.424225142507, 27203.27999630928, 5020.939412228991, 38819.906272877015, 27258.086473713694, 38870.935305468476, 32661.41953008408, 26888.209806467272, 24536.98510372461, 0.067359375, 0.998984375, 0.251875, 192.0, 0.0, 0.0, 0.0, 0.0, 0.0, 0.0, 0.0, 0.0, 0.0, 1.7074741590233648E9, 0.0, 2024-02-09 11:22:39.023
98.0, -18416.518678250155, -7417.336990515828, 13627.79153916735, -3658.891160355945, 45238.81319031873, 15983.799515223447, 32617.565407462767, 7127.926603308511, 26977.214452888307, 4951.604300928629, 38430.38242225438, 27189.108990324617, 38324.39045004731, 32468.38986496805, 26701.304519331996, 24290.355955404753, 0.067359375, 0.998984375, 0.251875, 192.0, 0.0, 0.0, 0.0, 0.0, 0.0, 0.0, 0.0, 0.0, 0.0, 1.7074741590303764E9, 0.0, 2024-02-09 11:22:39.030
100.0, -18498.259007723216, -7503.950000280142, 13586.329053202755, -3663.5850266915595, 45356.38336615365, 15983.933625690179, 32666.09104467524, 7185.392938303106, 27256.834776024196, 5013.272763880821, 38873.28223863629, 27251.425653866012, 38941.94679760299, 32707.28530970637, 26928.9570366093, 24542.505984605075, 0.067359375, 0.998984375, 0.251875, 192.0, 0.0, 0.0, 0.0, 0.0, 0.0, 0.0, 0.0, 0.0, 0.0, 1.7074741590393713E9, 0.0, 2024-02-09 11:22:39.039
102.0, -18582.927415719918, -7612.199498677194, 13550.25333765189, -3656.991262077244, 45031.50076049576, 15934.715084399591, 32502.744496195854, 7063.799448466236, 26920.262208016185, 4874.446079068909, 38438.71962293621, 27123.283102903737, 38465.29584709357, 32471.832033614166, 26708.457077557694, 24341.452043229587, 0.067359375, 0.998984375, 0.251875, 192.0, 0.0, 0.0, 0.0, 0.0, 0.0, 0.0, 0.0, 0.0, 0.0, 1.7074741590476213E9, 0.0, 2024-02-09 11:22:39.047
104.0, -18509.010196806215, -7504.352331680338, 13615.83335588376, -3676.4149280089055, 45433.58629150227, 16019.115271462832, 32720.025804045894, 7227.816549279279, 27103.524160805246, 4945.815199114704, 38626.45192461633, 27190.76301941431, 38600.72506674827, 32598.052334553286, 26818.78528818909, 24404.081631193356, 0.0676796875, 1.0004921875, 0.25493750000000004, 192.0, 1.0, 16.0, 15.5, 40.0, 4.0, 8.0, 0.0, 0.0, 0.0, 1.7074741590544152E9, 0.0, 2024-02-09 11:22:39.054
106.0, -18615.337445180114, -7654.310185230993, 13539.39038984661, -3663.406212735917, 45110.201252722894, 15924.634447650249, 32527.309063352237, 7074.30476836023, 27100.283157859227, 4909.761835308294, 38726.05129790918, 27157.99536204283, 38848.985892413366, 32623.26510229887, 26863.35466663297, 24497.422516038718, 0.0676796875, 1.0004921875, 0.25493750000000004, 192.0, 0.0, 0.0, 0.0, 0.0, 0.0, 0.0, 0.0, 0.0, 0.0, 1.707474159062399E9, 0.0, 2024-02-09 11:22:39.062
108.0, -18539.56503147662, -7554.867274149332, 13598.063719041791, -3674.895009385945, 45230.38658265908, 15974.858817441323, 32597.672354897542, 7127.479568419406, 26900.32445196205, 4862.912578929971, 38360.26499989808, 27113.202466154395, 38304.67621143773, 32441.076033243662, 26682.998440623098, 24262.863309724726, 0.0676796875, 1.0004921875, 0.25493750000000004, 192.0, 0.0, 0.0, 0.0, 0.0, 0.0, 0.0, 0.0, 0.0, 0.0, 1.7074741590714066E9, 0.0, 2024-02-09 11:22:39.071
110.0, -18549.332743803592, -7564.366765542837, 13576.516637386876, -3662.2215702797857, 45366.06167150279, 15998.350500863851, 32671.500166833423, 7206.627095535648, 27216.24400809336, 4961.774344655793, 38836.84889517414, 27207.750345200344, 38926.99348056239, 32701.5185596369, 26927.168897052874, 24544.405882883773, 0.0676796875, 1.0004921875, 0.25493750000000004, 192.0, 0.0, 0.0, 0.0, 0.0, 0.0, 0.0, 0.0, 0.0, 0.0, 1.7074741590784044E9, 0.0, 2024-02-09 11:22:39.078
112.0, -18579.4852470738, -7613.585306833424, 13553.87432025365, -3647.6482328949255, 45040.709679211344, 15943.789892648447, 32503.549158996244, 7062.078364143177, 26908.862818343976, 4858.732802716828, 38427.566102453005, 27110.207332397382, 38465.09468139347, 32490.58514721217, 26715.117897405376, 24352.113825334767, 0.0676796875, 1.0004921875, 0.25493750000000004, 192.0, 0.0, 0.0, 0.0, 0.0, 0.0, 0.0, 0.0, 0.0, 0.0, 1.7074741590864372E9, 0.0, 2024-02-09 11:22:39.086
114.0, -18465.312536396093, -7472.456392342615, 13625.869289144193, -3665.10494531452, 45435.39678280315, 16021.484556375093, 32700.266861947403, 7213.399674105606, 27121.07028020266, 4960.232074288378, 38635.057346231624, 27202.38592653107, 38598.40048532492, 32614.771439405853, 26821.19927659026, 24407.613206817296, 0.06883984375, 1.00224609375, 0.25546875, 192.0, 1.0, 24.0, 15.5, 48.0, 4.0, 0.0, 0.0, 0.0, 0.0, 1.7074741590954185E9, 0.0, 2024-02-09 11:22:39.095
116.0, -18543.81186292313, -7590.428899577725, 13564.647861081108, -3640.33921245804, 45130.049601799205, 15945.287459526953, 32540.474240836415, 7093.661379058526, 27125.60768432709, 4930.951289051925, 38751.71110054387, 27178.648373919532, 38860.027654174286, 32641.772346707865, 26876.341030161504, 24514.543952291486, 0.06883984375, 1.00224609375, 0.25546875, 192.0, 0.0, 0.0, 0.0, 0.0, 0.0, 0.0, 0.0, 0.0, 0.0, 1.7074741591034505E9, 0.0, 2024-02-09 11:22:39.103
118.0, -18457.958812470297, -7467.1366771622515, 13632.574812480785, -3648.8999305844227, 45253.34182421468, 16009.325207391406, 32632.69753845901, 7159.599025201682, 26940.646998959422, 4916.377951667065, 38398.17355849428, 27156.363684697593, 38323.16110410227, 32480.90684186302, 26713.48622006014, 24298.38023166421, 0.06883984375, 1.00224609375, 0.25546875, 192.0, 0.0, 0.0, 0.0, 0.0, 0.0, 0.0, 0.0, 0.0, 0.0, 1.707474159110453E9, 0.0, 2024-02-09 11:22:39.110
120.0, -18456.774170014163, -7471.696433031134, 13595.090937029236, -3651.470381196783, 45380.27738097637, 16007.492364346072, 32682.51957684989, 7208.683456025536, 27261.30512491526, 5011.082292924201, 38876.79146251577, 27246.798842763765, 38943.287902270305, 32737.57192344331, 26954.326266566073, 24562.91312729277, 0.06883984375, 1.00224609375, 0.25546875, 192.0, 0.0, 0.0, 0.0, 0.0, 0.0, 0.0, 0.0, 0.0, 0.0, 1.7074741591184857E9, 0.0, 2024-02-09 11:22:39.118
122.0, -18473.828551033563, -7513.471843418103, 13562.770314546862, -3641.859131081001, 45044.82240019112, 15948.148482817232, 32497.983574626873, 7052.1988930939315, 26958.260173590206, 4909.940649263936, 38462.50187903665, 27143.243210702327, 38474.415358831335, 32509.204150343438, 26725.109127176896, 24356.29360154791, 0.06883984375, 1.00224609375, 0.25546875, 192.0, 0.0, 0.0, 0.0, 0.0, 0.0, 0.0, 0.0, 0.0, 0.0, 1.7074741591276383E9, 0.0, 2024-02-09 11:22:39.127
124.0, -18357.130093232405, -7362.642271833691, 13632.038370613858, -3653.593796920037, 45444.06925965181, 16039.03067577251, 32712.292100464358, 7225.000229477911, 27155.84959457512, 5003.683865509494, 38659.532506410185, 27229.20801987744, 38600.099217903524, 32617.945387118507, 26823.233285335697, 24405.288625393943, 0.06841992187500001, 1.0031230468749999, 0.254734375, 192.0, 1.0, 16.0, 15.5, 48.0, 3.5, 120.0, 0.0, 0.0, 0.0, 1.7074741591345108E9, 0.0, 2024-02-09 11:22:39.134
126.0, -18430.756739468186, -7474.088069687852, 13566.033669237337, -3624.8494535505124, 45131.234244255334, 15951.456540996616, 32537.34499661267, 7092.141460435565, 27177.486083207856, 4992.619752004118, 38797.308659232694, 27225.4752785534, 38869.70595952344, 32662.17948939556, 26880.118474974453, 24521.80826923946, 0.06841992187500001, 1.0031230468749999, 0.254734375, 192.0, 0.0, 0.0, 0.0, 0.0, 0.0, 0.0, 0.0, 0.0, 0.0, 1.7074741591426272E9, 0.0, 2024-02-09 11:22:39.142
128.0, -18346.423607638313, -7365.726812568523, 13637.112216605214, -3632.516101898683, 45247.1280392561, 16005.190134667175, 32608.22237828045, 7158.682603679014, 26987.608014060024, 4949.212664271911, 38436.46209674622, 27186.315022267703, 38334.40403156329, 32478.582260439667, 26707.250083357107, 24292.881702528204, 0.06841992187500001, 1.0031230468749999, 0.254734375, 192.0, 0.0, 0.0, 0.0, 0.0, 0.0, 0.0, 0.0, 0.0, 0.0, 1.7074741591505156E9, 0.0, 2024-02-09 11:22:39.150
130.0, -18351.430398396304, -7376.589760373803, 13615.900411117127, -3628.1575117298976, 45377.77398559737, 16001.815021254424, 32651.69652124602, 7194.534801785327, 27317.45270698699, 5047.895616042092, 38918.611576391646, 27280.39351468009, 38956.81070766577, 32727.848914605253, 26954.505080521714, 24561.214394714167, 0.06841992187500001, 1.0031230468749999, 0.254734375, 192.0, 0.0, 0.0, 0.0, 0.0, 0.0, 0.0, 0.0, 0.0, 0.0, 1.7074741591598325E9, 0.0, 2024-02-09 11:22:39.159
132.0, -18385.82973311302, -7430.949202889109, 13590.88880907164, -3622.6142791049815, 45050.61150200504, 15942.225270536575, 32482.829091886175, 7051.103657615621, 27014.07247949511, 4937.5227019217855, 38507.09360922499, 27173.14984478353, 38499.44931262128, 32497.022449615295, 26730.56295282399, 24360.942764394615, 0.06841992187500001, 1.0031230468749999, 0.254734375, 192.0, 0.0, 0.0, 0.0, 0.0, 0.0, 0.0, 0.0, 0.0, 0.0, 1.707474159166508E9, 0.0, 2024-02-09 11:22:39.166
134.0, -18284.017537119096, -7297.06225360182, 13658.525187793397, -3643.62491889297, 45460.229570893, 16031.498137891072, 32708.939338796063, 7237.651316839614, 27206.275130066293, 5023.643973308083, 38691.5849079591, 27257.34886614667, 38615.58897681105, 32607.842398624707, 26836.554925031058, 24409.49075335154, 0.06841992187500001, 1.0031230468749999, 0.254734375, 192.0, 0.0, 0.0, 0.0, 0.0, 0.0, 0.0, 0.0, 0.0, 0.0, 1.707474159174539E9, 0.0, 2024-02-09 11:22:39.174
136.0, -18374.564453907544, -7425.361266775283, 13589.301835215312, -3624.6482878504144, 45144.868808373074, 15944.751017660024, 32538.082604179694, 7084.206591153931, 27222.994234918864, 5000.822842219215, 38816.888787375545, 27242.328493872705, 38893.04118073478, 32667.968591209483, 26895.22825422624, 24521.964731450647, 0.07200000000000001, 0.998, 0.258, 192.0, 1.0, 32.0, 15.5, 24.0, 4.0, 8.0, 0.0, 0.0, 0.0, 1.707474159183526E9, 0.0, 2024-02-09 11:22:39.183
138.0, -18295.86396168041, -7317.670561989613, 13661.542673294864, -3626.727000084758, 45259.75677487335, 16015.002550483056, 32621.991052864916, 7155.016917588344, 27015.81591556262, 4964.098926079146, 38455.77400395561, 27200.91071139702, 38336.39333681981, 32484.4160657425, 26720.839943985935, 24291.652356583163, 0.07200000000000001, 0.998, 0.258, 192.0, 0.0, 0.0, 0.0, 0.0, 0.0, 0.0, 0.0, 0.0, 0.0, 1.70747415919057E9, 0.0, 2024-02-09 11:22:39.190
140.0, -18317.746319502156, -7339.709382022546, 13624.215260054501, -3628.4257326633615, 45395.27540150588, 16024.814966298934, 32663.65470452961, 7220.574584075759, 27331.064919360273, 5063.675947627538, 38935.44243996649, 27293.759857864366, 38953.25678029737, 32747.630208448198, 26962.127025380974, 24563.96365928217, 0.07200000000000001, 0.998, 0.258, 192.0, 0.0, 0.0, 0.0, 0.0, 0.0, 0.0, 0.0, 0.0, 0.0, 1.7074741591987917E9, 0.0, 2024-02-09 11:22:39.198
142.0, -18349.64225883988, -7390.358434958272, 13595.269750984879, -3601.335418383529, 45067.64353127999, 15983.285425100974, 32523.10693539464, 7108.413530399029, 27024.756613344744, 4962.064917333712, 38525.310280956066, 27192.171179314995, 38503.40557138986, 32526.124420896107, 26746.835022787458, 24391.005860687004, 0.07200000000000001, 0.998, 0.258, 192.0, 0.0, 0.0, 0.0, 0.0, 0.0, 0.0, 0.0, 0.0, 0.0, 1.7074741592065873E9, 0.0, 2024-02-09 11:22:39.206
144.0, -18244.298487222015, -7254.750401347924, 13665.2754146189, -3614.3664854009735, 45472.679492554606, 16074.301728522985, 32746.356159014245, 7265.747459619935, 27219.35090057265, 5059.518523158851, 38705.97943138831, 27278.448912912478, 38617.73474427876, 32646.98030316595, 26846.12147165793, 24437.92217229869, 0.07200000000000001, 0.998, 0.258, 192.0, 0.0, 0.0, 0.0, 0.0, 0.0, 0.0, 0.0, 0.0, 0.0, 1.707474159215592E9, 0.0, 2024-02-09 11:22:39.215
146.0, -18332.58787782048, -7382.155344743174, 13587.06666076978, -3598.362636370973, 45160.69384344743, 15980.916140188712, 32558.512098611845, 7116.8848415475895, 27240.67446478301, 5044.542854373795, 38844.53789526676, 27265.507252872856, 38906.452227407965, 32695.774161311885, 26899.005699039186, 24549.256211430577, 0.07200000000000001, 1.0, 0.256, 192.0, 1.0, 32.0, 15.5, 32.0, 4.0, 0.0, 0.0, 0.0, 0.0, 1.707474159222596E9, 0.0, 2024-02-09 11:22:39.222
148.0, -18252.590984414936, -7279.314968504306, 13657.452304059543, -3608.152700442398, 45261.74608012987, 16025.485518632595, 32617.520703973856, 7164.583464215215, 27041.36395947504, 4994.162022371534, 38481.36675135693, 27220.37908081759, 38349.80438349299, 32508.53359800978, 26715.162600894288, 24307.544446890886, 0.07200000000000001, 1.0, 0.256, 192.0, 0.0, 0.0, 0.0, 0.0, 0.0, 0.0, 0.0, 0.0, 0.0, 1.7074741592306588E9, 0.0, 2024-02-09 11:22:39.230
150.0, -18269.175978800773, -7302.001989126443, 13635.614649726707, -3614.344133656518, 45401.53388995337, 16014.801384782957, 32666.33691386425, 7200.815641977268, 27365.441902332535, 5091.749738663404, 38963.11389960217, 27313.4964482184, 38970.691140972514, 32755.38626377419, 26956.650847989426, 24563.203699970687, 0.07200000000000001, 1.0, 0.256, 192.0, 0.0, 0.0, 0.0, 0.0, 0.0, 0.0, 0.0, 0.0, 0.0, 1.7074741592396536E9, 0.0, 2024-02-09 11:22:39.239
152.0, -18315.086461911975, -7368.610187603258, 13614.492251216443, -3603.6599998068814, 45066.54829580168, 15954.228157309075, 32491.725086179387, 7058.63619549706, 27052.048093324673, 4976.101812851645, 38552.8029266361, 27205.42576377699, 38517.59892911898, 32521.966996427418, 26743.549316352528, 24366.798921441907, 0.07200000000000001, 1.0, 0.256, 192.0, 0.0, 0.0, 0.0, 0.0, 0.0, 0.0, 0.0, 0.0, 0.0, 1.7074741592478907E9, 0.0, 2024-02-09 11:22:39.247
154.0, -18226.282981191038, -7246.949642533022, 13680.429897359598, -3626.727000084758, 45468.834992508295, 16042.383437440807, 32709.341670196256, 7228.308287657295, 27229.029205921797, 5048.409706164563, 38720.66452749545, 27279.745314090887, 38621.2663199027, 32630.395308780113, 26843.59572453448, 24415.481020865565, 0.07200000000000001, 1.0, 0.256, 192.0, 0.0, 0.0, 0.0, 0.0, 0.0, 0.0, 0.0, 0.0, 0.0, 1.707474159254646E9, 0.0, 2024-02-09 11:22:39.254
156.0, -18324.76476726112, -7379.6743011086355, 13603.83046911126, -3610.5219853546605, 45154.524761977766, 15962.945337646644, 32527.86785696362, 7104.434919885984, 27243.15550841755, 5022.392275618587, 38844.2696743333, 27254.554898089755, 38904.17234947352, 32674.472948845978, 26898.33514670553, 24537.23097291362, 0.066, 1.0, 0.252, 192.0, 1.0, 8.0, 15.5, 32.0, 3.5, 112.0, 0.0, 0.0, 0.0, 1.7074741592637007E9, 0.0, 2024-02-09 11:22:39.263
158.0, -18247.76300761259, -7280.968997593999, 13665.878911719194, -3622.2566511936966, 45246.83746657818, 16013.281466159997, 32598.25350025338, 7147.283214006808, 27037.787680362188, 4978.292283808266, 38461.09371913597, 27214.321758070204, 38336.63920600882, 32489.62402220059, 26710.267568858573, 24295.385097907198, 0.066, 1.0, 0.252, 192.0, 0.0, 0.0, 0.0, 0.0, 0.0, 0.0, 0.0, 0.0, 0.0, 1.7074741592717285E9, 0.0, 2024-02-09 11:22:39.271
160.0, -18274.071010836484, -7314.451910788049, 13638.900356161637, -3629.342154186029, 45400.259840519415, 16012.141527192776, 32678.160986681105, 7197.976970431444, 27360.12218715217, 5075.365909977664, 38939.242236523896, 27304.332232991725, 38958.21886756645, 32750.357121271747, 26957.589621256546, 24559.560365624475, 0.066, 1.0, 0.252, 192.0, 0.0, 0.0, 0.0, 0.0, 0.0, 0.0, 0.0, 0.0, 0.0, 1.7074741592786922E9, 0.0, 2024-02-09 11:22:39.278
162.0, -18350.804549551554, -7405.535269443425, 13600.902390587617, -3623.2401279497303, 45049.13628687099, 15945.063942082399, 32477.911708106007, 7056.982166407367, 27042.481546697803, 4957.706327164928, 38526.47257166774, 27181.77761814328, 38510.31226042655, 32523.173990628005, 26742.319970407483, 24365.547223752408, 0.066, 1.0, 0.252, 192.0, 0.0, 0.0, 0.0, 0.0, 0.0, 0.0, 0.0, 0.0, 0.0, 1.7074741592867053E9, 0.0, 2024-02-09 11:22:39.286
164.0, -18294.679319224277, -7315.323628821806, 13658.592243026764, -3648.631709650959, 45441.6776229951, 16023.451509887162, 32696.15414096763, 7211.097444426709, 27202.14005734206, 5033.121112957134, 38682.44304447687, 27246.955304974952, 38603.40727608291, 32628.048375612307, 26823.657968480347, 24402.98639571505, 0.066, 1.0, 0.252, 192.0, 0.0, 0.0, 0.0, 0.0, 0.0, 0.0, 0.0, 0.0, 0.0, 1.707474159294728E9, 0.0, 2024-02-09 11:22:39.294
166.0, -18459.27756539316, -7517.62926788679, 13577.097782742714, -3630.504444897705, 45128.9543663209, 15941.800587391925, 32511.305214322238, 7088.788698767269, 27204.91167365452, 4977.062937863224, 38801.443731956926, 27213.58415050318, 38892.43768363448, 32666.582783053254, 26883.404181409383, 24520.243647127587, 0.062, 1.0, 0.252, 192.0, 0.5, 120.0, 15.5, 32.0, 3.5, 112.0, 0.0, 0.0, 0.0, 1.7074741593029351E9, 0.0, 2024-02-09 11:22:39.302
168.0, -18418.060948617574, -7455.7596392345, 13646.544652765353, -3636.0700292670763, 45226.6761930795, 15992.807268238936, 32585.423598936035, 7124.417379429028, 26962.171728869886, 4899.502384603308, 38400.74400910664, 27148.47351890487, 38313.77337143104, 32466.489966689347, 26692.721449461158, 24279.783580277395, 0.062, 1.0, 0.252, 192.0, 0.0, 0.0, 0.0, 0.0, 0.0, 0.0, 0.0, 0.0, 0.0, 1.7074741593109376E9, 0.0, 2024-02-09 11:22:39.310
170.0, -18445.151262897405, -7493.958770508621, 13620.97425710848, -3638.372258945973, 45389.6651136476, 16002.798498010457, 32687.213443185505, 7210.091615926221, 27286.87552057213, 4985.131917611589, 38884.279296908295, 27239.53452581579, 38930.81562886425, 32726.28429249338, 26954.460377032803, 24554.017132999557, 0.062, 1.0, 0.252, 192.0, 0.0, 0.0, 0.0, 0.0, 0.0, 0.0, 0.0, 0.0, 0.0, 1.7074741593187368E9, 0.0, 2024-02-09 11:22:39.318
172.0, -18498.683690867867, -7576.660224993257, 13588.385413692644, -3635.444180422328, 45041.44728677837, 15930.088273297344, 32499.078810105184, 7047.102695358121, 26974.867519720498, 4858.419878294454, 38479.24333563368, 27124.110117448585, 38495.20248117477, 32495.10019959214, 26744.33162740846, 24357.14296783721, 0.062, 1.0, 0.252, 192.0, 0.0, 0.0, 0.0, 0.0, 0.0, 0.0, 0.0, 0.0, 0.0, 1.7074741593267703E9, 0.0, 2024-02-09 11:22:39.326
174.0, -18403.73348042172, -7456.184322379151, 13651.596147012253, -3666.8483813820344, 45449.23251262099, 16009.481669602594, 32712.04623127535, 7211.186851404531, 27154.642600374533, 4915.416826655487, 38641.31583467911, 27185.890339123052, 38580.76495894968, 32580.97560178943, 26824.395576047373, 24385.97671818456, 0.062, 1.0, 0.252, 192.0, 0.0, 0.0, 0.0, 0.0, 0.0, 0.0, 0.0, 0.0, 0.0, 1.7074741593347821E9, 0.0, 2024-02-09 11:22:39.334
176.0, -18497.588455389556, -7589.735995499611, 13576.49428564242, -3651.1351050299536, 45142.633633927544, 15925.014427305989, 32517.429592302993, 7072.851904970635, 27185.644469934046, 4892.238067655333, 38782.57885963665, 27165.013809801796, 38880.03246546179, 32626.483753500434, 26881.727800575234, 24503.859818441848, 0.062, 0.996, 0.25, 192.0, 0.5, 120.0, 15.5, 16.0, 3.5, 104.0, 0.0, 0.0, 0.0, 1.7074741593428035E9, 0.0, 2024-02-09 11:22:39.342
178.0, -18411.377777025435, -7486.873267516287, 13637.514548005409, -3667.1836575488637, 45229.49251288087, 15972.042497639955, 32577.376970932124, 7100.16573669502, 26981.215415145805, 4849.725049701339, 38403.91795681929, 27119.03627145723, 38316.52263599904, 32441.746585577323, 26683.065495856466, 24255.509585798933, 0.062, 0.996, 0.25, 192.0, 0.0, 0.0, 0.0, 0.0, 0.0, 0.0, 0.0, 0.0, 0.0, 1.7074741593508365E9, 0.0, 2024-02-09 11:22:39.350
180.0, -18424.02886438714, -7502.29597119045, 13619.007303596414, -3664.8367243810567, 45393.397854971634, 15984.201846623642, 32667.74507376493, 7173.680624208525, 27302.231169012925, 4935.35458270962, 38886.64858182056, 27208.689118467468, 38942.8408673812, 32690.5662048538, 26930.722824421267, 24519.014301182546, 0.062, 0.996, 0.25, 192.0, 0.0, 0.0, 0.0, 0.0, 0.0, 0.0, 0.0, 0.0, 0.0, 1.707474159357889E9, 0.0, 2024-02-09 11:22:39.357
182.0, -18453.734332768243, -7545.948928111664, 13591.916989316582, -3646.1059625275093, 45042.386060045494, 15925.260296494997, 32468.702789390423, 7030.204776549909, 27013.06665099462, 4835.19641580539, 38502.24328067819, 27109.8497044861, 38517.2413012077, 32474.76011213781, 26720.996406197122, 24336.132328049225, 0.062, 0.996, 0.25, 192.0, 0.0, 0.0, 0.0, 0.0, 0.0, 0.0, 0.0, 0.0, 0.0, 1.7074741593672097E9, 0.0, 2024-02-09 11:22:39.367
184.0, -18350.849253040466, -7415.884127126233, 13656.17825462559, -3673.1068698295203, 45439.64361424966, 16000.384509609285, 32683.391294883648, 7172.4736300079385, 27183.00696408832, 4918.434312156954, 38657.23027673129, 27184.772751900287, 38599.78629348115, 32583.344886701692, 26806.87180839441, 24367.64828773121, 0.062, 0.996, 0.25, 192.0, 0.0, 0.0, 0.0, 0.0, 0.0, 0.0, 0.0, 0.0, 0.0, 1.7074741593749232E9, 0.0, 2024-02-09 11:22:39.374
186.0, -18430.712035979275, -7527.955773825142, 13572.716840829473, -3649.2799102401627, 45133.64823265651, 15936.43616872265, 32517.139019625072, 7075.221189882897, 27223.15069713005, 4909.538317863741, 38811.39025823954, 27173.395713972535, 38906.22870996341, 32645.527439776357, 26874.776408049634, 24497.51192301654, 0.058, 1.004, 0.256, 192.0, 0.5, 104.0, 15.5, 48.0, 4.0, 0.0, 0.0, 0.0, 0.0, 1.707474159381909E9, 0.0, 2024-02-09 11:22:39.381
188.0, -18351.363343162935, -7425.562432475381, 13635.525242748887, -3650.15162827392, 45219.76950404281, 15985.49824780205, 32580.327401200226, 7117.26482120333, 27009.356261415036, 4871.473297056353, 38425.688555918765, 27131.441489629924, 38332.213560606666, 32455.60466713961, 26680.584452221927, 24265.09848417026, 0.058, 1.004, 0.256, 192.0, 0.0, 0.0, 0.0, 0.0, 0.0, 0.0, 0.0, 0.0, 0.0, 1.7074741593899384E9, 0.0, 2024-02-09 11:22:39.389
190.0, -18342.48970061418, -7412.129034057741, 13625.489309488454, -3635.1983112333196, 45387.184070013056, 16000.026881697999, 32653.41760556908, 7177.927455655034, 27337.74809095241, 4982.539115254774, 38915.124704256625, 27242.373197361612, 38952.96620761946, 32714.5719783988, 26931.907466877397, 24534.414653112253, 0.058, 1.004, 0.256, 192.0, 0.0, 0.0, 0.0, 0.0, 0.0, 0.0, 0.0, 0.0, 0.0, 1.707474159398929E9, 0.0, 2024-02-09 11:22:39.398
192.0, -18376.173779508328, -7465.862627728299, 13606.669140657084, -3620.2226424482637, 45052.734917728296, 15943.834596137358, 32490.786312912267, 7035.032753352256, 27042.526250186715, 4886.046634441213, 38533.73688861572, 27146.595972370622, 38533.53572291562, 32498.318850793705, 26734.92154299278, 24355.10895909178, 0.058, 1.004, 0.256, 192.0, 0.0, 0.0, 0.0, 0.0, 0.0, 0.0, 0.0, 0.0, 0.0, 1.7074741594069011E9, 0.0, 2024-02-09 11:22:39.406
194.0, -18270.181807301262, -7326.387742327183, 13679.625234559207, -3644.7872096046463, 45452.78643998938, 16025.88785003279, 32680.776140782375, 7198.915743698567, 27223.262455852328, 4975.297150051254, 38693.909489382444, 27229.20801987744, 38617.48887508975, 32605.07078231225, 26831.995169162175, 24391.899930465213, 0.058, 1.004, 0.256, 192.0, 0.0, 0.0, 0.0, 0.0, 0.0, 0.0, 0.0, 0.0, 0.0, 1.7074741594139545E9, 0.0, 2024-02-09 11:22:39.413
196.0, -18367.72482010422, -7458.598310780324, 13598.086070786247, -3634.6842211108474, 45153.809506155194, 15941.48766296955, 32526.839676718675, 7073.030718926278, 27263.048560982774, 4956.02994633078, 38845.36490981161, 27211.438383035467, 38925.60767240616, 32658.402044582614, 26896.41289668237, 24510.163010378245, 0.058, 1.002, 0.254, 192.0, 0.5, 104.0, 15.5, 40.0, 3.5, 120.0, 0.0, 0.0, 0.0, 1.7074741594231176E9, 0.0, 2024-02-09 11:22:39.423
198.0, -18297.920322170296, -7368.207856203063, 13657.2734901039, -3644.4519334378165, 45233.24760594936, 15983.73245999008, 32585.043619280295, 7102.512669862827, 27033.20557274885, 4908.219564940878, 38456.53396326709, 27162.398655700526, 38346.67513926925, 32457.169289251484, 26705.126667633853, 24270.37349586171, 0.058, 1.002, 0.254, 192.0, 0.0, 0.0, 0.0, 0.0, 0.0, 0.0, 0.0, 0.0, 0.0, 1.7074741594309864E9, 0.0, 2024-02-09 11:22:39.430
200.0, -18317.455746824235, -7382.870600565744, 13632.395998525144, -3647.3800119614616, 45397.01883757339, 15991.712032760624, 32649.5060502894, 7167.913874139056, 27356.300038850313, 5005.159080643544, 38941.63387318062, 27263.92027901653, 38955.78252742082, 32724.160876770125, 26945.877307161965, 24527.15033616428, 0.058, 1.002, 0.254, 192.0, 0.0, 0.0, 0.0, 0.0, 0.0, 0.0, 0.0, 0.0, 0.0, 1.7074741594379704E9, 0.0, 2024-02-09 11:22:39.437
202.0, -18374.96678530774, -7459.559435791903, 13603.986931322448, -3629.1186367414757, 45054.52305728472, 15936.838500122847, 32491.412161757013, 7035.636250452549, 27048.49416595628, 4889.980541465347, 38548.801964378596, 27155.737835852844, 38532.999281048695, 32504.91261540802, 26741.694121562734, 24347.464662488066, 0.058, 1.002, 0.254, 192.0, 0.0, 0.0, 0.0, 0.0, 0.0, 0.0, 0.0, 0.0, 0.0, 1.70747415944599E9, 0.0, 2024-02-09 11:22:39.445
204.0, -18299.060261137518, -7350.304108894362, 13661.296804105856, -3649.458724195805, 45449.03134692089, 16023.272695931519, 32699.216329958002, 7192.277275595341, 27211.81836269121, 4965.261216790822, 38689.37208525802, 27227.464583809924, 38604.18958713885, 32597.20296826398, 26826.675453981814, 24378.31006983639, 0.058, 1.002, 0.254, 192.0, 0.0, 0.0, 0.0, 0.0, 0.0, 0.0, 0.0, 0.0, 0.0, 1.707474159455006E9, 0.0, 2024-02-09 11:22:39.455
206.0, -18430.533222023634, -7511.840166072866, 13570.168741961568, -3635.801808333613, 45149.339157264134, 15942.269974025487, 32514.099182379152, 7072.248407870342, 27246.30710438575, 4930.101922762624, 38831.17155208249, 27202.251816064338, 38923.908939827554, 32654.60224802521, 26884.342954676504, 24505.357385320352, 0.062, 0.996, 0.256, 192.0, 0.5, 120.0, 15.5, 16.0, 4.0, 0.0, 0.0, 0.0, 0.0, 1.7074741594629936E9, 0.0, 2024-02-09 11:22:39.462
208.0, -18408.181477568327, -7461.839313726344, 13629.713789190506, -3640.5850816470484, 45223.18932094447, 15988.336919347874, 32571.453758651467, 7107.675922832003, 26996.839284520065, 4875.876590714049, 38427.45434373073, 27142.237382201838, 38337.68973799822, 32462.086673031652, 26686.7982371805, 24267.199548149056, 0.062, 0.996, 0.256, 192.0, 0.0, 0.0, 0.0, 0.0, 0.0, 0.0, 0.0, 0.0, 0.0, 1.7074741594700193E9, 0.0, 2024-02-09 11:22:39.470
210.0, -18465.871330007474, -7514.947058552153, 13609.418405225088, -3648.2964334841295, 45390.402721214625, 15993.20959963913, 32654.401082325112, 7170.327862540229, 27306.25448301488, 4959.136838810067, 38892.4823871234, 27221.273150595804, 38944.65135868208, 32710.883940563675, 26929.76169940969, 24523.641112284793, 0.062, 0.996, 0.256, 192.0, 0.0, 0.0, 0.0, 0.0, 0.0, 0.0, 0.0, 0.0, 0.0, 1.7074741594780543E9, 0.0, 2024-02-09 11:22:39.478
212.0, -18560.173339864414, -7622.324838915449, 13570.459314639487, -3646.9329770723557, 45041.268472822725, 15930.669418653182, 32482.56087095271, 7037.022058608778, 26971.805330730123, 4845.76879093275, 38488.51930958263, 27103.993547438808, 38515.83314130702, 32496.35189728164, 26730.38413886835, 24345.25183978699, 0.062, 0.996, 0.256, 192.0, 0.0, 0.0, 0.0, 0.0, 0.0, 0.0, 0.0, 0.0, 0.0, 1.707474159487036E9, 0.0, 2024-02-09 11:22:39.487
214.0, -18480.712888325797, -7507.772148582, 13634.65352471513, -3672.659834940414, 45437.2743293374, 16026.558402366449, 32686.766408296397, 7216.707732284991, 27113.291873132217, 4913.651038843517, 38608.771694752184, 27159.247059732326, 38562.97297036326, 32587.278793725825, 26808.145857828364, 24368.520005764964, 0.062, 0.996, 0.256, 192.0, 0.0, 0.0, 0.0, 0.0, 0.0, 0.0, 0.0, 0.0, 0.0, 1.7074741594942942E9, 0.0, 2024-02-09 11:22:39.494
216.0, -18583.91089247595, -7651.002127051607, 13553.673154553551, -3661.2604452682076, 45149.04858458621, 15940.414779235696, 32530.10303140915, 7091.090928446166, 27149.389940427536, 4887.790070508727, 38762.506993115785, 27134.9060100205, 38888.190852187974, 32654.93752419204, 26871.55775684807, 24499.702393973163, 0.06, 1.0, 0.254, 192.0, 0.5, 112.0, 15.5, 32.0, 3.5, 120.0, 0.0, 0.0, 0.0, 1.7074741595020485E9, 0.0, 2024-02-09 11:22:39.502
218.0, -18506.506801427222, -7547.3794397568045, 13623.097672831736, -3667.340119760051, 45227.927890768995, 15984.470067557106, 32597.73941013091, 7125.60202188516, 26925.17959179635, 4838.459770495864, 38370.815023280986, 27083.9440326624, 38312.27580455253, 32460.52205091978, 26684.026620868044, 24258.41531257812, 0.06, 1.0, 0.254, 192.0, 0.0, 0.0, 0.0, 0.0, 0.0, 0.0, 0.0, 0.0, 0.0, 1.7074741595110683E9, 0.0, 2024-02-09 11:22:39.511
220.0, -18507.400871205435, -7551.626271203312, 13605.97623657897, -3677.398404764939, 45401.9138696091, 15984.224198368098, 32659.27376261637, 7183.694205724502, 27257.01358997984, 4944.898777592037, 38855.199677371944, 27183.722219910887, 38931.21796026444, 32710.258091718926, 26922.273865017163, 24507.41374581024, 0.06, 1.0, 0.254, 192.0, 0.0, 0.0, 0.0, 0.0, 0.0, 0.0, 0.0, 0.0, 0.0, 1.707474159519065E9, 0.0, 2024-02-09 11:22:39.519
222.0, -18533.775929662697, -7594.049882179485, 13582.596311878719, -3653.9290730868665, 45052.71256598384, 15930.401197719719, 32478.89518486204, 7049.58373899266, 26966.262098105206, 4837.9680321178475, 38484.02660894711, 27087.22973909733, 38524.61737687795, 32499.883472905574, 26724.840906243433, 24334.05361581488, 0.06, 1.0, 0.254, 192.0, 0.0, 0.0, 0.0, 0.0, 0.0, 0.0, 0.0, 0.0, 0.0, 1.7074741595261447E9, 0.0, 2024-02-09 11:22:39.526
224.0, -18425.660541732377, -7449.18822636464, 13650.344449322754, -3670.826991895079, 45450.9759486885, 16022.803309297957, 32688.37573389718, 7214.874889239656, 27136.962370510384, 4932.001821041325, 38626.20605542732, 27168.32186798118, 38567.935057632334, 32595.54893917429, 26801.775610658602, 24359.311087049377, 0.06, 1.0, 0.254, 192.0, 0.0, 0.0, 0.0, 0.0, 0.0, 0.0, 0.0, 0.0, 0.0, 1.707474159534174E9, 0.0, 2024-02-09 11:22:39.534
226.0, -18508.227885750282, -7562.399812030771, 13563.932605258538, -3650.5763114185706, 45158.83864865764, 15935.139767544242, 32513.473333534403, 7073.522457304294, 27185.890339123052, 4917.964925523392, 38794.42528419796, 27164.03033304576, 38905.28993669629, 32660.36899809468, 26879.447922640793, 24498.853027683857, 0.058, 0.998, 0.258, 192.0, 0.5, 104.0, 15.5, 24.0, 4.0, 8.0, 0.0, 0.0, 0.0, 1.7074741595434115E9, 0.0, 2024-02-09 11:22:39.543
228.0, -18418.955018395784, -7448.562377519892, 13632.50775724742, -3643.1331805149534, 45235.86276005063, 15991.712032760624, 32577.332267443213, 7111.967457767422, 26959.869499190987, 4878.558800048685, 38396.13954974885, 27123.573675581658, 38322.46820002415, 32472.927269092474, 26680.51739698856, 24253.90026019815, 0.058, 0.998, 0.258, 192.0, 0.0, 0.0, 0.0, 0.0, 0.0, 0.0, 0.0, 0.0, 0.0, 1.7074741595501516E9, 0.0, 2024-02-09 11:22:39.550
230.0, -18403.956997866273, -7431.128016844752, 13630.563155479807, -3640.2945089691293, 45424.936166398074, 16005.50305908955, 32674.74116977944, 7195.607685519181, 27294.855093342674, 4994.296132838265, 38893.82349179071, 27233.76777574632, 38936.090640555696, 32730.218199517516, 26936.33311227955, 24526.032748941514, 0.058, 0.998, 0.258, 192.0, 0.0, 0.0, 0.0, 0.0, 0.0, 0.0, 0.0, 0.0, 0.0, 1.7074741595583267E9, 0.0, 2024-02-09 11:22:39.558
232.0, -18442.759626240688, -7486.962674494109, 13608.189059280046, -3618.233337191741, 45069.00698769176, 15945.39921824923, 32499.279975805282, 7047.3262128026745, 27006.517589869214, 4899.323570647665, 38523.09745825499, 27141.119794979073, 38534.83212409403, 32518.502476036847, 26746.67856057627, 24356.807691670383, 0.058, 0.998, 0.258, 192.0, 0.0, 0.0, 0.0, 0.0, 0.0, 0.0, 0.0, 0.0, 0.0, 1.7074741595664716E9, 0.0, 2024-02-09 11:22:39.566
234.0, -18329.27981964109, -7337.362448854738, 13677.99355721397, -3641.8144275920904, 45467.13625992969, 16030.089977990387, 32705.5195218944, 7220.775749775858, 27164.410312701504, 4986.383615301087, 38652.402299928945, 27216.91456042702, 38583.603630495505, 32610.5469597038, 26826.340177814982, 24377.036020402436, 0.058, 0.998, 0.258, 192.0, 0.0, 0.0, 0.0, 0.0, 0.0, 0.0, 0.0, 0.0, 0.0, 1.70747415957418E9, 0.0, 2024-02-09 11:22:39.574
236.0, -18415.579904983035, -7459.224159625073, 13605.305684245312, -3620.468511637272, 45184.61021001461, 15955.010468365012, 32529.566589542224, 7114.336742679685, 27219.127383128096, 4972.346719783154, 38829.58457822616, 27215.372290059604, 38932.69317539849, 32686.02880072937, 26909.779239866646, 24525.406900096765, 0.062, 1.002, 0.258, 192.0, 1.0, 8.0, 15.5, 56.0, 4.0, 8.0, 0.0, 0.0, 0.0, 1.7074741595822003E9, 0.0, 2024-02-09 11:22:39.582
238.0, -18336.030046466596, -7360.74237355499, 13659.352202338243, -3634.3265931995625, 45243.462353165436, 15987.599311780848, 32589.290450726803, 7120.215251471431, 26991.273700150694, 4936.293355976743, 38429.28718677607, 27171.42876046047, 38344.59642703491, 32491.680382690476, 26700.253987342596, 24272.18398716259, 0.062, 1.002, 0.258, 192.0, 0.0, 0.0, 0.0, 0.0, 0.0, 0.0, 0.0, 0.0, 0.0, 1.7074741595902264E9, 0.0, 2024-02-09 11:22:39.590
240.0, -18331.58204931999, -7358.082515964808, 13641.850786429739, -3638.752238601713, 45417.314221538814, 16002.753794521546, 32660.145480650128, 7188.90216218259, 27324.962893123975, 5039.580767104718, 38915.37057344563, 27268.6364970966, 38952.25095179689, 32739.650635677655, 26935.550801223613, 24521.294179116987, 0.062, 1.002, 0.258, 192.0, 0.0, 0.0, 0.0, 0.0, 0.0, 0.0, 0.0, 0.0, 0.0, 1.7074741595992615E9, 0.0, 2024-02-09 11:22:39.599
242.0, -18378.297195231582, -7425.607135964291, 13600.611817909697, -3621.116712226476, 45048.957472915354, 15950.785988662958, 32472.65904815901, 7063.799448466236, 27033.317331471128, 4943.848245602638, 38547.349100989, 27173.060437805707, 38546.72325214425, 32528.784278486288, 26740.554182595515, 24358.931107393637, 0.062, 1.002, 0.258, 192.0, 0.0, 0.0, 0.0, 0.0, 0.0, 0.0, 0.0, 0.0, 0.0, 1.7074741596062496E9, 0.0, 2024-02-09 11:22:39.606
244.0, -18280.62007196189, -7293.01658785541, 13663.777847740395, -3643.9378433153447, 45446.14797188616, 16046.138530509297, 32690.81207404281, 7229.448226624517, 27185.398600745037, 5017.609002305151, 38663.39935820095, 27238.260476381838, 38574.104139102004, 32618.124201074148, 26812.482096252694, 24379.941747181627, 0.062, 1.002, 0.258, 192.0, 0.0, 0.0, 0.0, 0.0, 0.0, 0.0, 0.0, 0.0, 0.0, 1.707474159614238E9, 0.0, 2024-02-09 11:22:39.614
246.0, -18369.848235827474, -7413.291324769417, 13588.675986370563, -3624.4247704058616, 45172.495564519835, 15967.885073171268, 32549.996083974373, 7107.653571087548, 27238.68515952649, 5002.0298364198015, 38833.89846490604, 27224.558857030734, 38916.53286415731, 32686.27466991838, 26903.923082819354, 24529.743138521095, 0.065, 1.0030000000000001, 0.257, 192.0, 1.0, 16.0, 15.5, 48.0, 4.0, 0.0, 0.0, 0.0, 0.0, 1.7074741596224616E9, 0.0, 2024-02-09 11:22:39.622
248.0, -18293.695842468245, -7315.725960222002, 13647.751646965939, -3624.245956450219, 45229.76073381433, 16012.83443127089, 32601.628613666133, 7147.886711107101, 27007.29990092515, 4959.785039399271, 38436.95383512424, 27181.665859421, 38326.044479137, 32487.992344855353, 26700.455153042694, 24283.695135557075, 0.065, 1.0030000000000001, 0.257, 192.0, 0.0, 0.0, 0.0, 0.0, 0.0, 0.0, 0.0, 0.0, 0.0, 1.7074741596302783E9, 0.0, 2024-02-09 11:22:39.630
250.0, -18286.18565633126, -7313.334323565284, 13636.93340264957, -3624.245956450219, 45417.85066340574, 16029.330018678907, 32684.24066117295, 7230.007020235899, 27345.45944278949, 5065.7770116063375, 38923.774829360824, 27292.30699447477, 38940.69509991349, 32752.324074783814, 26951.062911875597, 24546.372836395843, 0.065, 1.0030000000000001, 0.257, 192.0, 0.0, 0.0, 0.0, 0.0, 0.0, 0.0, 0.0, 0.0, 0.0, 1.7074741596382933E9, 0.0, 2024-02-09 11:22:39.638
252.0, -18336.92411624481, -7385.418699433649, 13606.579733679264, -3609.024418476155, 45062.70379575536, 15956.508035243516, 32507.840693931663, 7065.58758802266, 27057.010180593752, 4963.383670256576, 38558.793194150116, 27199.23433056287, 38550.455993468284, 32548.476165351414, 26755.39574091384, 24379.78528497044, 0.065, 1.0030000000000001, 0.257, 192.0, 0.0, 0.0, 0.0, 0.0, 0.0, 0.0, 0.0, 0.0, 0.0, 1.7074741596463032E9, 0.0, 2024-02-09 11:22:39.646
254.0, -18233.726112094657, -7248.29074720034, 13682.888589249682, -3624.67063959487, 45471.561905331844, 16056.08505679191, 32743.293970023868, 7251.442343168538, 27206.163371344017, 5046.755677074871, 38676.20690777384, 27274.604412866167, 38593.99719166722, 32626.41669826707, 26835.347930830474, 24393.039869432436, 0.065, 1.0030000000000001, 0.257, 192.0, 0.0, 0.0, 0.0, 0.0, 0.0, 0.0, 0.0, 0.0, 0.0, 1.7074741596553204E9, 0.0, 2024-02-09 11:22:39.655
0.0, -18334.554831332545, -7386.111603511764, 13595.292102729334, -3619.216813947775, 45183.47027104739, 15969.360288305317, 32570.850261551175, 7119.947030537967, 27265.484901128402, 5032.897595512581, 38862.93338095348, 27269.329401174713, 38950.976902362934, 32699.37279216919, 26921.200981283306, 24541.27663866003, 0.0635, 1.0025, 0.2565, 192.0, 0.5, 120.0, 15.5, 40.0, 4.0, 0.0, 0.0, 0.0, 0.0, 1.707474159662322E9, 0.0, 2024-02-09 11:22:39.662
2.0, -18263.38687698685, -7297.866916402211, 13656.84880695925, -3622.1672442158756, 45235.058097250236, 16008.609951568837, 32611.418677737558, 7130.027667287311, 27028.534058157693, 4981.7791559432935, 38455.84105918897, 27216.221656348906, 38360.242648153624, 32485.019562842797, 26704.67963274475, 24282.15286518966, 0.0635, 1.0025, 0.2565, 192.0, 0.0, 0.0, 0.0, 0.0, 0.0, 0.0, 0.0, 0.0, 0.0, 1.7074741596713464E9, 0.0, 2024-02-09 11:22:39.671
4.0, -18279.636595205855, -7310.49565201946, 13642.767207952405, -3621.563747115582, 45423.259785563925, 16026.826623299912, 32684.531233850867, 7211.700941527002, 27361.59740228622, 5087.324093261253, 38939.75632664637, 27324.940541379518, 38967.696007215505, 32752.547592228366, 26950.28060081966, 24536.895696746793, 0.0635, 1.0025, 0.2565, 192.0, 0.0, 0.0, 0.0, 0.0, 0.0, 0.0, 0.0, 0.0, 0.0, 1.7074741596783178E9, 0.0, 2024-02-09 11:22:39.678
6.0, -18368.373020693423, -7416.957010860087, 13594.330977717755, -3616.66871507987, 45040.977900144804, 15947.857910139313, 32469.23923125735, 7027.0755323261665, 27057.77013990523, 4979.298112308755, 38559.68726392833, 27216.199304604448, 38577.21103158129, 32538.7308047689, 26749.29371467754, 24369.279965076443, 0.0635, 1.0025, 0.2565, 192.0, 0.0, 0.0, 0.0, 0.0, 0.0, 0.0, 0.0, 0.0, 0.0, 1.707474159686494E9, 0.0, 2024-02-09 11:22:39.686
8.0, -18318.930961958285, -7332.176844141108, 13657.675821504095, -3636.405305433906, 45436.33555607028, 16041.824643829423, 32689.605079842222, 7211.946810716011, 27179.7659611423, 5038.351421159676, 38651.32941619509, 27270.87167154213, 38590.935002676844, 32617.476000484945, 26805.061317093532, 24370.68812497713, 0.0635, 1.0025, 0.2565, 192.0, 0.0, 0.0, 0.0, 0.0, 0.0, 0.0, 0.0, 0.0, 0.0, 1.7074741596945257E9, 0.0, 2024-02-09 11:22:39.694
10.0, -18486.814914562096, -7532.023791316008, 13566.704221570995, -3629.7668373306797, 45155.66470094499, 15957.424456766184, 32532.807592488243, 7103.07146347421, 27209.136153356572, 5004.8461562211705, 38813.20074954042, 27240.853278738654, 38935.598902177684, 32694.14248396665, 26895.630585626437, 24522.65763552876, 0.06275, 1.00225, 0.25725, 192.0, 0.5, 120.0, 15.5, 40.0, 4.0, 8.0, 0.0, 0.0, 0.0, 1.7074741597023592E9, 0.0, 2024-02-09 11:22:39.702
