%OpenBCI Raw EXG Data
%Number of channels = 16
%Sample Rate = 125 Hz
%Board = OpenBCI_GUI$BoardCytonSerialDaisy
Sample Index, EXG Channel 0, EXG Channel 1, EXG Channel 2, EXG Channel 3, EXG Channel 4, EXG Channel 5, EXG Channel 6, EXG Channel 7, EXG Channel 8, EXG Channel 9, EXG Channel 10, EXG Channel 11, EXG Channel 12, EXG Channel 13, EXG Channel 14, EXG Channel 15, Accel Channel 0, Accel Channel 1, Accel Channel 2, Other, Other, Other, Other, Other, Other, Other, Analog Channel 0, Analog Channel 1, Analog Channel 2, Timestamp, Other, Timestamp (Formatted)
0.0, -18501.343548458048, -7079.4903730738615, 12533.33837191324, -4236.303774869893, 44599.28507796348, 15294.3599574995, 31748.551934784882, 6063.178904435505, 0.0, 0.0, 0.0, 0.0, 0.0, 0.0, 0.0, 0.0, 0.0, 0.0, 0.0, 192.0, 0.0, 0.0, 0.0, 0.0, 0.0, 0.0, 0.0, 0.0, 0.0, 1.7074741214360125E9, 0.0, 2024-02-09 11:22:01.436
40.0, -18436.769358726666, -6975.957092756879, 12584.546218460348, -4254.900426256708, 44984.495041906244, 15361.214025165324, 31945.22493424713, 6202.050292736327, 25757.300944006558, 4826.85921512356, 38617.53357857867, 26638.362006945852, 37917.94632887201, 31785.208795691586, 26652.42125420824, 24495.187341593188, 0.0, 0.0, 0.0, 192.0, 0.0, 0.0, 0.0, 0.0, 0.0, 0.0, 0.0, 0.0, 0.0, 1.7074741214360895E9, 0.0, 2024-02-09 11:22:01.436
0.0, -9261.445315056482, -3669.955273861322, 6447.852426511339, -1974.1507737816303, 22364.28378394649, 7753.887206779386, 16052.195853256686, 3305.241859584077, 12790.070508726896, 2371.207162285705, 19244.18142368572, 13277.852627975062, 18946.925574174595, 15839.898984420179, 13289.766107769741, 12239.815263726148, 0.053, 0.495, 0.11800000000000001, 192.0, 1.5, 40.0, 15.0, 120.0, 3.5, 48.0, 0.0, 0.0, 0.0, 1.7074741215281656E9, 0.0, 2024-02-09 11:22:01.528
2.0, -18453.779036257154, -7250.704735601514, 12957.529778186057, -3952.25780633185, 44819.6285748039, 15558.46816998341, 32179.895899283398, 6650.940376632259, 26092.53240734725, 4829.921404113938, 38355.16880216227, 26852.290553127594, 37969.735320774955, 31928.66229160575, 26479.1505311907, 24362.619145228764, 0.053, 0.495, 0.11800000000000001, 192.0, 0.0, 0.0, 0.0, 0.0, 0.0, 0.0, 0.0, 0.0, 0.0, 1.7074741215341833E9, 0.0, 2024-02-09 11:22:01.534
4.0, -18438.333980838535, -7225.268450411374, 12957.462722952692, -3976.040062432297, 45102.53460437472, 15591.816972710727, 32299.410676885927, 6728.970316525736, 26406.59676868877, 4937.477998432875, 38798.49330168883, 26958.975429412774, 38495.157777685854, 32176.14080621491, 26707.13832463483, 24588.908206094293, 0.053, 0.495, 0.11800000000000001, 192.0, 0.0, 0.0, 0.0, 0.0, 0.0, 0.0, 0.0, 0.0, 0.0, 1.7074741215411675E9, 0.0, 2024-02-09 11:22:01.541
6.0, -18516.453327709834, -7338.725905266512, 12899.303483879983, -3961.1761523695177, 44706.260526926584, 15509.920181026482, 32093.372296496906, 6589.428375891254, 26166.002591371845, 4834.52586347173, 38528.68539436882, 26854.235154895207, 38272.512051166545, 32012.816609479978, 26550.54200298095, 24480.88222514179, 0.053, 0.495, 0.11800000000000001, 192.0, 0.0, 0.0, 0.0, 0.0, 0.0, 0.0, 0.0, 0.0, 0.0, 1.7074741215502996E9, 0.0, 2024-02-09 11:22:01.550
8.0, -18434.98121917024, -7223.837938766234, 12977.288720284549, -3983.6620072915566, 45070.079871425616, 15599.215400125433, 32310.273624691206, 6755.591244172007, 26214.885856495603, 4878.0000064373025, 38499.359905643454, 26893.08248675853, 38104.87396775174, 32024.52892357456, 26554.297096049442, 24410.138953940746, 0.1, 0.994, 0.256, 192.0, 1.5, 16.0, 15.5, 8.0, 4.0, 0.0, 0.0, 0.0, 0.0, 1.7074741215571868E9, 0.0, 2024-02-09 11:22:01.557
10.0, -18553.847796183563, -7371.9853010160095, 12901.27043739205, -3975.704786265467, 44894.12693907344, 15544.051294809735, 32168.474157866738, 6683.685682259284, 26350.002151727935, 4884.4596605848865, 38805.37763898107, 26903.788972352624, 38592.05258989961, 32165.926058998833, 26704.43376355574, 24624.15690710031, 0.1, 0.994, 0.256, 192.0, 0.0, 0.0, 0.0, 0.0, 0.0, 0.0, 0.0, 0.0, 0.0, 1.7074741215651975E9, 0.0, 2024-02-09 11:22:01.565
12.0, -18567.77293297922, -7373.88519929471, 12937.256745965095, -3977.4035188440707, 44818.399228858856, 15571.789809678772, 32139.46159356375, 6676.331958333488, 26033.300284540688, 4783.094499480069, 38314.89095865381, 26802.133238569884, 37947.87531469767, 31913.999547243067, 26455.32357160134, 24348.53754622192, 0.1, 0.994, 0.256, 192.0, 0.0, 0.0, 0.0, 0.0, 0.0, 0.0, 0.0, 0.0, 0.0, 1.7074741215742023E9, 0.0, 2024-02-09 11:22:01.574
14.0, -18606.486154375812, -7398.293304239906, 12948.544376915024, -3986.0536439482744, 45120.125427261046, 15623.578801581718, 32302.96460425432, 6807.1567186304, 26333.350102108732, 4866.354747576088, 38741.13872541651, 26889.685021601323, 38459.55144876855, 32161.94744848579, 26689.03341162603, 24579.319307722966, 0.1, 0.994, 0.256, 192.0, 0.0, 0.0, 0.0, 0.0, 0.0, 0.0, 0.0, 0.0, 0.0, 1.7074741215812232E9, 0.0, 2024-02-09 11:22:01.581
16.0, -18740.86484204112, -7562.9362538976975, 12889.960454697664, -3972.2849693638054, 44725.37126843587, 15544.811254121216, 32086.35384873794, 6627.873376354382, 26072.862872226582, 4749.253958374734, 38465.98875117168, 26777.88159583588, 38234.4246786147, 32010.62613852336, 26554.475910005083, 24493.868588670324, 0.1, 0.994, 0.256, 192.0, 0.0, 0.0, 0.0, 0.0, 0.0, 0.0, 0.0, 0.0, 0.0, 1.7074741215895767E9, 0.0, 2024-02-09 11:22:01.589
18.0, -18690.238140849848, -7478.089031945352, 12962.313051499494, -4000.135242955118, 45077.12067092904, 15632.76536855285, 32286.62547905749, 6803.647494750917, 26096.108686460102, 4774.2208569313125, 38407.38247720987, 26798.78047690159, 38050.46982174752, 32014.1577141473, 26544.618790700293, 24419.0125964895, 0.08600000000000001, 1.012, 0.264, 192.0, 1.0, 88.0, 15.5, 80.0, 4.0, 32.0, 0.0, 0.0, 0.0, 1.7074741215972784E9, 0.0, 2024-02-09 11:22:01.597
20.0, -18786.66356643004, -7603.862297995365, 12888.328777352426, -3988.355873627171, 44900.94422113231, 15548.521643700797, 32164.36143688696, 6688.670121272818, 26229.839173536206, 4776.120755210013, 38713.154341358466, 26809.30814854004, 38544.68924339882, 32154.280800137618, 26701.975071665656, 24632.02472114858, 0.08600000000000001, 1.012, 0.264, 192.0, 0.0, 0.0, 0.0, 0.0, 0.0, 0.0, 0.0, 0.0, 0.0, 1.7074741216062968E9, 0.0, 2024-02-09 11:22:01.606
22.0, -18758.52272016081, -7573.978015658619, 12927.198460960206, -3987.461803848959, 44819.06978119252, 15560.189254306468, 32129.917398681333, 6652.504998744131, 25931.756309480228, 4694.067501314581, 38239.587931583876, 26725.690272532735, 37907.17278804455, 31904.99179422758, 26448.640400009204, 24341.16147055167, 0.08600000000000001, 1.012, 0.264, 192.0, 0.0, 0.0, 0.0, 0.0, 0.0, 0.0, 0.0, 0.0, 0.0, 1.7074741216132803E9, 0.0, 2024-02-09 11:22:01.613
24.0, -18735.5227751163, -7544.116085066329, 12943.984621046142, -3995.2402109194054, 45133.42471521196, 15610.793603753282, 32290.939365737366, 6780.044052606113, 26254.135519759122, 4799.6347903769965, 38689.595602702575, 26830.184677861296, 38425.666204174304, 32148.759919257158, 26694.62134773986, 24576.972374555156, 0.08600000000000001, 1.012, 0.264, 192.0, 0.0, 0.0, 0.0, 0.0, 0.0, 0.0, 0.0, 0.0, 0.0, 1.7074741216213374E9, 0.0, 2024-02-09 11:22:01.621
26.0, -18823.834517459218, -7664.793153380532, 12871.83318994441, -4002.102196467185, 44717.21288170968, 15500.219523932878, 32036.844734769435, 6547.027116659537, 26025.700691425885, 4696.056806571103, 38436.864428146415, 26730.540601079538, 38224.45580058763, 31985.413370777773, 26555.369979783296, 24472.45561748214, 0.08600000000000001, 1.012, 0.264, 192.0, 0.0, 0.0, 0.0, 0.0, 0.0, 0.0, 0.0, 0.0, 0.0, 1.707474121630322E9, 0.0, 2024-02-09 11:22:01.630
28.0, -18712.165202160504, -7514.142395751763, 12950.667792638278, -4017.0555135077852, 45069.00698769176, 15609.094871174679, 32261.8150427121, 6731.831339816015, 26062.938697688427, 4731.46196978831, 38384.94132577674, 26763.44236891775, 38031.35908023824, 31967.621382191348, 26533.353511494817, 24371.53749126643, 0.07, 1.006, 0.274, 192.0, 1.0, 24.0, 15.5, 56.0, 4.0, 72.0, 0.0, 0.0, 0.0, 1.7074741216372998E9, 0.0, 2024-02-09 11:22:01.637
30.0, -18769.966813321927, -7600.733053771622, 12878.806934214466, -4002.683341823023, 44915.83048293954, 15554.422504236998, 32162.88622175291, 6670.922836175303, 26243.18316497602, 4771.918627252416, 38728.33117584362, 26806.983567116687, 38545.96329283277, 32141.249733120174, 26706.601882767904, 24608.935369126248, 0.07, 1.006, 0.274, 192.0, 0.0, 0.0, 0.0, 0.0, 0.0, 0.0, 0.0, 0.0, 0.0, 1.707474121645364E9, 0.0, 2024-02-09 11:22:01.645
32.0, -18706.979597446873, -7523.261907489527, 12916.939010255219, -4000.872850522143, 44833.710173810745, 15562.17855956299, 32127.77163121362, 6620.385541961854, 25956.790263270173, 4705.533946220154, 38264.688940607186, 26730.42884235726, 37919.332137028236, 31896.341669123372, 26458.542222802906, 24330.097357046292, 0.07, 1.006, 0.274, 192.0, 0.0, 0.0, 0.0, 0.0, 0.0, 0.0, 0.0, 0.0, 0.0, 1.7074741216533167E9, 0.0, 2024-02-09 11:22:01.653
34.0, -18652.486044464833, -7449.098819386819, 12929.768911572566, -4007.0866354807185, 45141.113715304586, 15597.203743124455, 32299.231862930283, 6728.165653725345, 26297.609662724695, 4826.993325590292, 38719.88221643952, 26845.31680885754, 38446.9227131513, 32142.97081744323, 26692.609690738882, 24549.971467253148, 0.07, 1.006, 0.274, 192.0, 0.0, 0.0, 0.0, 0.0, 0.0, 0.0, 0.0, 0.0, 0.0, 1.707474121663731E9, 0.0, 2024-02-09 11:22:01.663
36.0, -18706.376100346577, -7531.330887237894, 12871.587320755401, -3988.110004438163, 44734.088448773444, 15516.156317729512, 32087.516139449614, 6559.521741810053, 26083.010564209293, 4750.125676408491, 38478.818652489026, 26768.20329048673, 38260.03977776048, 31996.589243005426, 26561.919040908702, 24461.50326269904, 0.07, 1.006, 0.274, 192.0, 0.0, 0.0, 0.0, 0.0, 0.0, 0.0, 0.0, 0.0, 0.0, 1.7074741216693306E9, 0.0, 2024-02-09 11:22:01.669
38.0, -18582.256863386257, -7376.299187695884, 12963.90002535582, -3998.168289443051, 45081.76983377574, 15609.430147341509, 32293.19689192735, 6721.191909455289, 26130.17274500999, 4798.763072343239, 38432.41643099981, 26814.381994531395, 38069.15588011216, 31995.292841827017, 26552.464253004106, 24387.764857740982, 0.068, 0.992, 0.278, 192.0, 1.0, 16.0, 15.5, 0.0, 4.0, 88.0, 0.0, 0.0, 0.0, 1.707474121677385E9, 0.0, 2024-02-09 11:22:01.677
40.0, -18635.521070423256, -7458.061868913397, 12910.769928785556, -3984.779594514322, 44926.13463713344, 15545.548861688241, 32196.391486691417, 6652.750867933139, 26306.259787828898, 4838.52682572923, 38773.5040513878, 26853.430492094816, 38583.51422351768, 32157.32063738354, 26725.80203125501, 24612.19872381672, 0.068, 0.992, 0.278, 192.0, 0.0, 0.0, 0.0, 0.0, 0.0, 0.0, 0.0, 0.0, 0.0, 1.7074741216863515E9, 0.0, 2024-02-09 11:22:01.686
42.0, -18578.4347150844, -7389.442013435604, 12952.880615339354, -3978.230533388917, 44835.27479592262, 15555.405980993031, 32160.293419396094, 6616.608097148907, 26017.922284355438, 4772.142144696969, 38302.642202692296, 26780.988488315164, 37942.10856462819, 31911.719669308626, 26480.782208535937, 24334.05361581488, 0.068, 0.992, 0.278, 192.0, 0.0, 0.0, 0.0, 0.0, 0.0, 0.0, 0.0, 0.0, 0.0, 1.707474121693412E9, 0.0, 2024-02-09 11:22:01.693
44.0, -18526.4222057369, -7330.2545941179515, 12966.42577247927, -3985.7630712703553, 45138.431505969944, 15591.280530843798, 32307.569063612114, 6723.740008323194, 26348.616343571706, 4893.757986278294, 38755.019158723255, 26898.22338798325, 38453.158849854335, 32156.828899005523, 26715.98961543913, 24554.41946439975, 0.068, 0.992, 0.278, 192.0, 0.0, 0.0, 0.0, 0.0, 0.0, 0.0, 0.0, 0.0, 0.0, 1.707474121701379E9, 0.0, 2024-02-09 11:22:01.701
46.0, -18585.05083144317, -7415.638257937224, 12916.6484375773, -3959.6338820021015, 44729.37223069337, 15510.344864171133, 32088.991354583664, 6555.185503385724, 26134.486631689862, 4815.504528940264, 38523.00805127717, 26824.753203958655, 38267.46055691964, 32006.96045243269, 26582.907328952235, 24462.665553410716, 0.068, 0.992, 0.278, 192.0, 0.0, 0.0, 0.0, 0.0, 0.0, 0.0, 0.0, 0.0, 0.0, 1.707474121709669E9, 0.0, 2024-02-09 11:22:01.709
48.0, -18472.330984155058, -7269.279035243873, 12994.208990837216, -3977.7387950109, 45080.40637736397, 15601.316464104231, 32296.437894873372, 6702.572906324018, 26176.17263509901, 4858.799857950194, 38472.023722174614, 26864.941640489298, 38069.80408070136, 31999.76319071808, 26559.30388680743, 24377.393648313722, 0.062, 0.988, 0.272, 192.0, 0.5, 120.0, 15.0, 112.0, 4.0, 64.0, 0.0, 0.0, 0.0, 1.7074741217184243E9, 0.0, 2024-02-09 11:22:01.718
50.0, -18540.19088032137, -7366.106792224264, 12921.40935914628, -3967.389937328093, 44925.9558231778, 15534.976486560881, 32189.060114510074, 6611.713065113195, 26353.243154673954, 4888.795899009216, 38820.174493810475, 26900.816190340065, 38600.36743883698, 32161.50041359668, 26730.473545846173, 24602.520418467575, 0.062, 0.988, 0.272, 192.0, 0.0, 0.0, 0.0, 0.0, 0.0, 0.0, 0.0, 0.0, 0.0, 1.7074741217254753E9, 0.0, 2024-02-09 11:22:01.725
52.0, -18494.23569372126, -7311.345018308762, 12961.642499165833, -3960.6397105025903, 44846.47301989472, 15555.383629248576, 32178.040704493607, 6602.057111508502, 26058.937735430925, 4803.926325312415, 38347.63626428083, 26814.65021546486, 37970.33881787525, 31919.22985544561, 26485.230205682543, 24325.24702849949, 0.062, 0.988, 0.272, 192.0, 0.0, 0.0, 0.0, 0.0, 0.0, 0.0, 0.0, 0.0, 0.0, 1.7074741217334783E9, 0.0, 2024-02-09 11:22:01.733
54.0, -18462.160940427893, -7264.115782274697, 12966.224606779171, -3976.8894287215985, 45161.99024462584, 15608.580781052207, 32331.843058090577, 6752.730220881727, 26391.866969092724, 4918.568422623685, 38788.367961450575, 26930.476955232258, 38478.23750713319, 32165.61313457646, 26725.466755088182, 24561.68378134773, 0.062, 0.988, 0.272, 192.0, 0.0, 0.0, 0.0, 0.0, 0.0, 0.0, 0.0, 0.0, 0.0, 1.707474121741757E9, 0.0, 2024-02-09 11:22:01.741
56.0, -18535.92169713041, -7361.882312522211, 12909.942914240708, -3955.744678466878, 44758.16127755181, 15524.381759689066, 32114.78526768509, 6583.974550244159, 26170.361181540633, 4827.306250012666, 38548.801964378596, 26836.130241886407, 38292.092179309395, 32026.87585674237, 26588.56232029943, 24477.864739640325, 0.062, 0.988, 0.272, 192.0, 0.0, 0.0, 0.0, 0.0, 0.0, 0.0, 0.0, 0.0, 0.0, 1.7074741217495105E9, 0.0, 2024-02-09 11:22:01.749
58.0, -18439.160995383383, -7223.14503468812, 12987.726984945177, -3980.2421903898944, 45099.47241538434, 15600.400042581565, 32302.383458898483, 6720.499005377174, 26208.627368048117, 4861.526770773741, 38486.53000432611, 26870.93190800332, 38071.34635106878, 32013.978900191654, 26563.68482872067, 24390.424715331166, 0.076, 0.976, 0.26, 192.0, 1.0, 48.0, 15.0, 64.0, 4.0, 16.0, 0.0, 0.0, 0.0, 1.7074741217575116E9, 0.0, 2024-02-09 11:22:01.757
60.0, -18512.877048596984, -7318.609335256736, 12922.348132413405, -3958.516294779336, 44957.5611898376, 15549.885100112571, 32206.27095774066, 6659.836370925471, 26378.12064625271, 4886.828945497149, 38820.330956021666, 26900.70443161779, 38593.97483992277, 32170.955201501278, 26725.06442368799, 24605.806124902505, 0.076, 0.976, 0.26, 192.0, 0.0, 0.0, 0.0, 0.0, 0.0, 0.0, 0.0, 0.0, 0.0, 1.7074741217655177E9, 0.0, 2024-02-09 11:22:01.765
62.0, -18479.70705982531, -7276.006910324921, 12964.436467222748, -3952.7718964543224, 44872.848078351984, 15574.69553645796, 32190.803550577588, 6659.74696394765, 26077.48968332883, 4808.530784670208, 38349.98319744864, 26820.97575914571, 37973.11043418771, 31933.110288752356, 26496.517836632473, 24362.73090395104, 0.076, 0.976, 0.26, 192.0, 0.0, 0.0, 0.0, 0.0, 0.0, 0.0, 0.0, 0.0, 0.0, 1.7074741217745557E9, 0.0, 2024-02-09 11:22:01.774
64.0, -18444.994800686218, -7228.151825446109, 12977.668699940288, -3969.133373395607, 45177.70352097792, 15614.548696821774, 32329.272607478215, 6771.550389713096, 26397.432553462095, 4913.673390587973, 38784.43405442644, 26926.453641230302, 38484.272478136125, 32174.397370147395, 26723.276284131563, 24573.507854164585, 0.076, 0.976, 0.26, 192.0, 0.0, 0.0, 0.0, 0.0, 0.0, 0.0, 0.0, 0.0, 0.0, 1.707474121781557E9, 0.0, 2024-02-09 11:22:01.781
66.0, -18513.32408348609, -7324.979582426498, 12930.41711216177, -3938.3773730251046, 44773.47222250369, 15536.898736584037, 32108.772648426613, 6597.273838195067, 26189.784847472292, 4827.99915409078, 38561.944790118316, 26843.863945467943, 38323.00464189108, 32035.257760913108, 26591.8256749899, 24487.811265922937, 0.076, 0.976, 0.26, 192.0, 0.0, 0.0, 0.0, 0.0, 0.0, 0.0, 0.0, 0.0, 0.0, 1.7074741217895572E9, 0.0, 2024-02-09 11:22:01.789
68.0, -18416.4963265057, -7193.819545962757, 13007.105947387929, -3957.2869488342944, 45113.1963864799, 15637.705104077471, 32303.568101354613, 6774.791392659115, 26221.61373157665, 4874.691948257917, 38500.32103065503, 26885.348783176993, 38119.134380714226, 32030.474487599673, 26578.369924827806, 24414.363433642797, 0.08299999999999999, 0.988, 0.251, 192.0, 1.0, 104.0, 15.5, 32.0, 3.5, 72.0, 0.0, 0.0, 0.0, 1.7074741217975736E9, 0.0, 2024-02-09 11:22:01.797
70.0, -18488.84892330753, -7296.704625690535, 12942.352943700904, -3947.6980504629673, 44959.93047474986, 15566.35833577613, 32204.862797839978, 6698.70605453325, 26394.25860574944, 4899.435329369942, 38841.83333418767, 26914.18253352434, 38645.830887059084, 32182.488701640214, 26742.90111576332, 24632.248238593133, 0.08299999999999999, 0.988, 0.251, 192.0, 0.0, 0.0, 0.0, 0.0, 0.0, 0.0, 0.0, 0.0, 0.0, 1.707474121805576E9, 0.0, 2024-02-09 11:22:01.805
72.0, -18457.779998514652, -7260.785372350857, 12967.319842257482, -3957.3316523232047, 44836.41473488983, 15557.194120549455, 32122.049584633063, 6633.014277579103, 26088.956128234404, 4816.689171396395, 38363.05896795499, 26827.860096437944, 38001.78772232386, 31932.775012585524, 26487.979470250546, 24352.00206661249, 0.08299999999999999, 0.988, 0.251, 192.0, 0.0, 0.0, 0.0, 0.0, 0.0, 0.0, 0.0, 0.0, 0.0, 1.7074741218146129E9, 0.0, 2024-02-09 11:22:01.814
74.0, -18422.486594019723, -7212.147976416109, 12993.180810592272, -3964.037175659797, 45154.07772708866, 15611.195935153477, 32304.14924671045, 6769.158753056378, 26413.61521644774, 4921.228280213867, 38793.620621397575, 26929.404071498404, 38489.793359016585, 32170.955201501278, 26710.491086303125, 24561.415560414265, 0.08299999999999999, 0.988, 0.251, 192.0, 0.0, 0.0, 0.0, 0.0, 0.0, 0.0, 0.0, 0.0, 0.0, 1.7074741218208945E9, 0.0, 2024-02-09 11:22:01.820
76.0, -18503.913999070406, -7325.650134760158, 12930.394760417315, -3946.759277195845, 44737.150637763814, 15523.68885561095, 32057.67656060178, 6590.59066660293, 26203.732336012406, 4832.938889615404, 38575.93698214734, 26849.876564726423, 38320.09891511189, 32039.079909214965, 26595.49136108057, 24494.56149274844, 0.08299999999999999, 0.988, 0.251, 192.0, 0.0, 0.0, 0.0, 0.0, 0.0, 0.0, 0.0, 0.0, 0.0, 1.7074741218296373E9, 0.0, 2024-02-09 11:22:01.829
78.0, -18413.41178577087, -7198.178136131542, 13000.869810684897, -3969.3792425846154, 45067.53177255771, 15610.301865375266, 32251.57794375157, 6742.582528899018, 26214.19295241749, 4862.443192296409, 38489.45808284976, 26877.525672617638, 38086.45613032057, 32012.079001912953, 26557.761616440013, 24391.654061276207, 0.08249999999999999, 1.0, 0.2445, 192.0, 1.0, 72.0, 15.5, 80.0, 3.5, 56.0, 0.0, 0.0, 0.0, 1.7074741218376195E9, 0.0, 2024-02-09 11:22:01.837
80.0, -18499.063670523607, -7310.450948530549, 12925.633838848335, -3966.585274527702, 44919.09383763002, 15549.303954756733, 32157.7900240171, 6670.431097797286, 26391.375230714708, 4892.975675222358, 38833.049098616735, 26910.6509579004, 38609.93398546386, 32179.538271372116, 26724.57268530997, 24615.171505829276, 0.08249999999999999, 1.0, 0.2445, 192.0, 0.0, 0.0, 0.0, 0.0, 0.0, 0.0, 0.0, 0.0, 0.0, 1.707474121846651E9, 0.0, 2024-02-09 11:22:01.846
82.0, -18497.834324578565, -7300.794994925856, 12950.980717060653, -3971.0332716743083, 44806.798673486555, 15557.529396716285, 32118.87563692041, 6636.478797969676, 26082.69763978692, 4803.4569386788535, 38354.81117425099, 26820.729889956703, 37980.53121334687, 31928.259960205552, 26478.748199790505, 24348.71636017756, 0.08249999999999999, 1.0, 0.2445, 192.0, 0.0, 0.0, 0.0, 0.0, 0.0, 0.0, 0.0, 0.0, 0.0, 1.707474121854693E9, 0.0, 2024-02-09 11:22:01.854
84.0, -18515.00046432024, -7299.945628636555, 12964.794095134032, -3989.227591660928, 45124.68518312993, 15602.881086216103, 32293.353354138537, 6752.037316803613, 26378.187701486077, 4896.104919446101, 38770.17364146395, 26915.99302482522, 38464.53588778208, 32162.863870008456, 26702.33269957694, 24551.42433064274, 0.08249999999999999, 1.0, 0.2445, 192.0, 0.0, 0.0, 0.0, 0.0, 0.0, 0.0, 0.0, 0.0, 0.0, 1.7074741218616788E9, 0.0, 2024-02-09 11:22:01.861
86.0, -18666.858216149594, -7475.116249932797, 12886.674748262734, -3989.227591660928, 44722.46554165668, 15508.847297292627, 32081.280002746586, 6559.63350053233, 26148.389416741065, 4792.2810664512, 38535.61443514996, 26816.795982932566, 38306.285537038515, 32033.357862634406, 26587.087105165378, 24476.590690206373, 0.08249999999999999, 1.0, 0.2445, 192.0, 0.0, 0.0, 0.0, 0.0, 0.0, 0.0, 0.0, 0.0, 0.0, 1.7074741218697135E9, 0.0, 2024-02-09 11:22:01.869
88.0, -18633.084730277627, -7408.686865411623, 12945.236318735639, -4019.6930193535113, 45055.84181020759, 15597.293150102276, 32284.077380189585, 6714.70990356325, 26122.260227472812, 4791.4764036508095, 38419.27360526009, 26814.69491895377, 38059.61168522974, 31993.81762669297, 26544.708197678116, 24365.97190689706, 0.07425, 1.002, 0.24225, 192.0, 1.0, 8.0, 15.5, 48.0, 3.5, 64.0, 0.0, 0.0, 0.0, 1.7074741218766897E9, 0.0, 2024-02-09 11:22:01.876
90.0, -18742.340057175166, -7545.054858333452, 12877.443477802692, -4002.45982437847, 44920.189073108326, 15546.64409716655, 32180.924079528344, 6658.428211024787, 26283.595118951216, 4815.415121962443, 38758.3495686471, 26843.282800112105, 38583.3577613065, 32167.17775668833, 26717.91186546229, 24603.794467901527, 0.07425, 1.002, 0.24225, 192.0, 0.0, 0.0, 0.0, 0.0, 0.0, 0.0, 0.0, 0.0, 0.0, 1.7074741218859537E9, 0.0, 2024-02-09 11:22:01.885
92.0, -18752.08541775768, -7548.4970269795695, 12904.17616417124, -4011.869908794154, 44805.2787548636, 15541.07851279718, 32132.197276615774, 6599.933695785248, 25971.207138443846, 4720.017876627192, 38279.06111229195, 26753.518194379594, 37952.83740196674, 31915.363003654842, 26475.551900333394, 24333.47247045904, 0.07425, 1.002, 0.24225, 192.0, 0.0, 0.0, 0.0, 0.0, 0.0, 0.0, 0.0, 0.0, 0.0, 1.707474121893987E9, 0.0, 2024-02-09 11:22:01.893
94.0, -18748.28562120028, -7528.693381392167, 12918.995370745108, -4033.975784060453, 45129.53551167673, 15578.361222548632, 32307.122028723006, 6702.595258068473, 26271.793397878817, 4808.977819559314, 38682.957134599346, 26840.913515199845, 38423.67689891779, 32136.488811551193, 26687.021754625053, 24523.082318673412, 0.07425, 1.002, 0.24225, 192.0, 0.0, 0.0, 0.0, 0.0, 0.0, 0.0, 0.0, 0.0, 0.0, 1.7074741219016824E9, 0.0, 2024-02-09 11:22:01.901
96.0, -18846.85681424818, -7656.724173632166, 12857.237500815094, -4017.815472819266, 44733.5073034176, 15491.904674995503, 32099.519026222115, 6539.606337500374, 26061.083502898637, 4713.826443413072, 38465.742881982675, 26749.561935611004, 38291.75690314256, 32005.351126831905, 26578.816959716914, 24456.965858574615, 0.07425, 1.002, 0.24225, 192.0, 0.0, 0.0, 0.0, 0.0, 0.0, 0.0, 0.0, 0.0, 0.0, 1.70747412190876E9, 0.0, 2024-02-09 11:22:01.908
98.0, -18747.458606655433, -7524.982991812586, 12935.066275008474, -4034.5345776718355, 45060.848600965575, 15591.995786666368, 32268.498214304236, 6710.641886072384, 26070.44888382541, 4746.191769384357, 38375.754758805604, 26780.9214330818, 38053.487307248986, 31975.735065428624, 26541.82482264338, 24358.1487963377, 0.07012499999999999, 0.994, 0.24112499999999998, 192.0, 1.0, 8.0, 15.0, 104.0, 3.5, 64.0, 0.0, 0.0, 0.0, 1.7074741219177516E9, 0.0, 2024-02-09 11:22:01.917
100.0, -18808.791793440796, -7614.568783589457, 12878.44930630318, -4014.552118128791, 44945.11126817599, 15550.801521635238, 32209.37785021995, 6656.640071468362, 26252.705008113982, 4779.585275600586, 38723.72671648583, 26820.059337623043, 38598.109912647, 32150.324541369027, 26717.9565689512, 24600.598168444416, 0.07012499999999999, 0.994, 0.24112499999999998, 192.0, 0.0, 0.0, 0.0, 0.0, 0.0, 0.0, 0.0, 0.0, 0.0, 1.7074741219257493E9, 0.0, 2024-02-09 11:22:01.925
102.0, -18766.256423742347, -7566.423126032726, 12910.255838663083, -4008.360684914671, 44829.01630747513, 15555.584794948674, 32163.780291531122, 6621.570184417986, 25953.28103939069, 4704.483414230754, 38250.65204508925, 26739.950685495223, 37976.50789934491, 31921.04034674649, 26480.312821902375, 24340.088586817812, 0.07012499999999999, 0.994, 0.24112499999999998, 192.0, 0.0, 0.0, 0.0, 0.0, 0.0, 0.0, 0.0, 0.0, 0.0, 1.7074741219327912E9, 0.0, 2024-02-09 11:22:01.932
104.0, -18711.338187615656, -7497.289180432461, 12931.691161595721, -4021.5705658877573, 45147.59572119662, 15599.729490247904, 32312.642909603466, 6745.28708997811, 26276.375505492153, 4815.079845795613, 38681.59367818757, 26851.351779860473, 38459.37263481291, 32148.78227100161, 26702.533865277037, 24551.80431029848, 0.07012499999999999, 0.994, 0.24112499999999998, 192.0, 0.0, 0.0, 0.0, 0.0, 0.0, 0.0, 0.0, 0.0, 0.0, 1.7074741219417877E9, 0.0, 2024-02-09 11:22:01.941
106.0, -18767.172845265013, -7588.5290012990245, 12873.174294611728, -3996.4248533755367, 44746.94070183524, 15518.860878808604, 32107.319785037016, 6590.188335202734, 26090.74426779083, 4734.166530867402, 38487.89346073788, 26774.126502767387, 38320.121266856346, 32014.38123159185, 26586.952994698644, 24483.206806565144, 0.07012499999999999, 0.994, 0.24112499999999998, 192.0, 0.0, 0.0, 0.0, 0.0, 0.0, 0.0, 0.0, 0.0, 0.0, 1.7074741219497795E9, 0.0, 2024-02-09 11:22:01.949
108.0, -18646.607535673087, -7434.883109913244, 12958.46855145318, -4007.1760424585395, 45069.40931909196, 15607.686711273995, 32297.10844720703, 6735.877005562425, 26114.414765169, 4778.825316289105, 38404.141474263844, 26816.281892810097, 38079.974124428525, 31996.52218777206, 26552.888936148756, 24389.709459508595, 0.0690625, 0.993, 0.2395625, 192.0, 1.0, 16.0, 15.5, 0.0, 3.5, 56.0, 0.0, 0.0, 0.0, 1.7074741219570477E9, 0.0, 2024-02-09 11:22:01.957
110.0, -18701.905751455517, -7520.289125476972, 12899.50464958008, -3997.9224202540427, 44947.01116645469, 15542.2184517644, 32215.56928343407, 6657.467086013208, 26308.673776230073, 4815.079845795613, 38766.32914141764, 26855.285686884607, 38622.42861061438, 32162.036855463608, 26727.90309523381, 24621.899380910323, 0.0690625, 0.993, 0.2395625, 192.0, 0.0, 0.0, 0.0, 0.0, 0.0, 0.0, 0.0, 0.0, 0.0, 1.707474121964812E9, 0.0, 2024-02-09 11:22:01.964
112.0, -18654.69886716591, -7469.081278929863, 12937.077932009452, -3994.7261207969336, 44820.05325794855, 15539.111559285113, 32155.040759449097, 6592.8258410484605, 26012.37905173052, 4739.620356514497, 38291.935717098204, 26774.01474404511, 37997.87616704418, 31906.01997447252, 26485.0513917269, 24347.017627598958, 0.0690625, 0.993, 0.2395625, 192.0, 0.0, 0.0, 0.0, 0.0, 0.0, 0.0, 0.0, 0.0, 0.0, 1.707474121973814E9, 0.0, 2024-02-09 11:22:01.973
114.0, -18603.06633747415, -7401.221382763551, 12959.697897398222, -4000.6716848220453, 45138.90089260351, 15603.75280424986, 32309.267796190717, 6741.911976565359, 26330.82435498528, 4854.016584636758, 38716.10477162657, 26889.372097178948, 38468.89447795087, 32152.917343725843, 26701.550388521006, 24552.67602833224, 0.0690625, 0.993, 0.2395625, 192.0, 0.0, 0.0, 0.0, 0.0, 0.0, 0.0, 0.0, 0.0, 0.0, 1.707474121980867E9, 0.0, 2024-02-09 11:22:01.980
116.0, -18671.37326852957, -7499.39024441126, 12903.974998471142, -3976.2188763879394, 44743.78910586704, 15522.660675366007, 32110.44902926076, 6583.415756632777, 26146.690684162462, 4779.227647689301, 38527.120772256945, 26815.723099198713, 38338.986139176624, 32032.37438587837, 26599.849951249358, 24500.17178060672, 0.0690625, 0.993, 0.2395625, 192.0, 0.0, 0.0, 0.0, 0.0, 0.0, 0.0, 0.0, 0.0, 0.0, 1.7074741219889643E9, 0.0, 2024-02-09 11:22:01.988
118.0, -18567.460008556845, -7359.200103187573, 12975.500580728125, -4001.4986993668917, 45060.44626956538, 15606.926751962514, 32297.510778607226, 6737.016944529646, 26152.233916787376, 4817.627944663518, 38433.77988741158, 26849.094253670486, 38088.087807665805, 32009.7544204896, 26555.615848972306, 24390.62588103126, 0.06653125, 0.9955, 0.24278125, 192.0, 1.0, 0.0, 15.5, 24.0, 3.5, 88.0, 0.0, 0.0, 0.0, 1.7074741219969792E9, 0.0, 2024-02-09 11:22:01.996
120.0, -18639.54438442521, -7458.151275891219, 12910.635818318822, -3989.786385272311, 44942.764335008185, 15552.164978047012, 32217.402126479403, 6681.2269903692, 26342.9166487356, 4852.474314269342, 38797.24160399933, 26883.538291876113, 38633.939759008856, 32180.901727783887, 26731.904057491312, 24623.195782088733, 0.06653125, 0.9955, 0.24278125, 192.0, 0.0, 0.0, 0.0, 0.0, 0.0, 0.0, 0.0, 0.0, 0.0, 1.7074741220059977E9, 0.0, 2024-02-09 11:22:02.005
122.0, -18629.083768020126, -7438.4370372816375, 12929.65715285029, -3995.7319492974225, 44801.613068772924, 15534.93178307197, 32129.045680647574, 6592.267047437078, 26032.0932903401, 4773.729118553295, 38315.96384238766, 26793.974851843697, 38013.81296084082, 31933.98200678611, 26486.839531283324, 24345.63181944273, 0.06653125, 0.9955, 0.24278125, 192.0, 0.0, 0.0, 0.0, 0.0, 0.0, 0.0, 0.0, 0.0, 0.0, 1.707474122012954E9, 0.0, 2024-02-09 11:22:02.012
124.0, -18608.363700910057, -7403.65772290918, 12960.211987520694, -4001.185774944517, 45132.62005241156, 15601.629388526606, 32319.68370910689, 6754.674822649339, 26331.62901778567, 4881.151602405501, 38719.09990538358, 26897.195207738307, 38468.20157387276, 32159.55581182907, 26692.654394227793, 24532.51475483355, 0.06653125, 0.9955, 0.24278125, 192.0, 0.0, 0.0, 0.0, 0.0, 0.0, 0.0, 0.0, 0.0, 0.0, 1.7074741220209975E9, 0.0, 2024-02-09 11:22:02.020
126.0, -18736.03686523877, -7558.600015473368, 12886.317120351448, -3991.8874492511095, 44725.23715796914, 15509.942532770936, 32089.79601738406, 6586.1873729452345, 26126.440003685955, 4784.390900658476, 38523.52214139964, 26809.039927606576, 38341.087203155425, 32037.314121402997, 26591.333936611885, 24490.046440368467, 0.06653125, 0.9955, 0.24278125, 192.0, 0.0, 0.0, 0.0, 0.0, 0.0, 0.0, 0.0, 0.0, 0.0, 1.7074741220300884E9, 0.0, 2024-02-09 11:22:02.030
128.0, -18675.351879042613, -7464.834447483355, 12964.704688156211, -4021.1458827431065, 45036.5299029982, 15578.830609182192, 32263.20085086833, 6706.260944159144, 26106.234026698356, 4804.753339857261, 38399.76053235061, 26821.06516612353, 38074.72146448153, 31987.715600456668, 26535.745148151538, 24367.87180517576, 0.060265625, 1.00075, 0.247390625, 192.0, 0.5, 88.0, 15.5, 56.0, 3.5, 112.0, 0.0, 0.0, 0.0, 1.7074741220369897E9, 0.0, 2024-02-09 11:22:02.036
130.0, -18774.057182557248, -7588.663111765756, 12904.869068249354, -4011.6910948385116, 44916.67984922884, 15518.749120086328, 32176.721951570747, 6636.210577036211, 26294.502770245406, 4824.422874977931, 38756.4496703684, 26848.960143203753, 38619.45582860182, 32154.996055960186, 26719.320025362973, 24597.37951724285, 0.060265625, 1.00075, 0.247390625, 192.0, 0.0, 0.0, 0.0, 0.0, 0.0, 0.0, 0.0, 0.0, 0.0, 1.7074741220449371E9, 0.0, 2024-02-09 11:22:02.044
132.0, -18769.162150521537, -7581.287036095505, 12930.998257517607, -4003.5327081123246, 44787.57617325499, 15543.492501198352, 32129.87269519242, 6606.192184232734, 25974.291679178677, 4725.471702274287, 38271.57327789942, 26753.518194379594, 37993.69639083104, 31898.26391914653, 26476.736542789527, 24328.465679701054, 0.060265625, 1.00075, 0.247390625, 192.0, 0.0, 0.0, 0.0, 0.0, 0.0, 0.0, 0.0, 0.0, 0.0, 1.707474122052935E9, 0.0, 2024-02-09 11:22:02.052
134.0, -18744.932859531982, -7537.857596618843, 12945.03515303554, -4018.798949575299, 45118.27023247126, 15601.003539681858, 32292.05695296013, 6746.292918478599, 26274.654421169096, 4827.507415712764, 38679.112634553036, 26854.861003739956, 38455.70694872224, 32133.73954698319, 26695.24719658461, 24537.789766525006, 0.060265625, 1.00075, 0.247390625, 192.0, 0.0, 0.0, 0.0, 0.0, 0.0, 0.0, 0.0, 0.0, 0.0, 1.7074741220620506E9, 0.0, 2024-02-09 11:22:02.062
136.0, -18823.745110481395, -7651.315051473982, 12886.853562218377, -3998.3471033986934, 44729.23812022664, 15507.148564714023, 32089.237223772674, 6574.363300128377, 26084.35166887661, 4734.814731456606, 38494.80014977457, 26768.270345720095, 38341.4001275778, 32003.18300761974, 26589.9257767112, 24486.40310602225, 0.060265625, 1.00075, 0.247390625, 192.0, 0.0, 0.0, 0.0, 0.0, 0.0, 0.0, 0.0, 0.0, 0.0, 1.7074741220690072E9, 0.0, 2024-02-09 11:22:02.069
138.0, -18711.315835871203, -7500.753700823034, 12978.227493551673, -4005.097330224196, 45058.59107477559, 15603.2834176163, 32301.467037375813, 6724.656429845862, 26084.17285492097, 4766.822429516606, 38392.31740144699, 26797.081744322986, 38080.06353140635, 31976.964411373665, 26548.329180279874, 24371.626898244253, 0.057132812500000005, 1.000375, 0.2526953125, 192.0, 0.5, 88.0, 15.5, 32.0, 4.0, 8.0, 0.0, 0.0, 0.0, 1.7074741220770016E9, 0.0, 2024-02-09 11:22:02.077
140.0, -18764.736505119385, -7573.128649369318, 12914.614428831868, -3993.5414783408023, 44949.00047171122, 15547.98520183387, 32221.447792225816, 6671.280464086588, 26298.593139480727, 4814.051665550669, 38773.59345836562, 26850.144785659886, 38630.9669769963, 32162.103910696977, 26742.163508196296, 24619.239523320142, 0.057132812500000005, 1.000375, 0.2526953125, 192.0, 0.0, 0.0, 0.0, 0.0, 0.0, 0.0, 0.0, 0.0, 0.0, 1.7074741220859687E9, 0.0, 2024-02-09 11:22:02.085
142.0, -18715.964998717904, -7518.9703725541085, 12935.133330241839, -3989.6299230611235, 44811.22431888871, 15543.626611665084, 32164.629657820424, 6603.8005475760165, 25992.597757887575, 4738.5921762695525, 38295.04260957749, 26765.67754336328, 38014.90819631913, 31907.718707051125, 26490.326403418352, 24342.1449473077, 0.057132812500000005, 1.000375, 0.2526953125, 192.0, 0.0, 0.0, 0.0, 0.0, 0.0, 0.0, 0.0, 0.0, 0.0, 1.7074741220930593E9, 0.0, 2024-02-09 11:22:02.093
144.0, -18646.02639031725, -7430.390409277727, 12961.351926487914, -4000.4705191219473, 45143.907683361496, 15597.047280913268, 32330.837229590088, 6747.522264423641, 26315.558113522307, 4859.850389939594, 38718.250539094275, 26886.019335510653, 38472.51546055263, 32148.156422156862, 26707.630063012846, 24542.483632860618, 0.057132812500000005, 1.000375, 0.2526953125, 192.0, 0.0, 0.0, 0.0, 0.0, 0.0, 0.0, 0.0, 0.0, 0.0, 1.7074741221012552E9, 0.0, 2024-02-09 11:22:02.101
146.0, -18704.45385032342, -7521.384360955282, 12907.84185026191, -3974.5424955537915, 44744.61612041189, 15516.73746308535, 32111.141933338873, 6589.338968913433, 26142.399149227043, 4787.207220459845, 38548.42198472285, 26821.534552757093, 38360.555572576, 32038.163487692298, 26607.538951341983, 24495.32145205992, 0.057132812500000005, 1.000375, 0.2526953125, 192.0, 0.0, 0.0, 0.0, 0.0, 0.0, 0.0, 0.0, 0.0, 0.0, 1.7074741221090248E9, 0.0, 2024-02-09 11:22:02.109
148.0, -18591.01874721274, -7371.448859149082, 12987.19054307825, -3994.636713819112, 45058.41226081995, 15608.983112452403, 32289.978240725788, 6737.933366052314, 26136.40888171302, 4823.90878485546, 38436.19387581276, 26847.149651902873, 38085.60676403127, 32003.026545408553, 26566.612907244315, 24385.90966295119, 0.05756640625000001, 0.9971875, 0.25834765625, 192.0, 0.5, 104.0, 15.5, 8.0, 4.0, 32.0, 0.0, 0.0, 0.0, 1.707474122118032E9, 0.0, 2024-02-09 11:22:02.118
150.0, -18636.01280880127, -7437.230043081051, 12929.791263317022, -3982.0526816907745, 44958.85759101601, 15548.946326845447, 32222.721841659768, 6674.744984477161, 26352.30438140683, 4869.595750522108, 38810.98792683935, 26887.449847155793, 38646.07675624809, 32181.16994871735, 26752.221793201184, 24627.68848272425, 0.05756640625000001, 0.9971875, 0.25834765625, 192.0, 0.0, 0.0, 0.0, 0.0, 0.0, 0.0, 0.0, 0.0, 0.0, 1.7074741221250746E9, 0.0, 2024-02-09 11:22:02.125
152.0, -18591.39872686848, -7389.106737268775, 12958.13327528635, -3973.782536242311, 44815.471150335215, 15547.113483800113, 32165.255506665173, 6613.009466291603, 26052.589840005618, 4790.627037361507, 38338.0473659095, 26811.74448868567, 38023.20069351205, 31931.545666640483, 26508.2077989826, 24355.28777304742, 0.05756640625000001, 0.9971875, 0.25834765625, 192.0, 0.0, 0.0, 0.0, 0.0, 0.0, 0.0, 0.0, 0.0, 0.0, 1.7074741221330707E9, 0.0, 2024-02-09 11:22:02.133
154.0, -18533.351246518047, -7308.975733396499, 12988.933979145764, -3984.556077069769, 45158.61513121309, 15603.417528083031, 32340.87316285052, 6754.741877882705, 26364.75430306844, 4903.257477671799, 38750.124126687544, 26923.480859217747, 38463.37359707041, 32155.26427689365, 26715.09554566092, 24547.2445544296, 0.05756640625000001, 0.9971875, 0.25834765625, 192.0, 0.0, 0.0, 0.0, 0.0, 0.0, 0.0, 0.0, 0.0, 0.0, 1.7074741221423144E9, 0.0, 2024-02-09 11:22:02.142
156.0, -18602.77576479623, -7410.810281134878, 12920.761158557078, -3963.4783820484145, 44755.56847519499, 15510.993064760336, 32109.890235649378, 6592.78113755955, 26195.2833766083, 4829.608479691563, 38584.14007236243, 26852.69288452779, 38366.07645345646, 32042.522077861082, 26624.526277128018, 24508.486629544095, 0.05756640625000001, 0.9971875, 0.25834765625, 192.0, 0.0, 0.0, 0.0, 0.0, 0.0, 0.0, 0.0, 0.0, 0.0, 1.7074741221490755E9, 0.0, 2024-02-09 11:22:02.149
158.0, -18488.826571563073, -7263.378174707673, 12997.002958894129, -3978.8116787447548, 45060.80389747666, 15598.61190302514, 32295.05208671714, 6720.2531361881665, 26185.89564393707, 4863.381965563532, 38459.238524346176, 26882.51011163117, 38083.93038319712, 31998.980879662144, 26561.40495078623, 24381.77459022696, 0.062783203125, 0.99859375, 0.260173828125, 192.0, 1.0, 16.0, 15.5, 32.0, 4.0, 24.0, 0.0, 0.0, 0.0, 1.7074741221570787E9, 0.0, 2024-02-09 11:22:02.157
160.0, -18548.66219146993, -7351.108771694752, 12930.260649950582, -3969.2451321178837, 44955.32601539207, 15551.874405369093, 32221.224274781263, 6683.149240392357, 26397.946643584568, 4904.866803272582, 38841.02867138728, 26927.392414497426, 38651.418823172906, 32180.074713239042, 26748.42199664378, 24624.894514667336, 0.062783203125, 0.99859375, 0.260173828125, 192.0, 0.0, 0.0, 0.0, 0.0, 0.0, 0.0, 0.0, 0.0, 0.0, 1.7074741221651273E9, 0.0, 2024-02-09 11:22:02.165
162.0, -18510.977150318286, -7310.8756316752, 12971.209045792706, -3949.016803385831, 44811.24667063316, 15565.732486931383, 32169.256468922675, 6661.043365126057, 26088.710259045394, 4818.09733129708, 38366.43408136774, 26846.54615480258, 38036.29881576286, 31945.202582502676, 26505.570293136872, 24371.045752888414, 0.062783203125, 0.99859375, 0.260173828125, 192.0, 0.0, 0.0, 0.0, 0.0, 0.0, 0.0, 0.0, 0.0, 0.0, 1.7074741221744504E9, 0.0, 2024-02-09 11:22:02.174
164.0, -18458.674068292865, -7241.272299441373, 13001.361549062914, -3963.366623326138, 45160.3585672806, 15611.03947294229, 32353.948933356874, 6773.562046714073, 26406.66382392214, 4938.908510078015, 38777.52736538975, 26962.730522481266, 38477.678713521804, 32178.97947776073, 26730.13826967934, 24573.44079893122, 0.062783203125, 0.99859375, 0.260173828125, 192.0, 0.0, 0.0, 0.0, 0.0, 0.0, 0.0, 0.0, 0.0, 0.0, 1.7074741221811347E9, 0.0, 2024-02-09 11:22:02.181
166.0, -18542.80603442264, -7359.423620632127, 12934.596888374912, -3946.356945795649, 44762.63162644287, 15526.281657967766, 32135.41592781734, 6607.153309244312, 26226.307597912266, 4856.877607927037, 38607.27412787368, 26882.04072499761, 38374.860689027395, 32066.326685705983, 26633.22110572113, 24527.70912977566, 0.062783203125, 0.99859375, 0.260173828125, 192.0, 0.0, 0.0, 0.0, 0.0, 0.0, 0.0, 0.0, 0.0, 0.0, 1.7074741221891315E9, 0.0, 2024-02-09 11:22:02.189
168.0, -18438.44573956081, -7224.955525988999, 13012.202145123738, -3962.2266843589173, 45071.130403415016, 15630.418435385041, 32321.114220752028, 6764.286072765121, 26206.61571104714, 4869.6628057554735, 38473.923620453315, 26897.776353094145, 38083.17042388564, 32017.756345004604, 26573.385485814273, 24404.4616108491, 0.062783203125, 0.99859375, 0.260173828125, 192.0, 0.0, 0.0, 0.0, 0.0, 0.0, 0.0, 0.0, 0.0, 0.0, 1.7074741221971896E9, 0.0, 2024-02-09 11:22:02.197
170.0, -18510.731281129276, -7320.710399235535, 12936.60854537589, -3968.932207695509, 44968.69235857634, 15558.043486838758, 32231.66253944189, 6683.41746132582, 26419.829001406313, 4920.0883412466455, 38851.37752907009, 26942.748062938223, 38648.55779988263, 32212.797667121613, 26758.189708970753, 24644.988732932656, 0.07200000000000001, 1.002, 0.26, 192.0, 1.0, 32.0, 15.5, 40.0, 4.0, 16.0, 0.0, 0.0, 0.0, 1.7074741222051911E9, 0.0, 2024-02-09 11:22:02.205
172.0, -18491.2629117087, -7295.721148934502, 12955.51812118508, -3960.0809168912074, 44808.58681304298, 15551.114446057612, 32155.35368387147, 6625.526443186574, 26099.997889995324, 4817.605592919063, 38358.298046386015, 26847.104948413962, 38023.04423130086, 31933.713785852648, 26496.093153487822, 24355.354828280786, 0.07200000000000001, 1.002, 0.26, 192.0, 0.0, 0.0, 0.0, 0.0, 0.0, 0.0, 0.0, 0.0, 0.0, 1.7074741222132285E9, 0.0, 2024-02-09 11:22:02.213
174.0, -18440.569155284065, -7222.876813754656, 12996.891200171853, -3960.393841313582, 45151.90960787649, 15621.56714458074, 32333.027700546707, 6776.937160126825, 26409.681309423606, 4939.802579856227, 38763.57987684964, 26966.552670783123, 38458.053881890046, 32168.69767531129, 26711.183990381243, 24561.035580758522, 0.07200000000000001, 1.002, 0.26, 192.0, 0.0, 0.0, 0.0, 0.0, 0.0, 0.0, 0.0, 0.0, 0.0, 1.7074741222212553E9, 0.0, 2024-02-09 11:22:02.221
176.0, -18527.919772615405, -7341.11754192323, 12934.954516286198, -3939.1596840810403, 44754.5626466945, 15529.992047547346, 32120.17203809882, 6598.369073673377, 26236.65645559507, 4859.313948072666, 38607.855273229514, 26893.462466414272, 38382.08030248646, 32062.325723448484, 26627.454355651662, 24525.608065796863, 0.07200000000000001, 1.002, 0.26, 192.0, 0.0, 0.0, 0.0, 0.0, 0.0, 0.0, 0.0, 0.0, 0.0, 1.707474122229238E9, 0.0, 2024-02-09 11:22:02.229
178.0, -18441.709094251288, -7219.836976508735, 13015.644313769855, -3954.649442988568, 45048.890417681985, 15616.448595100475, 32284.61382205651, 6723.538842623097, 26214.0364902063, 4877.955302948392, 38473.27541986411, 26907.56641716557, 38086.45613032057, 32010.603786778902, 26564.333029309873, 24398.426639846166, 0.07200000000000001, 1.002, 0.26, 192.0, 0.0, 0.0, 0.0, 0.0, 0.0, 0.0, 0.0, 0.0, 0.0, 1.7074741222362535E9, 0.0, 2024-02-09 11:22:02.236
180.0, -18530.222002294304, -7326.812425471834, 12952.075952538962, -3952.302509820761, 44946.49707633223, 15562.804408407737, 32197.71023961428, 6663.546760505053, 26421.594789218285, 4926.235070971856, 38853.36683432661, 26954.549784010625, 38656.82794533109, 32210.51778918717, 26755.149871724832, 24645.145195143843, 0.08, 1.004, 0.256, 192.0, 1.0, 64.0, 15.5, 48.0, 4.0, 0.0, 0.0, 0.0, 0.0, 1.7074741222452457E9, 0.0, 2024-02-09 11:22:02.245
182.0, -18569.82929346911, -7355.64617581918, 12956.99333631913, -3960.706765735956, 44780.98240864067, 15562.782056663282, 32130.25267484816, 6632.276670012077, 26083.792875265226, 4812.017656805237, 38350.519639315564, 26836.376111075417, 38029.25801625944, 31944.66614063575, 26489.030002239946, 24364.854319674294, 0.08, 1.004, 0.256, 192.0, 0.0, 0.0, 0.0, 0.0, 0.0, 0.0, 0.0, 0.0, 0.0, 1.707474122253615E9, 0.0, 2024-02-09 11:22:02.253
184.0, -18592.739831535797, -7355.109733952253, 12980.172095319283, -3978.699920022478, 45131.77068612226, 15629.747883051383, 32329.07144177812, 6789.476488766252, 26357.847614031747, 4900.128233448057, 38725.33604208661, 26922.31856850607, 38447.213285829224, 32173.86092828047, 26701.66214724328, 24561.348505180897, 0.08, 1.004, 0.256, 192.0, 0.0, 0.0, 0.0, 0.0, 0.0, 0.0, 0.0, 0.0, 0.0, 1.707474122260448E9, 0.0, 2024-02-09 11:22:02.260
186.0, -18750.766664834817, -7547.82647464591, 12901.739824025612, -3975.9283037100204, 44730.78039059405, 15522.571268388185, 32099.25080528865, 6589.026044491058, 26149.059969074726, 4787.296627437667, 38533.60277814898, 26813.9796631312, 38360.39911036481, 32060.515232147605, 26604.49911409606, 24510.587693522895, 0.08, 1.004, 0.256, 192.0, 0.0, 0.0, 0.0, 0.0, 0.0, 0.0, 0.0, 0.0, 0.0, 1.7074741222692747E9, 0.0, 2024-02-09 11:22:02.269
188.0, -18703.40331833402, -7475.7644505220005, 12971.589025448446, -4001.386940644615, 45027.18687381588, 15606.56912405123, 32276.164862652407, 6739.341525952998, 26094.141732948035, 4781.552229112653, 38372.491404115135, 26812.482096252694, 38048.324054279816, 32000.545501774017, 26536.97449409658, 24372.319802322367, 0.08, 1.004, 0.256, 192.0, 0.0, 0.0, 0.0, 0.0, 0.0, 0.0, 0.0, 0.0, 0.0, 1.70747412227741E9, 0.0, 2024-02-09 11:22:02.277
190.0, -18804.34379629419, -7606.991542219108, 12907.640684561811, -4005.4326063910257, 44942.630224541455, 15543.760722131816, 32216.82098112357, 6681.070528158013, 26291.3064707883, 4794.315075196633, 38750.146478432, 26838.03014016511, 38612.52678782067, 32179.515919627658, 26729.19949641222, 24613.58453197295, 0.084, 1.002, 0.258, 192.0, 1.0, 80.0, 15.5, 40.0, 4.0, 8.0, 0.0, 0.0, 0.0, 1.7074741222843208E9, 0.0, 2024-02-09 11:22:02.284
192.0, -18810.57993299722, -7613.630010322334, 12917.587210844424, -4010.908783782576, 44776.22148707169, 15528.44977717993, 32135.34887258397, 6619.424416950276, 25959.60658307154, 4680.16471626338, 38252.06020498994, 26729.937103979246, 37988.91311751761, 31902.823675015414, 26475.753066033492, 24333.606580925774, 0.084, 1.002, 0.258, 192.0, 0.0, 0.0, 0.0, 0.0, 0.0, 0.0, 0.0, 0.0, 0.0, 1.7074741222923505E9, 0.0, 2024-02-09 11:22:02.292
194.0, -18778.102848303657, -7563.182123086706, 12945.079856524451, -4027.806702590788, 45129.2002355099, 15591.459344799441, 32324.06465102013, 6761.514456452663, 26256.638915138115, 4779.227647689301, 38633.805648542126, 26823.30034056906, 38411.67401214528, 32118.8309334315, 26678.12576033184, 24519.37192909383, 0.084, 1.002, 0.258, 192.0, 0.0, 0.0, 0.0, 0.0, 0.0, 0.0, 0.0, 0.0, 0.0, 1.7074741223013244E9, 0.0, 2024-02-09 11:22:02.301
196.0, -18874.21534946148, -7693.269275816593, 12882.405565071771, -4007.265449436361, 44725.37126843587, 15502.521753611774, 32087.24791851615, 6587.237904934634, 26081.758866519795, 4689.731262890251, 38480.87501297892, 26745.940953009245, 38345.557552046484, 32016.482295570648, 26596.653651792247, 24488.37005953432, 0.084, 1.002, 0.258, 192.0, 0.0, 0.0, 0.0, 0.0, 0.0, 0.0, 0.0, 0.0, 0.0, 1.7074741223093624E9, 0.0, 2024-02-09 11:22:02.309
198.0, -18775.62180466912, -7559.516436996036, 12963.14006604434, -4022.0176007768637, 45023.6776499364, 15587.301920330754, 32272.499176561738, 6715.760435552649, 26050.62288649355, 4711.3006962896225, 38329.30783382748, 26761.00602877212, 38034.01893782842, 31962.90516411128, 26527.92203759218, 24349.565726466863, 0.084, 1.002, 0.258, 192.0, 0.0, 0.0, 0.0, 0.0, 0.0, 0.0, 0.0, 0.0, 0.0, 1.7074741223164444E9, 0.0, 2024-02-09 11:22:02.316
200.0, -18833.199898385992, -7639.200405979205, 12901.203382158683, -4007.4889668809137, 44950.29687288962, 15548.119312300601, 32214.228178766753, 6666.743059962161, 26275.146159547112, 4762.061507947625, 38731.48277181182, 26812.41504101933, 38611.11862791999, 32165.344913642995, 26723.723319020668, 24604.085040579444, 0.08600000000000001, 1.002, 0.258, 192.0, 1.0, 88.0, 15.5, 40.0, 4.0, 8.0, 0.0, 0.0, 0.0, 1.7074741223255088E9, 0.0, 2024-02-09 11:22:02.325
202.0, -18815.832592944218, -7618.03330398003, 12915.039111976519, -4014.0380280063187, 44777.09320510545, 15529.187384746956, 32135.192410372787, 6582.9016665103045, 25951.33643762308, 4663.847942811006, 38247.12046946531, 26709.686423502735, 37989.65072508463, 31898.956823224646, 26467.03588569592, 24326.1410982777, 0.08600000000000001, 1.002, 0.258, 192.0, 0.0, 0.0, 0.0, 0.0, 0.0, 0.0, 0.0, 0.0, 0.0, 1.7074741223333812E9, 0.0, 2024-02-09 11:22:02.333
204.0, -18742.13889147507, -7526.368799968815, 12952.791208361532, -4019.3353914422264, 45125.78041860824, 15609.13957466359, 32313.11229623703, 6764.643700676406, 26263.81382510827, 4773.7514702977505, 38642.187552712865, 26821.35573880145, 38398.486482916654, 32122.943654411276, 26669.006248594076, 24514.678062758216, 0.08600000000000001, 1.002, 0.258, 192.0, 0.0, 0.0, 0.0, 0.0, 0.0, 0.0, 0.0, 0.0, 0.0, 1.7074741223404338E9, 0.0, 2024-02-09 11:22:02.340
206.0, -18804.030871871815, -7619.195594691706, 12889.625178530834, -3997.1848126870173, 44730.53452140505, 15516.469242151887, 32096.412133742826, 6597.072672494969, 26114.88415180256, 4718.185033581857, 38508.725286570225, 26765.565784641003, 38333.71112748517, 32036.57651383597, 26589.21052088863, 24493.84623692587, 0.08600000000000001, 1.002, 0.258, 192.0, 0.0, 0.0, 0.0, 0.0, 0.0, 0.0, 0.0, 0.0, 0.0, 1.7074741223484385E9, 0.0, 2024-02-09 11:22:02.348
208.0, -18686.617158248086, -7471.249398142028, 12965.263481767593, -4013.836862306221, 45025.756362170745, 15600.601208281661, 32271.135720149963, 6726.042238002091, 26090.11841894608, 4740.827350715083, 38361.38258712085, 26784.318898239006, 38028.78862962587, 31968.671914180748, 26528.659645159205, 24354.23724105802, 0.08600000000000001, 1.002, 0.258, 192.0, 0.0, 0.0, 0.0, 0.0, 0.0, 0.0, 0.0, 0.0, 0.0, 1.7074741223574295E9, 0.0, 2024-02-09 11:22:02.357
210.0, -18724.99510347785, -7530.950907582153, 12911.082853207929, -4000.291705166305, 44947.77112576618, 15549.303954756733, 32212.23887351023, 6674.052080399047, 26327.44924157253, 4797.019636275725, 38770.91124903098, 26846.903782713867, 38610.62688954197, 32176.789006804112, 26724.259760887595, 24608.175409814765, 0.084, 0.998, 0.26, 192.0, 1.0, 80.0, 15.5, 24.0, 4.0, 16.0, 0.0, 0.0, 0.0, 1.7074741223654287E9, 0.0, 2024-02-09 11:22:02.365
212.0, -18684.381983802556, -7490.047215228941, 12940.028362277551, -3988.2441149048946, 44775.50623124913, 15535.848204594638, 32132.97958767171, 6586.142669456323, 26022.325578013133, 4719.816710927094, 38296.60723168936, 26763.777645084578, 38003.37469618019, 31920.07922173491, 26477.876481756746, 24336.691121660606, 0.084, 0.998, 0.26, 192.0, 0.0, 0.0, 0.0, 0.0, 0.0, 0.0, 0.0, 0.0, 0.0, 1.7074741223724215E9, 0.0, 2024-02-09 11:22:02.372
214.0, -18611.91762827845, -7394.068824537853, 12974.85238013892, -3991.5298213398246, 45130.183712265934, 15610.078347930712, 32324.91401730943, 6759.793372129604, 26330.73494800746, 4834.995250105292, 38695.96584987234, 26878.35268716248, 38419.85475061593, 32142.926113954323, 26683.601937723393, 24522.925856462225, 0.084, 0.998, 0.26, 192.0, 0.0, 0.0, 0.0, 0.0, 0.0, 0.0, 0.0, 0.0, 0.0, 1.7074741223807805E9, 0.0, 2024-02-09 11:22:02.380
216.0, -18686.12541987007, -7501.8265845568885, 12909.294713651505, -3971.7261757524225, 44737.172989508275, 15519.442024164442, 32101.48597973418, 6579.861829264382, 26181.469998534918, 4770.868095263016, 38570.192583822325, 26820.26050332314, 38377.989933251134, 32053.027397755075, 26614.31152991194, 24509.984196422603, 0.084, 0.998, 0.26, 192.0, 0.0, 0.0, 0.0, 0.0, 0.0, 0.0, 0.0, 0.0, 0.0, 1.7074741223894527E9, 0.0, 2024-02-09 11:22:02.389
218.0, -18572.466799314832, -7355.69087930809, 12989.76099369061, -3986.0312922038192, 45023.20826330284, 15611.419452598031, 32260.071606644586, 6710.820700028026, 26144.880192861583, 4790.917610039426, 38408.94709932174, 26834.45386105226, 38048.949903124565, 31983.51347249907, 26534.29228476194, 24364.697857463107, 0.084, 0.998, 0.26, 192.0, 0.0, 0.0, 0.0, 0.0, 0.0, 0.0, 0.0, 0.0, 0.0, 1.7074741223965087E9, 0.0, 2024-02-09 11:22:02.396
220.0, -18620.232477215824, -7423.215499307573, 12929.053655749996, -3979.92926596752, 44954.588407825046, 15558.065838583212, 32185.93087028633, 6660.037536625569, 26378.142997997165, 4838.258604795767, 38812.23962452884, 26892.27782395814, 38626.943662994345, 32186.064980753064, 26735.547391837525, 24620.334758798454, 0.08, 0.994, 0.26, 192.0, 1.0, 64.0, 15.5, 8.0, 4.0, 16.0, 0.0, 0.0, 0.0, 1.7074741224045181E9, 0.0, 2024-02-09 11:22:02.404
222.0, -18586.704860532864, -7390.157269258174, 12956.211025263194, -3966.0935361496854, 44787.509118021626, 15564.279623541788, 32131.30320683756, 6610.215498234689, 26063.363380833078, 4759.245188146257, 38334.091107140914, 26812.34798578596, 38020.85376034424, 31928.55053288347, 26489.9017202737, 24349.811595655872, 0.08, 0.994, 0.26, 192.0, 0.0, 0.0, 0.0, 0.0, 0.0, 0.0, 0.0, 0.0, 0.0, 1.7074741224135213E9, 0.0, 2024-02-09 11:22:02.413
224.0, -18525.99752259225, -7313.200213098552, 12984.396575021336, -3987.3053416377716, 45139.05735481469, 15622.505917847862, 32314.788677071178, 6762.073250064046, 26365.715428080017, 4870.400413322498, 38719.99397516179, 26919.166972537874, 38424.68272741827, 32138.27695110762, 26703.159714121786, 24545.724635806637, 0.08, 0.994, 0.26, 192.0, 0.0, 0.0, 0.0, 0.0, 0.0, 0.0, 0.0, 0.0, 0.0, 1.7074741224215796E9, 0.0, 2024-02-09 11:22:02.421
226.0, -18602.999282240784, -7422.209670807085, 12910.680521807733, -3969.7145187514448, 44740.01166105409, 15523.39828293303, 32097.14974130985, 6575.950273984704, 26218.57389433073, 4791.789328073183, 38587.671647986375, 26845.83089898001, 38379.21927919618, 32057.49774664614, 26616.70316656866, 24507.61491151034, 0.08, 0.994, 0.26, 192.0, 0.0, 0.0, 0.0, 0.0, 0.0, 0.0, 0.0, 0.0, 0.0, 1.7074741224285653E9, 0.0, 2024-02-09 11:22:02.428
228.0, -18492.156981486914, -7279.158506293119, 12988.419889023291, -3982.030329946319, 45014.44637947636, 15610.123051419623, 32239.731519190256, 6711.133624450401, 26177.983126399893, 4824.177005788923, 38421.79935238354, 26864.539309089105, 38048.033481601895, 31989.928423157744, 26538.740281908547, 24363.24499407351, 0.08, 0.994, 0.26, 192.0, 0.0, 0.0, 0.0, 0.0, 0.0, 0.0, 0.0, 0.0, 0.0, 1.7074741224365752E9, 0.0, 2024-02-09 11:22:02.436
230.0, -18539.475624498802, -7349.499446093971, 12943.559937901491, -3963.9254169375204, 44958.45525961581, 15568.235882310377, 32197.173797747353, 6662.160952348823, 26410.642434435184, 4884.258494884789, 38827.30470029172, 26923.503210962204, 38622.56272108111, 32199.252509981696, 26733.66984530328, 24615.55148548502, 0.08, 1.002, 0.258, 192.0, 1.0, 64.0, 15.5, 40.0, 4.0, 8.0, 0.0, 0.0, 0.0, 1.707474122445552E9, 0.0, 2024-02-09 11:22:02.445
232.0, -18527.76331040422, -7335.037867431387, 12968.61624343589, -3954.7164982219338, 44787.6208767439, 15557.395286249553, 32135.97472142872, 6611.288381968544, 26094.07467771467, 4793.778633329705, 38355.88405798484, 26831.659892995347, 38016.025783541896, 31946.253114492076, 26499.20004596711, 24361.47920626154, 0.08, 1.002, 0.258, 192.0, 0.0, 0.0, 0.0, 0.0, 0.0, 0.0, 0.0, 0.0, 0.0, 1.707474122452536E9, 0.0, 2024-02-09 11:22:02.452
234.0, -18465.960736985297, -7249.967128034488, 13008.58116252198, -3964.1712861265287, 45149.16034330849, 15622.684731803505, 32323.997595786765, 6764.978976843236, 26388.581262657794, 4904.665637572484, 38736.42250733644, 26940.512888492693, 38415.16088428031, 32164.696713053792, 26700.544560020517, 24542.483632860618, 0.08, 1.002, 0.258, 192.0, 0.0, 0.0, 0.0, 0.0, 0.0, 0.0, 0.0, 0.0, 0.0, 1.7074741224608412E9, 0.0, 2024-02-09 11:22:02.460
236.0, -18556.887633429484, -7370.845362048789, 12927.153757471295, -3957.7563354678555, 44751.366347237396, 15520.44785266493, 32087.896119105357, 6589.741300313628, 26237.572877117742, 4831.754247159272, 38612.81736049859, 26868.473216113238, 38372.8043285375, 32075.423845699293, 26628.2366667076, 24522.679987273215, 0.08, 1.002, 0.258, 192.0, 0.0, 0.0, 0.0, 0.0, 0.0, 0.0, 0.0, 0.0, 0.0, 1.7074741224685795E9, 0.0, 2024-02-09 11:22:02.468
238.0, -18454.06960893507, -7234.700886571513, 13003.216743852705, -3976.3082833657604, 45030.56198722863, 15607.485545573896, 32267.492385803747, 6720.923688521825, 26188.17552187151, 4844.092410098602, 38435.14334382336, 26872.720047559746, 38030.53206569339, 31993.19177784822, 26533.19704928363, 24360.67454346115, 0.08, 1.002, 0.258, 192.0, 0.0, 0.0, 0.0, 0.0, 0.0, 0.0, 0.0, 0.0, 0.0, 1.707474122476612E9, 0.0, 2024-02-09 11:22:02.476
240.0, -18500.5165339132, -7305.220640328007, 12959.966118331686, -3956.3928790560817, 44979.28708544816, 15573.84617016866, 32217.692699157324, 6698.3037231330545, 26427.80857417686, 4902.676332315962, 38847.62243600159, 26938.32241753607, 38629.0670787176, 32210.741306631724, 26743.124633207874, 24624.089851866946, 0.076, 1.008, 0.262, 192.0, 1.0, 48.0, 15.5, 64.0, 4.0, 24.0, 0.0, 0.0, 0.0, 1.7074741224846253E9, 0.0, 2024-02-09 11:22:02.484
242.0, -18495.12976349947, -7297.509288490926, 12974.04771733853, -3952.4142685430375, 44795.734559981174, 15561.396248507053, 32122.69778522227, 6609.12026275638, 26111.106706989613, 4806.250906735767, 38368.80336628001, 26843.8862972124, 38036.790554140876, 31952.153975028275, 26494.349717420308, 24359.44519751611, 0.076, 1.008, 0.262, 192.0, 0.0, 0.0, 0.0, 0.0, 0.0, 0.0, 0.0, 0.0, 0.0, 1.7074741224928749E9, 0.0, 2024-02-09 11:22:02.492
244.0, -18441.08324540654, -7225.603726578203, 13008.648217755344, -3964.908893693554, 45151.59668345412, 15636.252240687876, 32307.77022931221, 6774.05378509209, 26410.150696057168, 4915.617992355585, 38741.63046379453, 26944.066815861086, 38437.37851826889, 32166.328390399027, 26699.56108326448, 24537.879173502824, 0.076, 1.008, 0.262, 192.0, 0.0, 0.0, 0.0, 0.0, 0.0, 0.0, 0.0, 0.0, 0.0, 1.7074741225016727E9, 0.0, 2024-02-09 11:22:02.501
246.0, -18538.80507216514, -7358.17192294263, 12937.36850468737, -3949.329727808205, 44750.82990537047, 15536.384646461565, 32071.6687526308, 6596.513878883587, 26260.081083784233, 4838.705639684873, 38620.528712335676, 26869.769617291644, 38400.252270728626, 32082.10701729143, 26633.869306310335, 24530.324283876933, 0.076, 1.008, 0.262, 192.0, 0.0, 0.0, 0.0, 0.0, 0.0, 0.0, 0.0, 0.0, 0.0, 1.707474122508696E9, 0.0, 2024-02-09 11:22:02.508
248.0, -18448.638135032434, -7230.834034780745, 13019.019427182608, -3966.1605913830513, 45019.92255686791, 15613.878144488115, 32234.791783665634, 6707.244420915177, 26200.558388299753, 4846.551101988685, 38437.95966362472, 26875.335201661015, 38052.30266479286, 32003.04889715301, 26543.25533428852, 24367.782398197938, 0.076, 1.008, 0.262, 192.0, 0.0, 0.0, 0.0, 0.0, 0.0, 0.0, 0.0, 0.0, 0.0, 1.7074741225166984E9, 0.0, 2024-02-09 11:22:02.516
250.0, -18528.47856622679, -7325.627783015702, 12958.379144475359, -3960.393841313582, 44971.016939999696, 15565.46426599792, 32193.597518634502, 6670.967539664214, 26432.27892306792, 4892.998026966814, 38848.51650577981, 26929.94051336533, 38640.734689323275, 32203.47698968375, 26747.25970593211, 24621.11706985439, 0.07, 1.006, 0.256, 192.0, 1.0, 24.0, 15.5, 56.0, 4.0, 0.0, 0.0, 0.0, 0.0, 1.7074741225246708E9, 0.0, 2024-02-09 11:22:02.524
252.0, -18541.263764055224, -7336.334268609795, 12965.107019556406, -3965.8029634717664, 44784.357522053426, 15539.55859417422, 32103.631747201893, 6584.287474666533, 26101.02607024027, 4786.938999526382, 38361.4049388653, 26828.39653830487, 38032.00728082744, 31941.045158033987, 26498.462438400085, 24348.559897966374, 0.07, 1.006, 0.256, 192.0, 0.0, 0.0, 0.0, 0.0, 0.0, 0.0, 0.0, 0.0, 0.0, 1.7074741225327203E9, 0.0, 2024-02-09 11:22:02.532
254.0, -18498.169600745394, -7270.307215488818, 12998.47817402818, -3981.4044811015706, 45148.06510783018, 15608.334911863198, 32285.418484856906, 6732.032505516113, 26374.343201439766, 4881.106898916591, 38714.070762881136, 26913.46727770177, 38408.58947141045, 32141.56265754255, 26690.95566164919, 24512.0852604014, 0.07, 1.006, 0.256, 192.0, 0.0, 0.0, 0.0, 0.0, 0.0, 0.0, 0.0, 0.0, 0.0, 1.707474122540794E9, 0.0, 2024-02-09 11:22:02.540
0.0, -18588.090668689092, -7394.292341982406, 12930.104187739396, -3966.6299780166128, 44761.223466542186, 15516.290428196244, 32078.24016550066, 6576.665529807274, 26226.70992931246, 4811.458863193853, 38601.82030222658, 26846.8367274805, 38389.121101989884, 32057.408339668316, 26627.275541696017, 24505.580902764905, 0.07, 1.006, 0.256, 192.0, 0.0, 0.0, 0.0, 0.0, 0.0, 0.0, 0.0, 0.0, 0.0, 1.7074741225486984E9, 0.0, 2024-02-09 11:22:02.548
2.0, -18489.720641341286, -7263.57934040777, 13007.57533402149, -3978.8787339781206, 45036.3287372981, 15603.596342038672, 32269.034656171163, 6717.906203020359, 26171.121140852112, 4818.700828397373, 38414.08800054646, 26850.59182054899, 38036.567036696324, 31979.870138152855, 26542.830651143868, 24348.62695319974, 0.07, 1.006, 0.256, 192.0, 0.0, 0.0, 0.0, 0.0, 0.0, 0.0, 0.0, 0.0, 0.0, 1.7074741225577252E9, 0.0, 2024-02-09 11:22:02.557
4.0, -18556.932336918395, -7349.79001877189, 12952.6570978948, -3971.748527496878, 44985.63498087347, 15564.681954941983, 32217.692699157324, 6692.827545741505, 26408.362556500742, 4881.486878572331, 38827.39410726954, 26910.42744045585, 38626.83190427207, 32204.549873417604, 26752.355903667918, 24607.706023181203, 0.07200000000000001, 1.002, 0.252, 192.0, 1.0, 32.0, 15.5, 40.0, 3.5, 112.0, 0.0, 0.0, 0.0, 1.70747412256468E9, 0.0, 2024-02-09 11:22:02.564
6.0, -18583.508561075756, -7371.8735422937325, 12969.018574836085, -3970.6756437630233, 44786.458586032226, 15551.092094313157, 32120.373203798918, 6616.295172726533, 26079.41193335199, 4772.99151098627, 38342.048328167, 26807.40825026134, 38031.94022559407, 31939.145259755285, 26505.078554758857, 24346.324723520844, 0.07200000000000001, 1.002, 0.252, 192.0, 0.0, 0.0, 0.0, 0.0, 0.0, 0.0, 0.0, 0.0, 0.0, 1.7074741225727787E9, 0.0, 2024-02-09 11:22:02.572
8.0, -18585.45316284337, -7348.31480363784, 12992.443203025246, -3995.7543010418776, 45141.448991471414, 15612.984074709902, 32299.231862930283, 6767.124744310945, 26348.862212760712, 4866.712375487373, 38692.76955041523, 26894.960033292777, 38410.578776666975, 32141.450898820272, 26693.32494656145, 24510.90061794527, 0.07200000000000001, 1.002, 0.252, 192.0, 0.0, 0.0, 0.0, 0.0, 0.0, 0.0, 0.0, 0.0, 0.0, 1.7074741225807652E9, 0.0, 2024-02-09 11:22:02.580
10.0, -18750.833720068185, -7550.553387469457, 12909.384120629325, -3994.681417308023, 44741.24100699914, 15498.789012287738, 32088.34315399446, 6572.485753594131, 26172.37283854161, 4757.859379990027, 38557.675606927354, 26792.25376752064, 38393.70320960322, 32049.562877364504, 26616.189076446186, 24492.84040842538, 0.07200000000000001, 1.002, 0.252, 192.0, 0.0, 0.0, 0.0, 0.0, 0.0, 0.0, 0.0, 0.0, 0.0, 1.7074741225887384E9, 0.0, 2024-02-09 11:22:02.588
12.0, -18707.359577102612, -7476.904389489221, 12971.544321959534, -4017.41314141907, 45001.32590548109, 15588.419507553519, 32230.433193496847, 6702.595258068473, 26081.26712814178, 4736.401705312933, 38336.885075197824, 26765.54343289655, 38022.55249292284, 31956.266696008053, 26518.891932832234, 24329.33739773481, 0.07200000000000001, 1.002, 0.252, 192.0, 0.0, 0.0, 0.0, 0.0, 0.0, 0.0, 0.0, 0.0, 0.0, 1.7074741225967362E9, 0.0, 2024-02-09 11:22:02.596
14.0, -18789.032851342305, -7584.036300663508, 12912.669827064256, -4007.0866354807185, 44969.049986487626, 15554.444855981454, 32200.303041971096, 6677.002510667147, 26305.835104684247, 4774.310263909133, 38740.28935912721, 26808.950520628754, 38607.67645927387, 32171.581050346023, 26718.85063872941, 24588.39411597182, 0.07200000000000001, 1.002, 0.252, 192.0, 1.0, 32.0, 15.5, 40.0, 3.5, 112.0, 0.0, 0.0, 0.0, 1.7074741226048343E9, 0.0, 2024-02-09 11:22:02.604
16.0, -18796.09600259018, -7594.720434513144, 12916.402568388292, -4009.992362259908, 44769.314798035004, 15526.572230645685, 32097.01563084312, 6590.076576480458, 25974.09051347858, 4668.49710565771, 38256.48585039209, 26706.803048468002, 38009.61083288322, 31913.306643164953, 26476.04363871141, 24328.018644811946, 0.07200000000000001, 1.002, 0.252, 192.0, 0.0, 0.0, 0.0, 0.0, 0.0, 0.0, 0.0, 0.0, 0.0, 1.7074741226138828E9, 0.0, 2024-02-09 11:22:02.613
18.0, -18736.014513494316, -7513.069512017908, 12955.674583396267, -4024.610403133679, 45139.03500307024, 15586.385498808088, 32290.805255270632, 6726.1316449799115, 26250.112205757167, 4763.46966784831, 38607.385886595956, 26802.98260485919, 38375.24066868313, 32115.07584036301, 26657.383341477318, 24485.17376007721, 0.07200000000000001, 1.002, 0.252, 192.0, 0.0, 0.0, 0.0, 0.0, 0.0, 0.0, 0.0, 0.0, 0.0, 1.7074741226198747E9, 0.0, 2024-02-09 11:22:02.619
20.0, -18810.66933997504, -7626.884594784331, 12898.431765846226, -3992.6027050736793, 44761.40228049782, 15518.659713108507, 32093.037020330077, 6611.623658135374, 26120.963826294403, 4695.006274581704, 38514.112056983955, 26742.409377385306, 38372.71492155969, 32042.209153438707, 26608.25420716455, 24493.55566424795, 0.07200000000000001, 1.002, 0.252, 192.0, 0.0, 0.0, 0.0, 0.0, 0.0, 0.0, 0.0, 0.0, 0.0, 1.707474122628864E9, 0.0, 2024-02-09 11:22:02.628
22.0, -18695.55785603021, -7480.435965113159, 12978.182790062761, -4005.3431994132043, 45020.83897839057, 15598.544847791774, 32250.28154257316, 6722.153034466867, 26063.63160176654, 4706.584478209553, 38324.21163609167, 26757.206232214718, 38013.05300152934, 31950.052911049475, 26522.602322411814, 24345.00597059798, 0.07200000000000001, 1.002, 0.252, 192.0, 0.0, 0.0, 0.0, 0.0, 0.0, 0.0, 0.0, 0.0, 0.0, 1.7074741226368573E9, 0.0, 2024-02-09 11:22:02.636
24.0, -18720.07771969768, -7526.1899860131725, 12929.903022039298, -3992.937981240509, 44981.43285291587, 15568.213530565923, 32200.14657975991, 6694.570981809018, 26328.857401473215, 4774.377319142499, 38765.41271989497, 26828.530648771604, 38612.0126976982, 32159.734625784713, 26728.417185356284, 24607.2589882921, 0.07600000000000001, 1.002, 0.255, 192.0, 1.0, 64.0, 15.5, 40.0, 4.0, 8.0, 0.0, 0.0, 0.0, 1.707474122644861E9, 0.0, 2024-02-09 11:22:02.644
26.0, -18691.69100423944, -7498.898506033243, 12945.728057113654, -3990.3451788836933, 44782.94936215274, 15546.465283210908, 32090.913604606823, 6594.368111415877, 26015.91062735446, 4694.000446081215, 38300.94347011369, 26743.10228146342, 38023.53596967888, 31909.64095707428, 26481.38570563623, 24340.781490895926, 0.07600000000000001, 1.002, 0.255, 192.0, 0.0, 0.0, 0.0, 0.0, 0.0, 0.0, 0.0, 0.0, 0.0, 1.7074741226529317E9, 0.0, 2024-02-09 11:22:02.652
28.0, -18609.48128813282, -7396.885144339221, 12983.033118609563, -4004.717350568456, 45153.45187824391, 15609.497202574874, 32292.25811866023, 6749.869197591448, 26304.851627928216, 4805.245078235278, 38660.62774188849, 26851.128262415918, 38388.65171535632, 32125.35764281245, 26669.0956555719, 24500.46235328464, 0.07600000000000001, 1.002, 0.255, 192.0, 0.0, 0.0, 0.0, 0.0, 0.0, 0.0, 0.0, 0.0, 0.0, 1.707474122660983E9, 0.0, 2024-02-09 11:22:02.660
30.0, -18672.110876096594, -7491.298912918439, 12925.611487103879, -3970.9215129520317, 44767.012568356105, 15526.683989367963, 32087.985526083176, 6606.415701677287, 26194.836341719194, 4752.182036898379, 38587.06815088608, 26803.20612230374, 38406.64486964284, 32063.465662415703, 26624.526277128018, 24516.689719759193, 0.07600000000000001, 1.002, 0.255, 192.0, 0.0, 0.0, 0.0, 0.0, 0.0, 0.0, 0.0, 0.0, 0.0, 1.7074741226689453E9, 0.0, 2024-02-09 11:22:02.668
32.0, -18556.82057819612, -7342.436294846094, 12999.372243806392, -3986.5900858152017, 45014.96046959883, 15598.969530936425, 32226.52163821717, 6687.597237538963, 26130.262151987812, 4774.913761009427, 38387.98116302266, 26817.622997477414, 38030.80028662685, 31980.85361490889, 26528.145555036732, 24353.991371869015, 0.07600000000000001, 1.002, 0.255, 192.0, 0.0, 0.0, 0.0, 0.0, 0.0, 0.0, 0.0, 0.0, 0.0, 1.7074741226783288E9, 0.0, 2024-02-09 11:22:02.678
34.0, -18585.855494243562, -7391.230152992029, 12947.963231559186, -3969.7592222403555, 44979.08591974806, 15571.096905600656, 32199.878358826445, 6686.949036949759, 26390.279995236397, 4847.892206656004, 38819.45923798791, 26890.623794868447, 38627.01071822771, 32204.48281818424, 26735.52504009307, 24606.990767358635, 0.07800000000000001, 1.005, 0.2545, 192.0, 1.0, 64.0, 15.5, 64.0, 3.5, 120.0, 0.0, 0.0, 0.0, 1.707474122684965E9, 0.0, 2024-02-09 11:22:02.684
36.0, -18568.15291263496, -7376.008615017965, 12959.027345064564, -3957.0187279008305, 44767.68312068977, 15563.430257252487, 32099.809598900036, 6632.991925834647, 26080.3060031302, 4760.452182346843, 38352.30777887199, 26807.765878172624, 38040.344481509266, 31952.824527361936, 26495.556711620895, 24364.09436036281, 0.07800000000000001, 1.005, 0.2545, 192.0, 0.0, 0.0, 0.0, 0.0, 0.0, 0.0, 0.0, 0.0, 0.0, 1.7074741226932733E9, 0.0, 2024-02-09 11:22:02.693
38.0, -18501.634121135965, -7287.071023830298, 12990.744470446643, -3979.392824100593, 45140.398459482014, 15624.629333571118, 32298.38249664098, 6780.155811328389, 26366.095407735756, 4872.076794156646, 38700.10092259657, 26914.13783003543, 38391.37862817987, 32156.761843772158, 26679.13158883233, 24526.90446697527, 0.07800000000000001, 1.005, 0.2545, 192.0, 0.0, 0.0, 0.0, 0.0, 0.0, 0.0, 0.0, 0.0, 0.0, 1.7074741226999218E9, 0.0, 2024-02-09 11:22:02.699
40.0, -18585.83314249911, -7407.390464233215, 12919.308295167482, -3966.026480916319, 44751.008719326106, 15516.178669473968, 32069.38887469636, 6579.6159600753745, 26243.67490335404, 4802.294647967177, 38611.364497108996, 26848.155480403362, 38404.61086089741, 32077.63666840037, 26622.760489316046, 24523.70816751816, 0.07800000000000001, 1.005, 0.2545, 192.0, 0.0, 0.0, 0.0, 0.0, 0.0, 0.0, 0.0, 0.0, 0.0, 1.7074741227080197E9, 0.0, 2024-02-09 11:22:02.708
42.0, -18477.13660921295, -7266.172142764586, 13001.04862464054, -3971.2791408633166, 45015.42985623239, 15600.37769083711, 32230.56730396358, 6709.367836638432, 26167.924841395004, 4813.582278917108, 38406.42135219829, 26855.911535729356, 38029.369774981715, 31981.881795153833, 26526.156249780208, 24355.466587003066, 0.07800000000000001, 1.005, 0.2545, 192.0, 0.0, 0.0, 0.0, 0.0, 0.0, 0.0, 0.0, 0.0, 0.0, 1.707474122717013E9, 0.0, 2024-02-09 11:22:02.717
44.0, -18527.24922028175, -7337.317745365828, 12945.191615246727, -3971.7038240079673, 44993.7710158552, 15557.194120549455, 32200.481855926737, 6678.969464179214, 26415.51511472644, 4881.688044272429, 38836.15599109602, 26925.201943540807, 38638.477163133284, 32198.04551578111, 26751.126557722877, 24623.754575700113, 0.07700000000000001, 1.0065, 0.25325, 192.0, 1.0, 48.0, 15.5, 64.0, 3.5, 112.0, 0.0, 0.0, 0.0, 1.7074741227250404E9, 0.0, 2024-02-09 11:22:02.725
46.0, -18513.14526953045, -7323.437312059083, 12959.22851076466, -3956.6610999895456, 44784.51398426462, 15553.595489692152, 32115.00878512964, 6619.513823928097, 26089.82784626816, 4786.134336725991, 38365.070624955966, 26828.485945282693, 38046.93824612359, 31940.531067911517, 26506.33025244835, 24364.63080222974, 0.07700000000000001, 1.0065, 0.25325, 192.0, 0.0, 0.0, 0.0, 0.0, 0.0, 0.0, 0.0, 0.0, 0.0, 1.7074741227320173E9, 0.0, 2024-02-09 11:22:02.732
48.0, -18449.196928643814, -7234.991459249432, 12990.945636146742, -3973.715481008945, 45155.19531431142, 15624.361112637653, 32301.601147842546, 6761.5815116860285, 26372.420951416607, 4900.530564848253, 38717.132951871514, 26938.344769280528, 38396.966564293696, 32147.12824191192, 26690.933309904733, 24527.731481520117, 0.07700000000000001, 1.0065, 0.25325, 192.0, 0.0, 0.0, 0.0, 0.0, 0.0, 0.0, 0.0, 0.0, 0.0, 1.7074741227410192E9, 0.0, 2024-02-09 11:22:02.741
50.0, -18534.33472327408, -7355.936748497099, 12922.12461496885, -3947.9662713964312, 44777.04850161654, 15543.492501198352, 32093.171130796807, 6606.236887721645, 26255.297810470798, 4840.247910052289, 38640.91350327891, 26883.493588387202, 38419.318308749, 32081.54822368005, 26637.71380635665, 24534.861688001358, 0.07700000000000001, 1.0065, 0.25325, 192.0, 0.0, 0.0, 0.0, 0.0, 0.0, 0.0, 0.0, 0.0, 0.0, 1.7074741227493477E9, 0.0, 2024-02-09 11:22:02.749
52.0, -18437.194041871317, -7226.877776012156, 13002.456784541224, -3962.137277381096, 45034.25002506376, 15623.444691114986, 32249.633341983958, 6733.2842032056105, 26185.09098113668, 4850.485009012819, 38434.67395718979, 26891.94254779131, 38035.315339006826, 31988.944946401713, 26543.456499988617, 24378.041848902925, 0.07700000000000001, 1.0065, 0.25325, 192.0, 0.0, 0.0, 0.0, 0.0, 0.0, 0.0, 0.0, 0.0, 0.0, 1.7074741227560296E9, 0.0, 2024-02-09 11:22:02.756
54.0, -18492.022871020185, -7293.418919255605, 12953.819388606476, -3960.0809168912074, 45014.356972498535, 15575.880178914093, 32225.85108588351, 6702.7070167907505, 26438.403301048675, 4918.031980756758, 38868.29779962276, 26957.589621256546, 38632.79982004164, 32224.152353304908, 26757.1168252369, 24631.175354859275, 0.07550000000000001, 1.0042499999999999, 0.251625, 192.0, 1.0, 40.0, 15.5, 40.0, 3.5, 104.0, 0.0, 0.0, 0.0, 1.707474122764046E9, 0.0, 2024-02-09 11:22:02.764
56.0, -18486.881969795464, -7291.362558765717, 12965.129371300862, -3953.487152276892, 44803.13298739588, 15555.2718705263, 32125.827029446013, 6608.248544722623, 26116.22525646988, 4822.85825286606, 38397.83828232745, 26857.74437877469, 38051.85562990375, 31964.00039958959, 26509.235979227542, 24369.749351710005, 0.07550000000000001, 1.0042499999999999, 0.251625, 192.0, 0.0, 0.0, 0.0, 0.0, 0.0, 0.0, 0.0, 0.0, 0.0, 1.7074741227730446E9, 0.0, 2024-02-09 11:22:02.773
58.0, -18421.346655052505, -7205.375397846151, 13001.026272896084, -3970.586236785202, 45176.60828549961, 15618.974342223924, 32318.58847362858, 6765.269549521155, 26403.623986676215, 4925.475111660375, 38742.97156846185, 26958.059007890108, 38394.39611368133, 32156.11364318295, 26684.38424877933, 24518.991949438092, 0.07550000000000001, 1.0042499999999999, 0.251625, 192.0, 0.0, 0.0, 0.0, 0.0, 0.0, 0.0, 0.0, 0.0, 0.0, 1.7074741227801309E9, 0.0, 2024-02-09 11:22:02.780
60.0, -18506.931484571873, -7323.9737539260095, 12936.340324442426, -3947.16160859604, 44796.025132659095, 15524.1135387556, 32107.49859899266, 6600.268971952078, 26296.357965035197, 4864.857180697582, 38677.771529885715, 26904.23600724173, 38441.80416367104, 32104.16818906882, 26641.871230825334, 24536.783938024517, 0.07550000000000001, 1.0042499999999999, 0.251625, 192.0, 0.0, 0.0, 0.0, 0.0, 0.0, 0.0, 0.0, 0.0, 0.0, 1.70747412278813E9, 0.0, 2024-02-09 11:22:02.788
62.0, -18419.53616375162, -7202.179098389041, 13008.938790433263, -3966.8311437167104, 45038.72037395482, 15597.047280913268, 32248.448699527828, 6705.0539499585575, 26217.81393501925, 4867.271169098755, 38453.06944287651, 26905.37594620895, 38048.8828478912, 31999.76319071808, 26532.235924272052, 24357.813520170872, 0.07550000000000001, 1.0042499999999999, 0.251625, 192.0, 0.0, 0.0, 0.0, 0.0, 0.0, 0.0, 0.0, 0.0, 0.0, 1.7074741227961397E9, 0.0, 2024-02-09 11:22:02.796
64.0, -18475.37082140098, -7276.63275916967, 12949.550205415513, -3966.4064605720596, 45024.839940648075, 15556.50121647134, 32217.55858869059, 6676.9354554337815, 26463.95134496109, 4925.005725026814, 38878.132567183085, 26964.42925505987, 38650.860029561525, 32213.199998521806, 26742.11880470739, 24616.177334329765, 0.07675000000000001, 1.000125, 0.2538125, 192.0, 1.0, 56.0, 15.5, 16.0, 4.0, 0.0, 0.0, 0.0, 0.0, 1.707474122805161E9, 0.0, 2024-02-09 11:22:02.805
66.0, -18479.37178365848, -7288.233314541974, 12955.004031062608, -3957.935149423498, 44809.27971712109, 15534.104768527124, 32116.349889796962, 6590.97064625867, 26130.060986287714, 4814.074017295125, 38397.63711662735, 26857.40910260786, 38059.47757476301, 31951.997512817088, 26493.679165086647, 24362.507386506488, 0.07675000000000001, 1.000125, 0.2538125, 192.0, 0.0, 0.0, 0.0, 0.0, 0.0, 0.0, 0.0, 0.0, 0.0, 1.707474122812102E9, 0.0, 2024-02-09 11:22:02.812
68.0, -18423.559477753577, -7206.895316469111, 12994.745432704143, -3978.4316990890147, 45183.87260244758, 15599.550676292263, 32307.591415356568, 6735.966412540247, 26393.588053415784, 4918.411960412498, 38722.49737054078, 26955.80148170012, 38384.11431123189, 32146.25652387816, 26671.241423039606, 24512.599350523873, 0.07675000000000001, 1.000125, 0.2538125, 192.0, 0.0, 0.0, 0.0, 0.0, 0.0, 0.0, 0.0, 0.0, 0.0, 1.7074741228202624E9, 0.0, 2024-02-09 11:22:02.820
70.0, -18514.57578117559, -7331.238070873985, 12923.152795213795, -3958.06925989023, 44805.9269554528, 15507.953227514414, 32098.893177377366, 6592.870544537372, 26278.409514237585, 4852.63077648053, 38656.626779631, 26897.195207738307, 38426.96260535272, 32086.555014438036, 26635.970370289135, 24531.888905988802, 0.07675000000000001, 1.000125, 0.2538125, 192.0, 0.0, 0.0, 0.0, 0.0, 0.0, 0.0, 0.0, 0.0, 0.0, 1.7074741228291512E9, 0.0, 2024-02-09 11:22:02.829
72.0, -18422.01720738616, -7205.844784479712, 13002.47913628568, -3968.9545594399647, 45050.72326072732, 15592.196952366467, 32248.62751348347, 6725.61755485744, 26194.07638240771, 4858.352823061088, 38432.43878274426, 26898.782181594634, 38032.8789988612, 31986.016867878065, 26526.223305013576, 24354.81838641386, 0.07675000000000001, 1.000125, 0.2538125, 192.0, 0.0, 0.0, 0.0, 0.0, 0.0, 0.0, 0.0, 0.0, 0.0, 1.707474122836182E9, 0.0, 2024-02-09 11:22:02.836
74.0, -18478.790638302642, -7280.6560731716245, 12948.27615598156, -3969.7592222403555, 45039.659147221944, 15558.848149639149, 32218.832638124546, 6715.067531474535, 26447.433405808617, 4922.569384881185, 38864.52035480981, 26965.8150632161, 38640.868799790005, 32209.735478131235, 26742.96817099669, 24625.810936190002, 0.076375, 0.9980625, 0.25590625, 192.0, 1.0, 48.0, 15.5, 16.0, 4.0, 8.0, 0.0, 0.0, 0.0, 1.7074741228452094E9, 0.0, 2024-02-09 11:22:02.845
76.0, -18488.37953667397, -7293.06129134432, 12953.193539761727, -3969.870980962632, 44819.4274091038, 15523.957076544415, 32125.804677701555, 6602.325332441966, 26113.587750624152, 4815.459825451354, 38379.93453501875, 26854.861003739956, 38052.25796130395, 31941.268675478543, 26494.103848231298, 24360.898060905703, 0.076375, 0.9980625, 0.25590625, 192.0, 0.0, 0.0, 0.0, 0.0, 0.0, 0.0, 0.0, 0.0, 0.0, 1.707474122854236E9, 0.0, 2024-02-09 11:22:02.854
78.0, -18421.59252424151, -7203.654313523092, 13001.518011274102, -3976.4647455769477, 45196.166061898, 15616.51565033384, 32338.05684304915, 6803.580439517551, 26391.576396414806, 4926.860919816604, 38711.72382971333, 26956.29322007814, 38391.24451771314, 32143.686073265802, 26681.813798166968, 24518.70137676017, 0.076375, 0.9980625, 0.25590625, 192.0, 0.0, 0.0, 0.0, 0.0, 0.0, 0.0, 0.0, 0.0, 0.0, 1.7074741228622308E9, 0.0, 2024-02-09 11:22:02.862
80.0, -18524.477603969288, -7337.630669788203, 12930.908850539787, -3953.777724954811, 44813.437141589784, 15516.983332274358, 32119.79205844308, 6618.664457638795, 26282.946918362013, 4868.34405283261, 38648.17782022689, 26904.213655497275, 38431.768230410606, 32094.10990406393, 26641.670065125236, 24537.85682175837, 0.076375, 0.9980625, 0.25590625, 192.0, 0.0, 0.0, 0.0, 0.0, 0.0, 0.0, 0.0, 0.0, 0.0, 1.707474122869254E9, 0.0, 2024-02-09 11:22:02.869
82.0, -18442.35729484049, -7220.731046286946, 13004.647255497845, -3968.4404693174924, 45053.02549040622, 15595.057975656746, 32259.19988861083, 6731.138435737901, 26185.828588703705, 4858.732802716828, 38416.05495405853, 26898.022222283154, 38024.13946677917, 31986.82153067846, 26533.889953361744, 24367.044790630913, 0.076375, 0.9980625, 0.25590625, 192.0, 0.0, 0.0, 0.0, 0.0, 0.0, 0.0, 0.0, 0.0, 0.0, 1.7074741228762827E9, 0.0, 2024-02-09 11:22:02.876
84.0, -18508.33964447256, -7306.427634528593, 12960.882539854354, -3968.2169518729393, 45050.38798456049, 15559.60810895063, 32238.502173245215, 6719.113197220945, 26439.453833038075, 4919.2613267018, 38850.952845925436, 26956.47203403378, 38626.60838682752, 32207.813228108076, 26745.38215939786, 24622.63698847735, 0.07718749999999999, 1.00003125, 0.254953125, 192.0, 1.0, 56.0, 15.5, 40.0, 3.5, 120.0, 0.0, 0.0, 0.0, 1.7074741228854454E9, 0.0, 2024-02-09 11:22:02.885
86.0, -18535.161737818926, -7330.656925518147, 12969.063278324997, -3961.6231872586236, 44816.11935092442, 15536.675219139484, 32123.100116622463, 6623.69360014124, 26105.585826109153, 4807.837880592094, 38370.12211920287, 26842.45578556726, 38056.03540611689, 31949.918800582745, 26507.71606060458, 24370.554014510395, 0.07718749999999999, 1.00003125, 0.254953125, 192.0, 0.0, 0.0, 0.0, 0.0, 0.0, 0.0, 0.0, 0.0, 0.0, 1.7074741228922725E9, 0.0, 2024-02-09 11:22:02.892
88.0, -18524.075272569095, -7291.519020976904, 12998.768746706099, -3986.143050926096, 45194.646143275044, 15604.08808041669, 32339.330892483104, 6785.497878253207, 26361.736817566973, 4897.468375857875, 38689.170919557924, 26930.90163837691, 38378.34756116242, 32136.444108062282, 26682.685516200727, 24510.72180398963, 0.07718749999999999, 1.00003125, 0.254953125, 192.0, 0.0, 0.0, 0.0, 0.0, 0.0, 0.0, 0.0, 0.0, 0.0, 1.7074741229002633E9, 0.0, 2024-02-09 11:22:02.900
90.0, -18683.64437623553, -7480.190095924151, 12910.948742741197, -3974.1848676425066, 44806.70926650873, 15506.54506761373, 32113.935901395787, 6606.125128999368, 26218.685653053006, 4805.915630568938, 38599.406313825406, 26846.814375736045, 38427.36493675291, 32071.713456119713, 26632.17057373173, 24526.07745243042, 0.07718749999999999, 1.00003125, 0.254953125, 192.0, 0.0, 0.0, 0.0, 0.0, 0.0, 0.0, 0.0, 0.0, 0.0, 1.707474122908357E9, 0.0, 2024-02-09 11:22:02.908
92.0, -18665.293594037725, -7429.1610633326845, 12960.837836365443, -4015.4685396514583, 45031.545463984665, 15577.377745792599, 32235.551742977113, 6699.913048733837, 26090.811323024194, 4777.193638943868, 38337.68973799822, 26816.863038165935, 38004.11230374721, 31961.005265832577, 26510.62178738377, 24341.943781607602, 0.07718749999999999, 1.00003125, 0.254953125, 192.0, 0.0, 0.0, 0.0, 0.0, 0.0, 0.0, 0.0, 0.0, 0.0, 1.7074741229173388E9, 0.0, 2024-02-09 11:22:02.917
94.0, -18766.211720253435, -7552.810913659444, 12901.98569321462, -4023.4928159109136, 45030.56198722863, 15543.2689837538, 32213.46821945527, 6688.357196850443, 26317.614474012196, 4804.61922939053, 38749.788850520716, 26848.401349592372, 38602.334392349054, 32171.648105579392, 26712.122763648364, 24593.937348596737, 0.07959374999999999, 1.000015625, 0.2584765625, 192.0, 1.0, 72.0, 15.5, 32.0, 4.0, 24.0, 0.0, 0.0, 0.0, 1.707474122924323E9, 0.0, 2024-02-09 11:22:02.924
96.0, -18788.89874087557, -7586.584399531413, 12908.914733995764, -4012.6522198500898, 44799.668467005315, 15523.197117232934, 32093.50640696364, 6602.794719075528, 25979.186711214392, 4689.351283234511, 38266.074748763414, 26737.447290116226, 38018.30566147633, 31924.013128759045, 26469.8969089862, 24346.86116538777, 0.07959374999999999, 1.000015625, 0.2584765625, 192.0, 0.0, 0.0, 0.0, 0.0, 0.0, 0.0, 0.0, 0.0, 0.0, 1.7074741229323373E9, 0.0, 2024-02-09 11:22:02.932
98.0, -18738.60731585113, -7513.270677718006, 12956.635708407845, -4019.737722842422, 45189.28172460577, 15600.355339092654, 32319.14726723996, 6740.481464920219, 26240.47860389693, 4789.71061583884, 38585.995267152226, 26837.918381442832, 38343.03180492303, 32116.528703752603, 26647.50387042807, 24485.397277521763, 0.07959374999999999, 1.000015625, 0.2584765625, 192.0, 0.0, 0.0, 0.0, 0.0, 0.0, 0.0, 0.0, 0.0, 0.0, 1.7074741229403155E9, 0.0, 2024-02-09 11:22:02.940
100.0, -18842.274706634846, -7653.483170686147, 12885.244236617595, -3991.5745248287353, 44804.92112695231, 15515.150489229023, 32097.64147968787, 6588.511954368586, 26129.658654887517, 4727.4386557863545, 38527.52310365714, 26776.495787679647, 38407.427180698774, 32069.522985163094, 26610.467029865627, 24507.346690576876, 0.07959374999999999, 1.000015625, 0.2584765625, 192.0, 0.0, 0.0, 0.0, 0.0, 0.0, 0.0, 0.0, 0.0, 0.0, 1.707474122947337E9, 0.0, 2024-02-09 11:22:02.947
102.0, -18755.840510826172, -7528.894547092265, 12961.933071843752, -4009.5676791152573, 45034.45119076386, 15594.521533789819, 32225.515809716682, 6703.221106913222, 26027.4441274934, 4726.142254607947, 38283.86673734984, 26766.884537563867, 37994.3669431647, 31966.213222290662, 26499.490618645028, 24330.63379891322, 0.07959374999999999, 1.000015625, 0.2584765625, 192.0, 0.0, 0.0, 0.0, 0.0, 0.0, 0.0, 0.0, 0.0, 0.0, 1.7074741229565313E9, 0.0, 2024-02-09 11:22:02.956
104.0, -18793.503200233365, -7578.716585483145, 12926.192632459717, -3998.257696420872, 45045.24708333577, 15570.806332922737, 32227.23689403974, 6717.213298942244, 26290.524159732362, 4786.223743703812, 38726.74420198729, 26834.766785474636, 38607.095313918035, 32191.205881977785, 26718.00127244011, 24605.224979546667, 0.07779687499999999, 0.9970078125, 0.26023828125000004, 192.0, 1.0, 48.0, 15.5, 8.0, 4.0, 24.0, 0.0, 0.0, 0.0, 1.7074741229643822E9, 0.0, 2024-02-09 11:22:02.964
106.0, -18775.867673858127, -7567.987748144597, 12931.869975551364, -3985.427795103526, 44807.89390896486, 15538.798634862738, 32123.25657883365, 6616.496338426631, 25980.639574603985, 4697.3308560050555, 38272.86967907783, 26752.065330989997, 38041.81969664332, 31943.325035968428, 26489.9017202737, 24361.099226605802, 0.07779687499999999, 0.9970078125, 0.26023828125000004, 192.0, 0.0, 0.0, 0.0, 0.0, 0.0, 0.0, 0.0, 0.0, 0.0, 1.7074741229724014E9, 0.0, 2024-02-09 11:22:02.972
108.0, -18683.64437623553, -7449.098819386819, 12972.61720569339, -3998.548269098791, 45184.52080303679, 15614.191068910488, 32313.693441592866, 6772.62327344695, 26261.042208795814, 4813.6046306615635, 38605.73185750626, 26862.661762554857, 38348.150354403304, 32129.31390158104, 26656.75749263257, 24495.52261776002, 0.07779687499999999, 0.9970078125, 0.26023828125000004, 192.0, 0.0, 0.0, 0.0, 0.0, 0.0, 0.0, 0.0, 0.0, 0.0, 1.7074741229793608E9, 0.0, 2024-02-09 11:22:02.979
110.0, -18752.599507880153, -7553.146189826273, 12894.855486733377, -3981.7621090128555, 44798.9755629272, 15516.245724707333, 32094.48988371967, 6595.776271316561, 26178.60897524464, 4778.780612800195, 38574.77469143566, 26822.31686381303, 38415.29499474705, 32083.045790558554, 26621.754660815557, 24528.55849606496, 0.07779687499999999, 0.9970078125, 0.26023828125000004, 192.0, 0.0, 0.0, 0.0, 0.0, 0.0, 0.0, 0.0, 0.0, 0.0, 1.7074741229884017E9, 0.0, 2024-02-09 11:22:02.988
112.0, -18641.10900653708, -7409.357417745283, 12965.397592234325, -3996.849536520188, 45031.88074015149, 15591.861676199636, 32240.87145815748, 6717.213298942244, 26084.217558409877, 4790.470575150321, 38328.369060560355, 26818.472363766716, 37990.29892567384, 31960.51352745456, 26497.255444199498, 24342.033188585425, 0.07779687499999999, 0.9970078125, 0.26023828125000004, 192.0, 0.0, 0.0, 0.0, 0.0, 0.0, 0.0, 0.0, 0.0, 0.0, 1.7074741229964144E9, 0.0, 2024-02-09 11:22:02.996
114.0, -18667.953451627905, -7453.613871766791, 12917.520155611057, -3993.6979405519896, 45039.01094663274, 15560.83745489567, 32224.264112027184, 6704.986894725192, 26360.954506511036, 4864.745421975305, 38781.90830730299, 26890.579091379535, 38609.84457848604, 32186.243794708706, 26722.538676564538, 24613.472773250673, 0.07779687499999999, 0.9970078125, 0.26023828125000004, 192.0, 0.0, 0.0, 0.0, 0.0, 0.0, 0.0, 0.0, 0.0, 0.0, 1.7074741230034294E9, 0.0, 2024-02-09 11:22:03.003
116.0, -18659.906823623995, -7455.893749701232, 12920.492937623614, -3996.7601295423665, 44793.655847746835, 15521.83366082116, 32102.245939045664, 6593.652855593307, 26038.30707529868, 4760.809810258128, 38312.700487697184, 26779.468569692206, 38035.56120819583, 31924.95190202617, 26472.33324913183, 24351.62208695675, 0.07200000000000001, 1.0, 0.254, 192.0, 1.0, 32.0, 15.5, 32.0, 3.5, 120.0, 0.0, 0.0, 0.0, 1.7074741230124075E9, 0.0, 2024-02-09 11:22:03.012
118.0, -18568.599947524064, -7340.514044822937, 12979.434487752258, -4009.7017895819895, 45182.59855301363, 15601.808202482249, 32302.11523796502, 6770.991596101713, 26312.093593131733, 4871.920331945459, 38636.532561365675, 26885.952280277288, 38347.14452590281, 32105.35283152495, 26642.117100014344, 24486.67132695572, 0.07200000000000001, 1.0, 0.254, 192.0, 0.0, 0.0, 0.0, 0.0, 0.0, 0.0, 0.0, 0.0, 0.0, 1.707474123020436E9, 0.0, 2024-02-09 11:22:03.020
120.0, -18634.55994541168, -7441.812150694389, 12925.7008940817, -3971.457954818959, 44813.370086356415, 15511.238933949344, 32087.583194682982, 6595.150422471813, 26232.96841775995, 4829.362610502554, 38612.66089828741, 26848.5354600591, 38430.96356761021, 32063.420958926796, 26620.16768695923, 24523.104670417866, 0.07200000000000001, 1.0, 0.254, 192.0, 0.0, 0.0, 0.0, 0.0, 0.0, 0.0, 0.0, 0.0, 0.0, 1.7074741230274377E9, 0.0, 2024-02-09 11:22:03.027
122.0, -18529.462042982825, -7306.047654872854, 13002.09915662994, -3978.2752368778274, 45040.24029257778, 15590.967606421425, 32213.691736899822, 6706.037426714591, 26141.527431193284, 4839.309136785167, 38373.45252912671, 26854.972762462232, 37999.68665834507, 31975.28803053952, 26503.156304735698, 24339.06040657287, 0.07200000000000001, 1.0, 0.254, 192.0, 0.0, 0.0, 0.0, 0.0, 0.0, 0.0, 0.0, 0.0, 0.0, 1.7074741230354965E9, 0.0, 2024-02-09 11:22:03.035
124.0, -18558.67577298591, -7349.745315282979, 12966.33636550145, -3957.935149423498, 45070.10222317007, 15576.014289380824, 32236.51286798869, 6715.827490786015, 26418.219675805532, 4912.220527198378, 38830.165723582, 26930.32049302107, 38621.53454083616, 32215.9045596009, 26736.642627315836, 24616.82553491897, 0.07200000000000001, 1.0, 0.254, 192.0, 0.0, 0.0, 0.0, 0.0, 0.0, 0.0, 0.0, 0.0, 0.0, 1.7074741230444775E9, 0.0, 2024-02-09 11:22:03.044
126.0, -18549.265688570224, -7342.101018679264, 12978.13808657385, -3930.39780025456, 44821.59552831597, 15562.335021774177, 32125.514105023638, 6636.277632269577, 26099.55085510622, 4821.874776110027, 38375.66535182778, 26845.137994901896, 38061.42217653062, 31970.19183280371, 26505.0562030144, 24383.272157105468, 0.074, 1.002, 0.26, 192.0, 1.0, 40.0, 15.5, 40.0, 4.0, 16.0, 0.0, 0.0, 0.0, 1.7074741230525014E9, 0.0, 2024-02-09 11:22:03.052
128.0, -18475.28141442316, -7241.987555263943, 13021.411063839325, -3946.2675388178277, 45204.34680036864, 15628.742054550894, 32321.114220752028, 6771.43863099082, 26367.34710542525, 4940.048449045235, 38691.80842540365, 26957.611973001003, 38367.104633701405, 32160.65104730738, 26670.883795128324, 24514.879228458314, 0.074, 1.002, 0.26, 192.0, 0.0, 0.0, 0.0, 0.0, 0.0, 0.0, 0.0, 0.0, 0.0, 1.7074741230595076E9, 0.0, 2024-02-09 11:22:03.059
130.0, -18559.86041544204, -7357.188446186597, 12940.520100655569, -3926.866224630621, 44828.79279003057, 15535.110597027613, 32107.185674570286, 6611.3107337129995, 26280.24235728292, 4884.392605351521, 38658.72784360979, 26904.101896774995, 38458.43386154579, 32117.1322008529, 26644.396977948785, 24550.75377830908, 0.074, 1.002, 0.26, 192.0, 0.0, 0.0, 0.0, 0.0, 0.0, 0.0, 0.0, 0.0, 0.0, 1.7074741230685115E9, 0.0, 2024-02-09 11:22:03.068
132.0, -18458.249385148214, -7229.537633602337, 13014.683188758278, -3949.8885214195875, 45045.69411822488, 15629.166737695545, 32240.267961057183, 6742.984860299213, 26179.99478340087, 4881.419823338964, 38404.23088124167, 26895.8988065599, 38021.94899582255, 31999.003231406597, 26519.808354354904, 24363.647325473707, 0.074, 1.002, 0.26, 192.0, 0.0, 0.0, 0.0, 0.0, 0.0, 0.0, 0.0, 0.0, 0.0, 1.707474123076788E9, 0.0, 2024-02-09 11:22:03.076
134.0, -18507.356167716523, -7295.341169278761, 12958.781475875554, -3963.008995414853, 45072.225638893324, 15591.74991747736, 32241.6090657245, 6730.043200259591, 26452.23903086651, 4949.145609038545, 38850.08112789168, 26962.171728869886, 38635.12440146499, 32229.33795801854, 26748.019665243588, 24637.947933429234, 0.074, 1.002, 0.26, 192.0, 0.0, 0.0, 0.0, 0.0, 0.0, 0.0, 0.0, 0.0, 0.0, 1.707474123083495E9, 0.0, 2024-02-09 11:22:03.083
136.0, -18518.44263296636, -7314.54131776587, 12951.047772294018, -3968.239303617395, 44826.91524349633, 15543.045466309246, 32131.25850334865, 6599.933695785248, 26126.50705891932, 4839.443247251898, 38374.726578560665, 26851.374131604927, 38062.62917073121, 31964.156861800777, 26500.63055761225, 24372.744485467018, 0.07200000000000001, 0.996, 0.264, 192.0, 1.0, 32.0, 15.5, 16.0, 4.0, 32.0, 0.0, 0.0, 0.0, 1.707474123091612E9, 0.0, 2024-02-09 11:22:03.091
138.0, -18448.571079799065, -7215.970124717966, 12999.461650784213, -3981.35977761266, 45213.93569873997, 15625.076368460223, 32327.529171410704, 6775.998386859702, 26378.522977652905, 4935.4663414318975, 38681.59367818757, 26947.956019396308, 38347.47980206964, 32136.511163295647, 26661.18313803472, 24494.963824148635, 0.07200000000000001, 0.996, 0.264, 192.0, 0.0, 0.0, 0.0, 0.0, 0.0, 0.0, 0.0, 0.0, 0.0, 1.707474123100489E9, 0.0, 2024-02-09 11:22:03.100
140.0, -18543.409531522935, -7347.0407542038865, 12931.378237173349, -3960.125620380118, 44837.621729090424, 15532.942477815448, 32108.146799581864, 6613.0765215249685, 26289.87595914316, 4878.447041326409, 38653.40812842943, 26893.864797814465, 38442.89939914935, 32100.569558211515, 26638.89844881278, 24534.32524613443, 0.07200000000000001, 0.996, 0.264, 192.0, 0.0, 0.0, 0.0, 0.0, 0.0, 0.0, 0.0, 0.0, 0.0, 1.7074741231088185E9, 0.0, 2024-02-09 11:22:03.108
142.0, -18450.672143777865, -7223.18973817703, 13013.923229446797, -3966.4064605720596, 45049.49391478228, 15604.17748739451, 32230.18732430784, 6694.973313209214, 26176.66437347703, 4876.055404669691, 38394.21729972569, 26888.36626867846, 38001.698315346046, 31992.744742959112, 26510.15240075021, 24342.659037430174, 0.07200000000000001, 0.996, 0.264, 192.0, 0.0, 0.0, 0.0, 0.0, 0.0, 0.0, 0.0, 0.0, 0.0, 1.707474123115517E9, 0.0, 2024-02-09 11:22:03.115
144.0, -18496.22499897778, -7283.092413317253, 12983.122525587383, -3951.900178420565, 45081.747482031285, 15590.922902932514, 32234.680024943358, 6704.092824946979, 26450.942629688103, 4939.623765900585, 38850.34934882514, 26958.52839452367, 38625.468447860294, 32232.064870842085, 26739.19072618374, 24614.746822684625, 0.07200000000000001, 0.996, 0.264, 192.0, 0.0, 0.0, 0.0, 0.0, 0.0, 0.0, 0.0, 0.0, 0.0, 1.7074741231247835E9, 0.0, 2024-02-09 11:22:03.124
146.0, -18505.389214204457, -7296.391701268161, 12984.307168043515, -3933.5717479672135, 44822.735467283186, 15565.486617742376, 32096.747409909658, 6613.8364808364495, 26125.814154841206, 4840.717296685851, 38388.09292174494, 26861.7900445211, 38071.56986851333, 31972.538765971516, 26506.82199082637, 24381.43931406013, 0.078, 0.998, 0.266, 192.0, 1.0, 56.0, 15.5, 24.0, 4.0, 40.0, 0.0, 0.0, 0.0, 1.7074741231325622E9, 0.0, 2024-02-09 11:22:03.132
148.0, -18426.711073721777, -7189.975045916444, 13027.624848797901, -3943.518274249825, 45211.342896383154, 15643.650668102584, 32314.140476481974, 6775.283131037132, 26381.11578000972, 4957.147533553545, 38696.12231208352, 26966.865595205498, 38349.84908698191, 32169.70350381178, 26670.727332917137, 24513.76164123555, 0.078, 0.998, 0.266, 192.0, 0.0, 0.0, 0.0, 0.0, 0.0, 0.0, 0.0, 0.0, 0.0, 1.70747412313956E9, 0.0, 2024-02-09 11:22:03.139
150.0, -18525.61754293651, -7323.951402181555, 12939.402513432804, -3933.1470648225627, 44828.70338305276, 15541.771416875294, 32089.818369128512, 6590.411852647288, 26301.87884591566, 4896.820175268671, 38677.54801244116, 26917.311777748084, 38448.3755765409, 32130.096212636974, 26637.69145461219, 24549.747949808592, 0.078, 0.998, 0.266, 192.0, 0.0, 0.0, 0.0, 0.0, 0.0, 0.0, 0.0, 0.0, 0.0, 1.7074741231475897E9, 0.0, 2024-02-09 11:22:03.147
152.0, -18438.199870371805, -7209.085787425732, 13009.341121833459, -3957.7563354678555, 45043.59305424608, 15616.582705567207, 32237.8092691671, 6716.363932652943, 26182.252309590855, 4884.638474540529, 38407.002497554124, 26899.408030439383, 37997.74205657745, 31996.65629823879, 26505.190313481133, 24351.15270032319, 0.078, 0.998, 0.266, 192.0, 0.0, 0.0, 0.0, 0.0, 0.0, 0.0, 0.0, 0.0, 0.0, 1.707474123156659E9, 0.0, 2024-02-09 11:22:03.156
154.0, -18493.69925185433, -7279.069099315298, 12948.56672865948, -3976.442393832492, 45066.570647546134, 15576.79660043676, 32214.451696211305, 6694.056891686546, 26456.262344868464, 4949.413829972009, 38850.371700569594, 26963.19990911483, 38616.10306693352, 32221.224274781263, 26734.67567380377, 24615.01504361809, 0.078, 0.998, 0.266, 192.0, 0.0, 0.0, 0.0, 0.0, 0.0, 0.0, 0.0, 0.0, 0.0, 1.707474123164668E9, 0.0, 2024-02-09 11:22:03.164
156.0, -18519.336702744567, -7313.133157865186, 12938.03905702103, -3982.6561787910678, 44803.825891474, 15539.35742847412, 32096.233319787185, 6596.580934116952, 26112.55957037921, 4826.702752912373, 38365.58471507844, 26840.26531461064, 38048.61462695773, 31955.864364607856, 26479.7987317799, 24351.37621776774, 0.076, 0.998, 0.264, 192.0, 1.0, 48.0, 15.5, 24.0, 4.0, 32.0, 0.0, 0.0, 0.0, 1.7074741231726518E9, 0.0, 2024-02-09 11:22:03.172
158.0, -18455.969507213773, -7223.9049939996, 12984.128354087872, -4002.258658678372, 45197.50716656532, 15614.079310188212, 32308.68665083488, 6768.018814089158, 26363.480253634483, 4923.418751170487, 38657.61025638703, 26929.76169940969, 38325.44098203671, 32127.726927724714, 26642.85470758137, 24477.395353006763, 0.076, 0.998, 0.264, 192.0, 0.0, 0.0, 0.0, 0.0, 0.0, 0.0, 0.0, 0.0, 0.0, 1.7074741231796503E9, 0.0, 2024-02-09 11:22:03.179
160.0, -18560.307450331147, -7359.423620632127, 12909.875859007343, -3979.8845624786095, 44832.57023484352, 15524.44881492243, 32103.028250101597, 6607.890916811338, 26272.307488001286, 4861.951453918392, 38631.145790951945, 26874.865815027457, 38425.10741056292, 32090.175997039798, 26619.340672414386, 24513.627530768816, 0.076, 0.998, 0.264, 192.0, 0.0, 0.0, 0.0, 0.0, 0.0, 0.0, 0.0, 0.0, 0.0, 1.707474123188854E9, 0.0, 2024-02-09 11:22:03.188
162.0, -18501.678824624876, -7274.442288213049, 12991.504429758124, -3993.1614986850623, 45044.39771704647, 15588.419507553519, 32238.479821500758, 6683.976254937203, 26155.810195900227, 4845.120590343546, 38360.1532411758, 26858.906669486365, 37980.508861602415, 31965.60972519037, 26495.087324987333, 24316.082813272813, 0.076, 0.998, 0.264, 192.0, 0.0, 0.0, 0.0, 0.0, 0.0, 0.0, 0.0, 0.0, 0.0, 1.707474123195873E9, 0.0, 2024-02-09 11:22:03.195
164.0, -18599.64652057249, -7385.306940711373, 12943.112903012385, -3995.2402109194054, 45076.96420871785, 15558.26700428331, 32231.19315280833, 6686.434946827287, 26405.61329193274, 4891.142832177024, 38806.830502370656, 26911.165048022875, 38598.04285741364, 32196.27972796914, 26725.958493466198, 24586.315403737477, 0.076, 0.998, 0.264, 192.0, 0.0, 0.0, 0.0, 0.0, 0.0, 0.0, 0.0, 0.0, 0.0, 1.70747412320367E9, 0.0, 2024-02-09 11:22:03.203
166.0, -18685.767791958784, -7477.95492147862, 12931.534699384536, -3992.5580015847686, 44812.36425785592, 15520.380797431566, 32095.227491286696, 6583.0804804659465, 26048.700636470396, 4752.472609576298, 38323.65284248029, 26779.06623829201, 38045.06069958934, 31933.020881774533, 26479.776380035448, 24339.172165295146, 0.074, 0.998, 0.262, 192.0, 1.0, 40.0, 15.5, 24.0, 4.0, 24.0, 0.0, 0.0, 0.0, 1.70747412321276E9, 0.0, 2024-02-09 11:22:03.212
168.0, -18681.118629112083, -7440.381639049249, 12970.560845203501, -4016.720237340956, 45194.13205315257, 15599.193048380977, 32299.276566419194, 6757.535845939618, 26275.235566524934, 4829.5190727137415, 38592.343162577534, 26854.413968850848, 38306.33024052742, 32102.91649137932, 26635.03159702201, 24461.41385572122, 0.074, 0.998, 0.262, 192.0, 0.0, 0.0, 0.0, 0.0, 0.0, 0.0, 0.0, 0.0, 0.0, 1.7074741232197196E9, 0.0, 2024-02-09 11:22:03.219
170.0, -18825.466194804456, -7626.392856406314, 12882.539675538503, -4001.4092923890703, 44820.25442364865, 15498.364329143087, 32095.78628489808, 6572.664567549774, 26173.870405420115, 4747.555225796131, 38563.53176397464, 26786.91170059582, 38413.372744723885, 32061.476357159183, 26615.49617236807, 24501.66934748523, 0.074, 0.998, 0.262, 192.0, 0.0, 0.0, 0.0, 0.0, 0.0, 0.0, 0.0, 0.0, 0.0, 1.7074741232277863E9, 0.0, 2024-02-09 11:22:03.227
172.0, -18759.19327249447, -7531.040314559975, 12952.970022317175, -4015.580298373735, 45024.638774947976, 15581.08813537218, 32222.855952126498, 6683.752737492649, 26029.38872926101, 4717.939164392849, 38270.76861509903, 26759.977848527178, 37946.400099563616, 31925.957730526658, 26469.829853752835, 24295.80978105185, 0.074, 0.998, 0.262, 192.0, 0.0, 0.0, 0.0, 0.0, 0.0, 0.0, 0.0, 0.0, 0.0, 1.7074741232358027E9, 0.0, 2024-02-09 11:22:03.235
174.0, -18812.658645231564, -7598.944914215197, 12903.259742648572, -4021.8164350767656, 45060.289807354195, 15556.657678682528, 32225.269940527673, 6699.555420822552, 26305.857456428705, 4787.676607093407, 38730.67810901143, 26833.045701151575, 38559.843726139516, 32173.07861722453, 26701.79625771001, 24578.939328067223, 0.074, 0.998, 0.262, 192.0, 0.0, 0.0, 0.0, 0.0, 0.0, 0.0, 0.0, 0.0, 0.0, 1.707474123244788E9, 0.0, 2024-02-09 11:22:03.244
176.0, -18842.58763105722, -7638.8874815568315, 12888.820515730444, -4022.330525199238, 44795.68985649227, 15519.21850671989, 32087.96317433872, 6587.886105523838, 25966.51327210823, 4675.113222016481, 38261.671455105716, 26717.688348017735, 37998.99375426695, 31908.769239040525, 26460.933859459623, 24334.075967559336, 0.076, 1.0, 0.262, 192.0, 1.0, 48.0, 15.5, 32.0, 4.0, 24.0, 0.0, 0.0, 0.0, 1.7074741232518258E9, 0.0, 2024-02-09 11:22:03.251
178.0, -18772.201987767457, -7540.070419319919, 12936.586193631434, -4042.2459295089166, 45183.3138088362, 15598.768365236327, 32292.325173893594, 6757.66995640635, 26207.308615125254, 4770.979853985293, 38539.19071426281, 26803.675508937304, 38255.032987002494, 32078.150758522843, 26610.489381610085, 24441.20787873362, 0.076, 1.0, 0.262, 192.0, 0.0, 0.0, 0.0, 0.0, 0.0, 0.0, 0.0, 0.0, 0.0, 1.7074741232597811E9, 0.0, 2024-02-09 11:22:03.259
180.0, -18863.3524016562, -7668.347080748926, 12862.31134680645, -4023.22459497745, 44820.72381028221, 15507.997931003325, 32101.530683223093, 6596.312713183488, 26134.352521223132, 4710.808957911606, 38532.90987407087, 26752.042979245543, 38380.26981118558, 32056.603676867926, 26606.153143185755, 24499.300062572966, 0.076, 1.0, 0.262, 192.0, 0.0, 0.0, 0.0, 0.0, 0.0, 0.0, 0.0, 0.0, 0.0, 1.7074741232690496E9, 0.0, 2024-02-09 11:22:03.269
182.0, -18751.504272401842, -7528.671029647712, 12934.149853485806, -4033.975784060453, 45022.85063539155, 15575.32138530271, 32216.41864972337, 6665.804286695038, 26013.831915120118, 4703.164661307891, 38249.512106122034, 26737.559048838502, 37913.34186951422, 31917.039384488988, 26473.830816010337, 24290.311251915846, 0.076, 1.0, 0.262, 192.0, 0.0, 0.0, 0.0, 0.0, 0.0, 0.0, 0.0, 0.0, 0.0, 1.7074741232758327E9, 0.0, 2024-02-09 11:22:03.275
184.0, -18760.199100994956, -7549.055820590952, 12911.21696367466, -4012.31694368326, 45078.77470001873, 15581.065783627724, 32240.62558896847, 6724.745836823683, 26312.093593131733, 4798.003113031758, 38721.0892106401, 26823.568561502525, 38546.87971435544, 32165.926058998833, 26714.559103793992, 24571.116217507868, 0.076, 1.0, 0.262, 192.0, 0.0, 0.0, 0.0, 0.0, 0.0, 0.0, 0.0, 0.0, 0.0, 1.7074741232838683E9, 0.0, 2024-02-09 11:22:03.283
186.0, -18745.625763610096, -7545.926576367209, 12922.929277769243, -3994.8825830081205, 44806.32928685299, 15541.458492452919, 32093.39464824136, 6613.88118432536, 26007.95340632837, 4712.150062578924, 38283.30794373846, 26737.15671743831, 38005.98985028146, 31925.913027037746, 26483.53147310394, 24350.325685778345, 0.074, 0.994, 0.254, 192.0, 1.0, 40.0, 15.5, 8.0, 3.5, 120.0, 0.0, 0.0, 0.0, 1.7074741232924016E9, 0.0, 2024-02-09 11:22:03.292
188.0, -18649.17798628545, -7421.7626359179785, 12978.316900529493, -4004.516184868358, 45202.692771278955, 15623.936429493002, 32316.01802301622, 6785.162602086378, 26266.406627465087, 4816.622116163029, 38575.48994725823, 26842.61224777845, 38263.03491151749, 32093.08172381899, 26639.211373235154, 24468.74522790256, 0.074, 0.994, 0.254, 192.0, 0.0, 0.0, 0.0, 0.0, 0.0, 0.0, 0.0, 0.0, 0.0, 1.7074741232998648E9, 0.0, 2024-02-09 11:22:03.299
190.0, -18713.998045205837, -7521.7866923554775, 12904.712606038167, -3975.458917076459, 44836.61590058993, 15532.98718130436, 32110.225511816207, 6611.668361624284, 26212.918902983536, 4772.969159241815, 38583.760092706696, 26806.804753161046, 38401.05693352901, 32081.056485302033, 26638.07143426793, 24527.172687908733, 0.074, 0.994, 0.254, 192.0, 0.0, 0.0, 0.0, 0.0, 0.0, 0.0, 0.0, 0.0, 0.0, 1.707474123307943E9, 0.0, 2024-02-09 11:22:03.307
192.0, -18600.428831628422, -7379.339024941805, 12965.151723045317, -3998.6823795655228, 45023.96822261432, 15585.670242985518, 32208.081449041543, 6678.723594990206, 26099.77437255077, 4773.483249364287, 38310.2417958071, 26803.764915915122, 37937.146477359114, 31953.13745178431, 26491.3545836633, 24316.507496417464, 0.074, 0.994, 0.254, 192.0, 0.0, 0.0, 0.0, 0.0, 0.0, 0.0, 0.0, 0.0, 0.0, 1.707474123315914E9, 0.0, 2024-02-09 11:22:03.315
194.0, -18618.891372548507, -7411.257316023984, 12927.55608887149, -4006.2819726803273, 45065.609522534556, 15550.376838490587, 32204.751039117702, 6671.883961186882, 26394.303309238352, 4854.351860803587, 38780.94718229141, 26881.191358708307, 38569.4549762553, 32181.21465220626, 26712.636853770837, 24574.491330920617, 0.074, 0.994, 0.254, 192.0, 0.0, 0.0, 0.0, 0.0, 0.0, 0.0, 0.0, 0.0, 0.0, 1.7074741233239346E9, 0.0, 2024-02-09 11:22:03.323
196.0, -18619.561924882168, -7417.918135871665, 12928.338399927427, -3997.1848126870173, 44796.382760570385, 15528.405073691021, 32082.39758996935, 6586.477945623154, 26079.38958160753, 4755.490095077765, 38328.48081928263, 26778.64155514736, 38029.90621684864, 31914.670099576724, 26472.42265610965, 24331.304351246876, 0.07200000000000001, 0.994, 0.256, 192.0, 1.0, 32.0, 15.5, 8.0, 4.0, 0.0, 0.0, 0.0, 0.0, 1.7074741233320267E9, 0.0, 2024-02-09 11:22:03.332
198.0, -18532.077197084094, -7301.06321585932, 12977.892217384842, -4014.46271115097, 45190.309904850714, 15611.151231664568, 32301.936424009375, 6762.140305297412, 26326.801040983326, 4862.085564385124, 38610.15750290841, 26874.016448738155, 38291.95806884266, 32098.58025295499, 26632.975236532122, 24449.45567243763, 0.07200000000000001, 0.994, 0.256, 192.0, 0.0, 0.0, 0.0, 0.0, 0.0, 0.0, 0.0, 0.0, 0.0, 1.7074741233399293E9, 0.0, 2024-02-09 11:22:03.339
200.0, -18617.818488814653, -7420.130958572741, 12899.884629235821, -3997.4753853649363, 44828.90454875286, 15513.272942694777, 32093.193482541265, 6589.450727635709, 26261.10926402918, 4815.236308006801, 38619.03114545717, 26827.748337715668, 38423.60984368442, 32080.74356087966, 26630.740062086592, 24506.497324287575, 0.07200000000000001, 0.994, 0.256, 192.0, 0.0, 0.0, 0.0, 0.0, 0.0, 0.0, 0.0, 0.0, 0.0, 1.70747412334797E9, 0.0, 2024-02-09 11:22:03.347
202.0, -18518.532039944177, -7287.629817441681, 12978.786287163055, -3995.3072661527717, 45029.62321396151, 15598.924827447514, 32222.498324215216, 6690.458260829242, 26129.74806186534, 4807.6814183809065, 38334.20286586319, 26817.26536956613, 37950.5575240323, 31952.71276863966, 26490.013478995977, 24299.56487412034, 0.07200000000000001, 0.994, 0.256, 192.0, 0.0, 0.0, 0.0, 0.0, 0.0, 0.0, 0.0, 0.0, 0.0, 1.7074741233559809E9, 0.0, 2024-02-09 11:22:03.355
204.0, -18557.826406696608, -7336.401323843161, 12939.201347732705, -3994.1226236966404, 45089.48118561282, 15574.404963780042, 32233.89771388742, 6687.440775327776, 26424.90284739767, 4898.54125959173, 38799.25326100031, 26906.605292153992, 38585.72704621876, 32205.153370517895, 26731.278208646563, 24583.096752535912, 0.07200000000000001, 0.994, 0.256, 192.0, 0.0, 0.0, 0.0, 0.0, 0.0, 0.0, 0.0, 0.0, 0.0, 1.70747412336399E9, 0.0, 2024-02-09 11:22:03.363
206.0, -18565.96244167834, -7356.920225253132, 12954.020554306575, -3970.139201896096, 44814.890004979374, 15540.497367441341, 32093.193482541265, 6579.526553097553, 26094.83463702615, 4794.382130429999, 38341.377775833345, 26803.072011837008, 38048.05583334635, 31952.46689945065, 26495.780229065447, 24345.922392120647, 0.078, 0.998, 0.256, 192.0, 1.0, 56.0, 15.5, 24.0, 4.0, 0.0, 0.0, 0.0, 0.0, 1.7074741233720078E9, 0.0, 2024-02-09 11:22:03.372
208.0, -18482.83630404905, -7245.563834376792, 13020.449938827747, -3971.256789118861, 45226.69854482395, 15643.807130313771, 32328.713813866834, 6785.408471275387, 26341.217916157, 4900.150585192512, 38629.89409326245, 26908.393431710414, 38300.18351080221, 32126.02819514611, 26661.719579901648, 24469.818111636414, 0.078, 0.998, 0.256, 192.0, 0.0, 0.0, 0.0, 0.0, 0.0, 0.0, 0.0, 0.0, 0.0, 1.7074741233800087E9, 0.0, 2024-02-09 11:22:03.380
210.0, -18578.25590112876, -7375.360414428761, 12933.41224591878, -3960.393841313582, 44867.818935849544, 15534.261230738311, 32117.48982876418, 6595.888030038837, 26279.728267160448, 4853.614253236563, 38648.915427793916, 26867.02035272364, 38449.47081201921, 32112.326575795007, 26665.18410029222, 24541.835432271415, 0.078, 0.998, 0.256, 192.0, 0.0, 0.0, 0.0, 0.0, 0.0, 0.0, 0.0, 0.0, 0.0, 1.7074741233880146E9, 0.0, 2024-02-09 11:22:03.388
212.0, -18487.105487240016, -7257.097334515731, 12988.911627401309, -3975.4365653320037, 45050.09741188257, 15603.66339727204, 32229.42736499636, 6690.838240484982, 26134.486631689862, 4824.489930211298, 38345.02111017956, 26836.331407586506, 37969.310637630304, 31965.162690301266, 26505.592644881326, 24315.255798727965, 0.078, 0.998, 0.256, 192.0, 0.0, 0.0, 0.0, 0.0, 0.0, 0.0, 0.0, 0.0, 0.0, 1.7074741233962865E9, 0.0, 2024-02-09 11:22:03.396
214.0, -18514.553429431133, -7297.978675124487, 12942.41999893427, -3973.491963564392, 45104.63566835352, 15597.539019291286, 32248.62751348347, 6735.877005562425, 26437.84450743729, 4908.957172507903, 38816.01706934179, 26923.078527817554, 38593.036066655644, 32209.221388008762, 26733.62514181437, 24593.95970034119, 0.078, 0.998, 0.256, 192.0, 0.0, 0.0, 0.0, 0.0, 0.0, 0.0, 0.0, 0.0, 0.0, 1.7074741234040344E9, 0.0, 2024-02-09 11:22:03.404
216.0, -18522.197726034847, -7318.743445723468, 12931.646458106812, -3965.266521604839, 44808.58681304298, 15551.449722224443, 32094.31106976403, 6603.621733620374, 26119.198038482435, 4809.983648059803, 38368.37868313536, 26826.139012114887, 38057.465917762034, 31951.930457583723, 26485.38666789373, 24356.897098648205, 0.079, 0.997, 0.257, 192.0, 1.0, 64.0, 15.5, 16.0, 4.0, 8.0, 0.0, 0.0, 0.0, 1.7074741234120088E9, 0.0, 2024-02-09 11:22:03.412
218.0, -18443.340771596526, -7210.6280577931475, 12989.805697179521, -3990.032254461319, 45198.021256687796, 15625.031664971313, 32296.90728150693, 6761.536808197118, 26361.870928033703, 4912.511099876297, 38649.56362838312, 26926.8559726305, 38295.57905144442, 32130.923227181822, 26626.873210295824, 24457.368189974808, 0.079, 0.997, 0.257, 192.0, 0.0, 0.0, 0.0, 0.0, 0.0, 0.0, 0.0, 0.0, 0.0, 1.7074741234190607E9, 0.0, 2024-02-09 11:22:03.419
220.0, -18540.14617683246, -7345.274966391918, 12920.649399834801, -3967.0770129057187, 44831.78792378759, 15532.69660862644, 32085.280965004084, 6591.954123014703, 26307.690299474038, 4864.6783667419395, 38673.927029839404, 26884.9464517768, 38447.54856199605, 32112.39363102837, 26629.42130916373, 24521.249475628076, 0.079, 0.997, 0.257, 192.0, 0.0, 0.0, 0.0, 0.0, 0.0, 0.0, 0.0, 0.0, 0.0, 1.7074741234280736E9, 0.0, 2024-02-09 11:22:03.428
222.0, -18459.434027604348, -7238.232462195452, 12991.28091231357, -3982.164440413051, 45012.94881259785, 15597.024929168812, 32186.869643553455, 6660.708088959228, 26163.856823904138, 4842.639546709007, 38367.238744168135, 26858.146710174886, 37959.27470436987, 31968.962486858665, 26484.626708582247, 24307.81266782435, 0.079, 0.997, 0.257, 192.0, 0.0, 0.0, 0.0, 0.0, 0.0, 0.0, 0.0, 0.0, 0.0, 1.7074741234361005E9, 0.0, 2024-02-09 11:22:03.436
224.0, -18500.963568802308, -7295.609390212226, 12951.673621138767, -3981.7397572684004, 45077.3888918625, 15583.792696451272, 32208.461428697283, 6701.0082842121465, 26453.356618089274, 4912.175823709467, 38828.51169449231, 26930.588713954534, 38591.56085152159, 32213.222350266264, 26721.9575312087, 24581.01804030157, 0.079, 0.997, 0.257, 192.0, 0.0, 0.0, 0.0, 0.0, 0.0, 0.0, 0.0, 0.0, 0.0, 1.707474123443088E9, 0.0, 2024-02-09 11:22:03.443
226.0, -18535.027627352196, -7338.971774455521, 12936.452083164702, -3981.4491845904813, 44792.448853546244, 15530.036751036258, 32063.309200204516, 6569.803544259495, 26122.863724573104, 4788.503621638253, 38365.987046478636, 26811.766840430122, 38058.00235962896, 31953.070396550942, 26486.973641750057, 24348.62695319974, 0.0785, 0.9984999999999999, 0.2615, 192.0, 1.0, 56.0, 15.5, 32.0, 4.0, 40.0, 0.0, 0.0, 0.0, 1.7074741234521124E9, 0.0, 2024-02-09 11:22:03.452
228.0, -18452.63909728993, -7227.101293456709, 13007.53063053258, -3982.4773648354253, 45204.54796606874, 15624.115243448645, 32305.803275800143, 6772.936197869325, 26353.2208029295, 4888.706492031395, 38632.062212474615, 26908.862818343976, 38287.554775184966, 32112.281872306095, 26635.389224933297, 24455.155367273735, 0.0785, 0.9984999999999999, 0.2615, 192.0, 0.0, 0.0, 0.0, 0.0, 0.0, 0.0, 0.0, 0.0, 0.0, 1.707474123460295E9, 0.0, 2024-02-09 11:22:03.460
230.0, -18541.844909411062, -7348.806542015856, 12937.279097709548, -3953.7330214659005, 44847.769421073135, 15531.042579536746, 32101.955366367743, 6611.824823835472, 26305.34336630623, 4848.316889800655, 38670.931896082395, 26874.776408049634, 38456.82453594501, 32117.10984910844, 26650.588411162906, 24536.71688279115, 0.0785, 0.9984999999999999, 0.2615, 192.0, 0.0, 0.0, 0.0, 0.0, 0.0, 0.0, 0.0, 0.0, 0.0, 1.7074741234671223E9, 0.0, 2024-02-09 11:22:03.467
232.0, -18456.260079891694, -7237.248985439419, 13002.166211863305, -3968.1051931506627, 45022.71652492482, 15593.60511226715, 32212.440039210327, 6689.474784073208, 26158.827681401694, 4835.308174527666, 38371.19500293672, 26858.236117152708, 37959.811146236796, 31976.003286362087, 26500.13881923423, 24320.799031352883, 0.0785, 0.9984999999999999, 0.2615, 192.0, 0.0, 0.0, 0.0, 0.0, 0.0, 0.0, 0.0, 0.0, 0.0, 1.7074741234751215E9, 0.0, 2024-02-09 11:22:03.475
234.0, -18483.171580215883, -7277.9515120925325, 12963.028307322063, -3960.125620380118, 45094.13034845953, 15587.74895521986, 32234.165934820885, 6719.515528621141, 26458.0951879138, 4915.953268522414, 38841.1180783651, 26934.05323434511, 38586.08467413005, 32225.448754483314, 26730.473545846173, 24597.44657247622, 0.0785, 0.9984999999999999, 0.2615, 192.0, 0.0, 0.0, 0.0, 0.0, 0.0, 0.0, 0.0, 0.0, 0.0, 1.707474123484164E9, 0.0, 2024-02-09 11:22:03.484
236.0, -18509.99367356225, -7315.994181155465, 12945.638650135834, -3959.9468064244757, 44806.575156042, 15539.938573829959, 32100.480151233693, 6597.49735563962, 26133.79372761175, 4803.18871774539, 38394.9102038038, 26824.775555703112, 38069.714673723545, 31966.9955333466, 26497.456609899597, 24362.596793484307, 0.07825, 0.99625, 0.26475000000000004, 192.0, 1.0, 56.0, 15.5, 8.0, 4.0, 48.0, 0.0, 0.0, 0.0, 1.7074741234923224E9, 0.0, 2024-02-09 11:22:03.492
238.0, -18439.540975039123, -7210.516299070871, 12995.393633293348, -3983.3937863580927, 45200.882279978076, 15614.392234610586, 32302.74108680977, 6746.9634708122585, 26362.764997811915, 4903.324532905166, 38655.71035810833, 26915.501286447205, 38287.57712692942, 32123.54715151157, 26631.678835353716, 24448.494547426053, 0.07825, 0.99625, 0.26475000000000004, 192.0, 0.0, 0.0, 0.0, 0.0, 0.0, 0.0, 0.0, 0.0, 0.0, 1.7074741234991677E9, 0.0, 2024-02-09 11:22:03.499
240.0, -18543.543641989665, -7350.326460638817, 12918.704798067189, -3974.721309509434, 44841.57798785901, 15514.16701247299, 32091.919433107312, 6577.581951329941, 26309.63490124165, 4851.088506113113, 38690.60143120306, 26870.283707414117, 38463.86533544843, 32109.26438680463, 26640.351312202372, 24516.779126737016, 0.07825, 0.99625, 0.26475000000000004, 192.0, 0.0, 0.0, 0.0, 0.0, 0.0, 0.0, 0.0, 0.0, 0.0, 1.707474123507218E9, 0.0, 2024-02-09 11:22:03.507
242.0, -18465.98308872975, -7246.614366366192, 12998.925208917286, -3986.187754415006, 45022.85063539155, 15592.353414577654, 32216.262187512184, 6695.286237631588, 26158.537108723773, 4825.294593011688, 38380.06864548548, 26845.65208502437, 37968.84125099674, 31957.160765786266, 26486.23603418303, 24298.916673531137, 0.07825, 0.99625, 0.26475000000000004, 192.0, 0.0, 0.0, 0.0, 0.0, 0.0, 0.0, 0.0, 0.0, 0.0, 1.7074741235162227E9, 0.0, 2024-02-09 11:22:03.516
244.0, -18506.305635727123, -7300.30325654784, 12962.536568944046, -3984.3102078807606, 45103.24986019729, 15586.653719741551, 32247.86755417199, 6732.837168316504, 26449.310952342865, 4892.103957188601, 38846.169572612, 26920.798649883112, 38595.58416552355, 32204.393411206416, 26742.72230180768, 24587.321232237966, 0.07825, 0.99625, 0.26475000000000004, 192.0, 0.0, 0.0, 0.0, 0.0, 0.0, 0.0, 0.0, 0.0, 0.0, 1.707474123525206E9, 0.0, 2024-02-09 11:22:03.525
246.0, -18532.457176739834, -7338.033001188398, 12950.667792638278, -3971.525010052325, 44808.94444095426, 15540.69853314144, 32090.06423831752, 6599.2184399626785, 26126.149431008034, 4785.016749503226, 38390.55161363502, 26813.44322126427, 38068.32886556731, 31967.442568235707, 26506.620825126272, 24361.3003923059, 0.078125, 0.9981249999999999, 0.26637500000000003, 192.0, 1.0, 56.0, 15.5, 32.0, 4.0, 48.0, 0.0, 0.0, 0.0, 1.7074741235312417E9, 0.0, 2024-02-09 11:22:03.531
248.0, -18460.7080770383, -7239.551215118315, 13005.206049109227, -3989.9651992279532, 45205.30792538022, 15619.242563157388, 32307.166732211917, 6757.535845939618, 26348.392826127154, 4876.390680836521, 38637.4713346328, 26900.905597317887, 38282.436225704696, 32113.801790929057, 26639.434890679706, 24448.18162300368, 0.078125, 0.9981249999999999, 0.26637500000000003, 192.0, 0.0, 0.0, 0.0, 0.0, 0.0, 0.0, 0.0, 0.0, 0.0, 1.7074741235405889E9, 0.0, 2024-02-09 11:22:03.540
250.0, -18564.68839224439, -7374.779269072923, 12934.149853485806, -3964.484210548903, 44860.912246812855, 15527.443948679442, 32118.11567760893, 6606.6168673773855, 26300.82831392626, 4829.38496224701, 38673.88232635049, 26859.621925308937, 38472.51546055263, 32115.54522699657, 26656.13164378782, 24528.647903042784, 0.078125, 0.9981249999999999, 0.26637500000000003, 192.0, 0.0, 0.0, 0.0, 0.0, 0.0, 0.0, 0.0, 0.0, 0.0, 1.7074741235482445E9, 0.0, 2024-02-09 11:22:03.548
252.0, -18513.257028252727, -7286.512230218916, 13005.898953187341, -3969.915684451543, 45031.6795744514, 15607.887876974093, 32223.414745737882, 6709.144319193879, 26133.21258225591, 4806.295610224678, 38352.57599980546, 26830.676416239312, 37983.72751280398, 31964.492137967605, 26501.971662279568, 24311.411298681654, 0.078125, 0.9981249999999999, 0.26637500000000003, 192.0, 0.0, 0.0, 0.0, 0.0, 0.0, 0.0, 0.0, 0.0, 0.0, 1.707474123555235E9, 0.0, 2024-02-09 11:22:03.555
254.0, -18615.91859053595, -7395.946371072098, 12945.683353624745, -3984.4443183474923, 45102.66871484146, 15579.523513260308, 32228.91327487389, 6718.129720464912, 26406.976748344514, 4871.830924967638, 38809.46800821638, 26900.682079873335, 38605.64245052844, 32209.17668451985, 26739.928333750766, 24593.311499751988, 0.078125, 0.9981249999999999, 0.26637500000000003, 192.0, 0.0, 0.0, 0.0, 0.0, 0.0, 0.0, 0.0, 0.0, 0.0, 1.7074741235632992E9, 0.0, 2024-02-09 11:22:03.563
0.0, -18715.719129528898, -7506.118119492307, 12917.140175955317, -3987.8864869936097, 44797.09801639295, 15520.40314917602, 32055.419034411796, 6570.518800082064, 26043.96206664587, 4722.767141195195, 38328.70433672718, 26756.267458947597, 38071.323999324326, 31938.005320788066, 26483.889101015226, 24344.849508386793, 0.0780625, 0.9970625, 0.2651875, 192.0, 1.0, 56.0, 15.5, 16.0, 4.0, 32.0, 0.0, 0.0, 0.0, 1.7074741235723004E9, 0.0, 2024-02-09 11:22:03.572
2.0, -18703.78329798976, -7467.270787628983, 12961.463685210192, -4021.1905862320173, 45193.37209384109, 15605.362129850642, 32285.709057534823, 6743.834226588515, 26244.457214409977, 4790.76114782824, 38557.16151680488, 26827.614227248938, 38264.77834758501, 32086.420903971306, 26612.702204311157, 24428.802660560927, 0.0780625, 0.9970625, 0.2651875, 192.0, 0.0, 0.0, 0.0, 0.0, 0.0, 0.0, 0.0, 0.0, 0.0, 1.7074741235793233E9, 0.0, 2024-02-09 11:22:03.579
4.0, -18846.722703781452, -7646.688240371734, 12864.88179741881, -4018.5530803862907, 44836.16886570083, 15517.83269856366, 32082.263479502617, 6604.694617354228, 26178.921899667013, 4718.162681837402, 38582.106063617, 26758.659095604315, 38430.98591935467, 32073.09926427594, 26617.284311924497, 24499.94826316217, 0.0780625, 0.9970625, 0.2651875, 192.0, 0.0, 0.0, 0.0, 0.0, 0.0, 0.0, 0.0, 0.0, 0.0, 1.7074741235873244E9, 0.0, 2024-02-09 11:22:03.587
6.0, -18783.62372918412, -7561.461038763648, 12933.613411618879, -4034.1993015050057, 45014.31226900963, 15587.793658708772, 32226.23106553925, 6689.743005006672, 26005.897045838483, 4675.157925505391, 38245.108812464336, 26715.028490427554, 37923.95894813049, 31911.74202105308, 26455.725903001538, 24280.074152955312, 0.0780625, 0.9970625, 0.2651875, 192.0, 0.0, 0.0, 0.0, 0.0, 0.0, 0.0, 0.0, 0.0, 0.0, 1.70747412359633E9, 0.0, 2024-02-09 11:22:03.596
