%OpenBCI Raw EXG Data
%Number of channels = 16
%Sample Rate = 125 Hz
%Board = OpenBCI_GUI$BoardCytonSerialDaisy
Sample Index, EXG Channel 0, EXG Channel 1, EXG Channel 2, EXG Channel 3, EXG Channel 4, EXG Channel 5, EXG Channel 6, EXG Channel 7, EXG Channel 8, EXG Channel 9, EXG Channel 10, EXG Channel 11, EXG Channel 12, EXG Channel 13, EXG Channel 14, EXG Channel 15, Accel Channel 0, Accel Channel 1, Accel Channel 2, Other, Other, Other, Other, Other, Other, Other, Analog Channel 0, Analog Channel 1, Analog Channel 2, Timestamp, Other, Timestamp (Formatted)
0.0, -9211.73503538788, -15582.339833061676, 19696.267807038763, -190.88389764832232, 47269.22330489437, 19565.152474063932, 36028.843942742824, 11214.36193160557, 0.0, 0.0, 0.0, 0.0, 0.0, 0.0, 0.0, 0.0, 0.047, 0.505, 0.068, 192.0, 1.0, 120.0, 15.5, 72.0, 2.0, 32.0, 0.0, 0.0, 0.0, 1.7074745684216056E9, 0.0, 2024-02-09 11:29:28.421
202.0, -9271.861227972655, -15623.668208559538, 19648.055094248666, -190.25804880357373, 47269.11154617209, 19541.05729354111, 36016.5504832924, 11223.749664276798, 33325.15458168442, 4308.119929804794, 39411.55694860899, 28522.45760231705, 41235.191075228584, 36041.11505044878, 30599.895787226655, 24901.318538346117, 0.047, 0.505, 0.068, 192.0, 0.0, 0.0, 0.0, 0.0, 0.0, 0.0, 0.0, 0.0, 0.0, 1.7074745684217148E9, 0.0, 2024-02-09 11:29:28.421
0.0, -4427.120617284849, -7588.953684443675, 10011.83807991005, 44.23410227705268, 23806.48539143627, 9923.3922271004, 18193.984710453118, 5789.638255791457, 16475.26967230674, 2109.3341242473275, 19457.014734389155, 14202.276075157652, 20304.503477156577, 17882.356689257227, 15180.634281710898, 12335.972468372878, 0.0795, 0.7615000000000001, 0.1, 192.0, 1.5, 64.0, 15.5, 104.0, 2.0, 16.0, 0.0, 0.0, 0.0, 1.7074745685260994E9, 0.0, 2024-02-09 11:29:28.526
2.0, -8976.192352317852, -15259.267718704668, 19933.576277920758, 94.19025113466397, 47338.82663712819, 19757.466883357392, 36230.92606436325, 11455.067867644771, 33587.58641333418, 4842.214863564356, 39520.14172317287, 28629.18718209114, 41399.94578360865, 36280.68104752077, 30796.926414600184, 25110.463811214428, 0.0795, 0.7615000000000001, 0.1, 192.0, 0.0, 0.0, 0.0, 0.0, 0.0, 0.0, 0.0, 0.0, 0.0, 1.7074745685332248E9, 0.0, 2024-02-09 11:29:28.533
4.0, -8915.440310888329, -15208.171630879837, 19993.344842594248, 113.18923392167497, 47303.44382565544, 19777.315232433706, 36199.29834595899, 11437.946431392007, 33306.53557855315, 4797.533726398197, 39116.670384010125, 28563.85303304828, 40828.07640171962, 36054.503745377515, 30606.690717541067, 24915.7801170087, 0.0795, 0.7615000000000001, 0.1, 192.0, 0.0, 0.0, 0.0, 0.0, 0.0, 0.0, 0.0, 0.0, 0.0, 1.7074745685401175E9, 0.0, 2024-02-09 11:29:28.540
6.0, -8878.537580792616, -15198.24745634168, 20020.122232451708, 107.91422223022249, 47559.79598281336, 19806.283093247785, 36324.64692886436, 11531.443778448556, 33635.10622204617, 4903.101015460613, 39532.2340169232, 28675.611755324815, 41340.04310846843, 36292.86274824891, 30801.307356513425, 25100.33847097617, 0.0795, 0.7615000000000001, 0.1, 192.0, 0.0, 0.0, 0.0, 0.0, 0.0, 0.0, 0.0, 0.0, 0.0, 1.707474568548118E9, 0.0, 2024-02-09 11:29:28.548
8.0, -8983.657834965925, -15269.97420429876, 19934.962086076986, 94.9502104461444, 47204.51500469625, 19698.570036717658, 36135.08178413889, 11350.931090227496, 33413.30986181615, 4816.398598718476, 39286.543641870456, 28582.650850135193, 41110.22247197896, 36111.970080372106, 30682.530186477925, 24997.94512962641, 0.10200000000000001, 1.022, 0.134, 192.0, 1.5, 24.0, 15.5, 120.0, 2.0, 24.0, 0.0, 0.0, 0.0, 1.7074745685561538E9, 0.0, 2024-02-09 11:29:28.556
10.0, -8862.690193973804, -15205.757642478662, 20012.835563759276, 74.05132938043229, 47513.55022353533, 19789.608691884125, 36295.29908839454, 11476.771411510876, 33454.97351348084, 4841.812532164161, 39261.33087412487, 28614.278568539452, 40996.98853456838, 36122.14012409927, 30672.337791006303, 24949.08421624711, 0.10200000000000001, 1.022, 0.134, 192.0, 0.0, 0.0, 0.0, 0.0, 0.0, 0.0, 0.0, 0.0, 0.0, 1.7074745685651493E9, 0.0, 2024-02-09 11:29:28.565
12.0, -8977.801677918635, -15278.02083230267, 19919.315864958273, 52.571302958882214, 47328.83540735667, 19694.18909480442, 36184.657953340764, 11378.311977185247, 33601.7797710633, 4838.549177473686, 39524.030926708096, 28623.46513551058, 41401.48805397607, 36223.99702358211, 30775.33462945636, 25069.515415372305, 0.10200000000000001, 1.022, 0.134, 192.0, 0.0, 0.0, 0.0, 0.0, 0.0, 0.0, 0.0, 0.0, 0.0, 1.7074745685725896E9, 0.0, 2024-02-09 11:29:28.572
14.0, -8924.04573250362, -15233.674971303342, 19973.787066195855, 61.69081469664749, 47306.058979756715, 19740.18898489344, 36205.04274428401, 11410.610247923167, 33292.99042141323, 4790.403519916955, 39106.36622981623, 28541.009550214952, 40838.961701269356, 35995.02575338194, 30581.34383932875, 24867.58975596306, 0.10200000000000001, 1.022, 0.134, 192.0, 0.0, 0.0, 0.0, 0.0, 0.0, 0.0, 0.0, 0.0, 0.0, 1.7074745685801497E9, 0.0, 2024-02-09 11:29:28.580
16.0, -8891.143964665409, -15214.944209449794, 19988.829790214277, 78.4769747825831, 47540.97581398199, 19799.935197822477, 36329.56431264452, 11505.113423480205, 33631.12761153312, 4877.44121282592, 39531.29524365607, 28667.542775576447, 41365.635855869754, 36283.92205046678, 30794.914757599206, 25070.185967705962, 0.10200000000000001, 1.022, 0.134, 192.0, 0.0, 0.0, 0.0, 0.0, 0.0, 0.0, 0.0, 0.0, 0.0, 1.707474568589206E9, 0.0, 2024-02-09 11:29:28.589
18.0, -8983.099041354542, -15261.100561750003, 19922.869792326666, 77.44879453763897, 47203.553879684674, 19706.437850765928, 36147.28583661149, 11358.351869386659, 33395.20494880735, 4809.402502703965, 39281.24627843455, 28580.52743441194, 41091.91639327007, 36119.63672872028, 30663.374741479725, 24978.834388117124, 0.098, 1.014, 0.14, 192.0, 1.5, 8.0, 15.5, 88.0, 2.0, 48.0, 0.0, 0.0, 0.0, 1.7074745685961993E9, 0.0, 2024-02-09 11:29:28.596
20.0, -8864.858313185969, -15187.228046325214, 20011.740328280965, 89.2505156100411, 47521.39568583914, 19830.22181155942, 36331.75478360114, 11507.840336303752, 33448.893838989, 4864.656014997485, 39268.52813583948, 28616.75961217399, 40996.876775846096, 36149.38690059029, 30670.05791307186, 24952.816957571147, 0.098, 1.014, 0.14, 192.0, 0.0, 0.0, 0.0, 0.0, 0.0, 0.0, 0.0, 0.0, 0.0, 1.7074745686042275E9, 0.0, 2024-02-09 11:29:28.604
22.0, -8967.9669103583, -15242.347448152, 19944.7074466595, 103.68974252816946, 47358.31735829322, 19760.81964502569, 36239.59854121191, 11444.249623328404, 33599.65635534005, 4874.2449133688115, 39539.274816426616, 28644.520478787483, 41403.9243941217, 36288.32534412448, 30788.388048218258, 25110.64262517007, 0.098, 1.014, 0.14, 192.0, 0.0, 0.0, 0.0, 0.0, 0.0, 0.0, 0.0, 0.0, 0.0, 1.7074745686122468E9, 0.0, 2024-02-09 11:29:28.612
24.0, -8921.967020269278, -15208.842183213495, 19987.555740780324, 101.38751284927284, 47301.298058187735, 19763.792427038246, 36214.20695951068, 11429.586878965722, 33313.844598990036, 4816.622116163029, 39137.904541242664, 28565.909393538168, 40872.511669696774, 36050.83805928684, 30602.935624472575, 24914.55077106366, 0.098, 1.014, 0.14, 192.0, 0.0, 0.0, 0.0, 0.0, 0.0, 0.0, 0.0, 0.0, 0.0, 1.7074745686213758E9, 0.0, 2024-02-09 11:29:28.621
26.0, -8886.785374496625, -15200.572037765032, 20007.895828234654, 96.96186744712203, 47556.1750002116, 19808.317101993216, 36326.90445505434, 11539.37864773019, 33634.6368354126, 4884.079680929146, 39538.31369141504, 28663.653572041225, 41354.63879759774, 36277.48474806365, 30797.03817332246, 25095.130514518085, 0.098, 1.014, 0.14, 192.0, 0.0, 0.0, 0.0, 0.0, 0.0, 0.0, 0.0, 0.0, 0.0, 1.7074745686284535E9, 0.0, 2024-02-09 11:29:28.628
28.0, -8986.988244889766, -15256.607861114486, 19941.309981502294, 105.83550999587894, 47204.02326631824, 19710.528220001248, 36134.16536261623, 11369.751259058865, 33409.24184432529, 4808.977819559314, 39297.74186584257, 28577.55465239938, 41116.81623659328, 36134.70180448316, 30674.081227073817, 25005.500019252304, 0.08600000000000001, 1.03, 0.146, 192.0, 1.0, 88.0, 16.0, 24.0, 2.0, 72.0, 0.0, 0.0, 0.0, 1.7074745686362913E9, 0.0, 2024-02-09 11:29:28.636
30.0, -8855.023545625632, -15182.891807900884, 20038.517718138424, 95.77722499099076, 47528.54824406484, 19798.54938966625, 36315.99680376015, 11507.415653159102, 33458.86271701607, 4846.10406709958, 39282.25210693504, 28620.537056986937, 40998.06141830223, 36144.64833076577, 30677.769264908944, 24965.333934466118, 0.08600000000000001, 1.03, 0.146, 192.0, 0.0, 0.0, 0.0, 0.0, 0.0, 0.0, 0.0, 0.0, 0.0, 1.7074745686442485E9, 0.0, 2024-02-09 11:29:28.644
32.0, -8964.100058567532, -15255.825550058551, 19958.47612124397, 83.66257949621433, 47359.61375947163, 19709.120060100566, 36216.97857582314, 11419.528593960833, 33613.201512479965, 4827.865043624049, 39556.664473612844, 28636.920885672676, 41416.91075765023, 36232.78125915304, 30793.86422560981, 25103.66888090001, 0.08600000000000001, 1.03, 0.146, 192.0, 0.0, 0.0, 0.0, 0.0, 0.0, 0.0, 0.0, 0.0, 0.0, 1.7074745686523345E9, 0.0, 2024-02-09 11:29:28.652
34.0, -8909.293581163118, -15210.049177414081, 20008.320511379305, 106.6625245407253, 47308.584726880166, 19743.89937447302, 36206.07092452895, 11411.750186890387, 33330.78722128716, 4752.003222942737, 39150.60033209328, 28564.61299235976, 40857.960684056365, 36022.78661999543, 30599.001717448442, 24893.16015161993, 0.08600000000000001, 1.03, 0.146, 192.0, 0.0, 0.0, 0.0, 0.0, 0.0, 0.0, 0.0, 0.0, 0.0, 1.707474568660338E9, 0.0, 2024-02-09 11:29:28.660
36.0, -8874.380156323929, -15188.05506087006, 20029.509965122936, 113.74802753305764, 47557.96313976803, 19799.890494333566, 36322.34469918546, 11513.294161950847, 33651.087719331714, 4919.194271468434, 39563.6382178829, 28697.20354046864, 41338.590245078834, 36329.877237066896, 30795.47355121059, 25082.9711655344, 0.08600000000000001, 1.03, 0.146, 192.0, 0.0, 0.0, 0.0, 0.0, 0.0, 0.0, 0.0, 0.0, 0.0, 1.7074745686683297E9, 0.0, 2024-02-09 11:29:28.668
38.0, -8969.442125492349, -15236.357180637979, 19966.835673670255, 123.82866428240112, 47225.90562413998, 19710.9529031459, 36141.116755141826, 11345.544319813767, 33443.93175171992, 4842.036049608713, 39344.568770476435, 28610.85875163779, 41159.53042024737, 36174.174985191225, 30689.012192369963, 25005.27650180775, 0.084, 1.024, 0.15, 192.0, 1.0, 80.0, 16.0, 0.0, 2.0, 88.0, 0.0, 0.0, 0.0, 1.70747456867729E9, 0.0, 2024-02-09 11:29:28.677
40.0, -8876.458868558273, -15203.701281988775, 19996.451735073537, 51.5878262028487, 47509.43750255555, 19786.837075571668, 36287.18540515726, 11448.675268730554, 33440.22136214034, 4819.639601664496, 39286.81186280392, 28615.060879595385, 40999.603688669646, 36127.81746719092, 30661.385436223205, 24944.479756889315, 0.084, 1.024, 0.15, 192.0, 0.0, 0.0, 0.0, 0.0, 0.0, 0.0, 0.0, 0.0, 0.0, 1.707474568684286E9, 0.0, 2024-02-09 11:29:28.684
42.0, -8943.692915879836, -15223.951962465282, 19976.402220297125, 119.9171090027224, 47382.01020741585, 19757.9139182465, 36224.533465449036, 11418.031027082328, 33615.10141075867, 4794.80681357465, 39563.54881090508, 28628.270760568474, 41447.39853708727, 36267.49351829213, 30793.461894209613, 25096.561026163225, 0.084, 1.024, 0.15, 192.0, 0.0, 0.0, 0.0, 0.0, 0.0, 0.0, 0.0, 0.0, 0.0, 1.7074745686923888E9, 0.0, 2024-02-09 11:29:28.692
44.0, -8895.211982156276, -15186.602197480464, 20009.773374768898, 118.62070782431458, 47331.495264946854, 19767.994554995843, 36220.08546830243, 11399.322616973235, 33369.276925239195, 4862.465544040864, 39179.97052430755, 28605.0025945905, 40918.936242930446, 36096.74854239804, 30619.185342691584, 24916.60713155355, 0.084, 1.024, 0.15, 192.0, 0.0, 0.0, 0.0, 0.0, 0.0, 0.0, 0.0, 0.0, 0.0, 1.7074745687016757E9, 0.0, 2024-02-09 11:29:28.701
46.0, -8869.440420799307, -15184.098802101471, 20008.499325334946, 96.38072209128406, 47573.13997425318, 19799.801087355743, 36346.81985936402, 11496.284484420357, 33674.82527194325, 4906.2079079399, 39569.539078419104, 28692.73319157758, 41371.40260593923, 36296.95311748423, 30811.186827562673, 25086.59214813616, 0.084, 1.024, 0.15, 192.0, 0.0, 0.0, 0.0, 0.0, 0.0, 0.0, 0.0, 0.0, 0.0, 1.7074745687074192E9, 0.0, 2024-02-09 11:29:28.707
48.0, -8997.337102572574, -15271.918806066371, 19907.17886771904, 52.75011691452467, 47203.48682445131, 19677.984080074322, 36149.31984535693, 11323.684313736478, 33436.868600472044, 4753.232568887779, 39325.32391850041, 28569.016286017453, 41149.09215558674, 36129.04681313596, 30678.663334687157, 24986.52338820975, 0.08, 1.018, 0.14400000000000002, 192.0, 1.0, 64.0, 15.5, 104.0, 2.0, 64.0, 0.0, 0.0, 0.0, 1.707474568716458E9, 0.0, 2024-02-09 11:29:28.716
50.0, -8911.23818293073, -15255.087942491526, 19950.988286851443, -9.030104759944054, 47477.340397517735, 19746.894508230034, 36288.07947493547, 11457.280690345848, 33360.91737281292, 4601.844203691984, 39217.58851022584, 28515.953244680553, 40925.57471103367, 36032.979015467055, 30618.514790357924, 24893.338965575575, 0.08, 1.018, 0.14400000000000002, 192.0, 0.0, 0.0, 0.0, 0.0, 0.0, 0.0, 0.0, 0.0, 0.0, 1.7074745687244456E9, 0.0, 2024-02-09 11:29:28.724
52.0, -8995.794832205156, -15259.111256493481, 19895.712422813467, 46.893959867234216, 47349.3766605111, 19697.22893205034, 36201.98055529363, 11384.749279588375, 33498.24649074632, 4626.073494681536, 39502.03681016407, 28546.664541562146, 41385.48420494607, 36215.41395371127, 30750.926524511164, 25044.839089493646, 0.08, 1.018, 0.14400000000000002, 192.0, 0.0, 0.0, 0.0, 0.0, 0.0, 0.0, 0.0, 0.0, 0.0, 1.7074745687323782E9, 0.0, 2024-02-09 11:29:28.732
54.0, -8929.790130828635, -15214.161898393859, 19986.281691346372, 80.98037016157748, 47307.310677446214, 19741.351275605117, 36195.67736335723, 11382.447049909479, 33344.35473017153, 4748.359888596522, 39146.17468669113, 28553.392416643193, 40892.06944609516, 36093.57459468539, 30590.10572315523, 24885.560558505127, 0.08, 1.018, 0.14400000000000002, 192.0, 0.0, 0.0, 0.0, 0.0, 0.0, 0.0, 0.0, 0.0, 0.0, 1.7074745687404146E9, 0.0, 2024-02-09 11:29:28.740
56.0, -8901.559877581582, -15210.540915792099, 19974.09999061823, 44.03293657695491, 47545.04383147286, 19759.366781636094, 36307.99487924515, 11463.025088670862, 33586.26766041132, 4719.190862082346, 39519.73939177268, 28639.62544675177, 41381.19267001065, 36259.893925177326, 30777.94978355763, 25056.082016954664, 0.08, 1.018, 0.14400000000000002, 192.0, 0.0, 0.0, 0.0, 0.0, 0.0, 0.0, 0.0, 0.0, 0.0, 1.707474568748412E9, 0.0, 2024-02-09 11:29:28.748
58.0, -9066.001661539276, -15341.812710978116, 19850.137215869097, -23.446979933617108, 47143.159466166435, 19637.393312143482, 36080.297658478936, 11301.109051836616, 33345.248799949746, 4455.59673972091, 39261.82261250289, 28487.76769492241, 41127.70153614301, 36080.94585906814, 30636.083261499796, 24941.439919643395, 0.084, 1.008, 0.14200000000000002, 192.0, 1.0, 80.0, 15.5, 64.0, 2.0, 56.0, 0.0, 0.0, 0.0, 1.7074745687564423E9, 0.0, 2024-02-09 11:29:28.756
60.0, -8833.610574437449, -15156.069714554515, 20001.123249664695, 47.09512556733198, 47533.91266273412, 19793.34143320816, 36324.46811490871, 11486.784993026853, 33431.95121669188, 4410.580326387922, 39206.30087927591, 28473.8202063823, 40966.5678103647, 36047.28413191845, 30608.992947219962, 24872.35067753204, 0.084, 1.008, 0.14200000000000002, 192.0, 0.0, 0.0, 0.0, 0.0, 0.0, 0.0, 0.0, 0.0, 0.0, 1.7074745687635884E9, 0.0, 2024-02-09 11:29:28.763
62.0, -9010.9269632014, -15327.306428826623, 19926.8036993508, 47.497456967527505, 47366.69926246396, 19701.498115241306, 36196.63848836881, 11389.15257324607, 33724.37908940066, 4664.563198633576, 39607.715857948766, 28679.59036583786, 41536.17966606375, 36425.90033124689, 30826.207199836637, 25118.30927351824, 0.084, 1.008, 0.14200000000000002, 192.0, 0.0, 0.0, 0.0, 0.0, 0.0, 0.0, 0.0, 0.0, 0.0, 1.7074745687724366E9, 0.0, 2024-02-09 11:29:28.772
64.0, -8978.941616885855, -15273.572835156065, 19923.69680687151, -10.862947805279232, 47278.365168376586, 19688.17647554594, 36163.37909261931, 11357.770724030821, 33195.40270512136, 4156.016308786429, 39059.49462169345, 28413.13522018614, 40856.46311717786, 35974.037465338406, 30526.98439681344, 24802.32266215356, 0.084, 1.008, 0.14200000000000002, 192.0, 0.0, 0.0, 0.0, 0.0, 0.0, 0.0, 0.0, 0.0, 0.0, 1.7074745687804868E9, 0.0, 2024-02-09 11:29:28.780
66.0, -8788.482402382184, -15065.679259977254, 20055.169767757627, 169.023891571032, 47617.61994571924, 19835.697988950968, 36355.894667612876, 11533.030752304883, 33700.23920538893, 4449.606472206888, 39558.60907538045, 28669.576784321882, 41393.57553643889, 36325.02690852009, 30784.431789449667, 25057.736046044356, 0.084, 1.008, 0.14200000000000002, 192.0, 0.0, 0.0, 0.0, 0.0, 0.0, 0.0, 0.0, 0.0, 0.0, 1.7074745687885106E9, 0.0, 2024-02-09 11:29:28.788
68.0, -8965.642328934948, -15213.759566993664, 19917.483021912936, 74.90069566973396, 47207.420731475446, 19692.155086058985, 36135.12648762781, 11341.05161917825, 33540.44658427794, 4319.966354366106, 39383.147881406294, 28645.772176476978, 41250.97140681403, 36277.79767248603, 30703.965509410562, 25013.457240278392, 0.085, 1.013, 0.14400000000000002, 192.0, 1.0, 88.0, 15.5, 104.0, 2.0, 72.0, 0.0, 0.0, 0.0, 1.707474568795524E9, 0.0, 2024-02-09 11:29:28.795
70.0, -8939.647250133426, -15263.246329217713, 19899.17694320404, -59.299178039929636, 47457.98378681944, 19703.286254797727, 36233.474163231156, 11400.641369896099, 33351.93197154188, 3898.0771777721857, 39177.8471085843, 28487.901805389145, 40956.397766637536, 36074.82148108738, 30582.640240507157, 24855.609220935014, 0.085, 1.013, 0.14400000000000002, 192.0, 0.0, 0.0, 0.0, 0.0, 0.0, 0.0, 0.0, 0.0, 0.0, 1.7074745688045218E9, 0.0, 2024-02-09 11:29:28.804
72.0, -8962.11075331101, -15256.40669541439, 19935.8561558552, 52.370137258784446, 47383.172498127526, 19691.171609302954, 36196.146749990796, 11378.535494629801, 33634.6368354126, 3910.951782578443, 39543.65575833985, 28553.459471876562, 41489.15159572978, 36327.44089692127, 30756.961495514097, 25036.27837136726, 0.085, 1.013, 0.14400000000000002, 192.0, 0.0, 0.0, 0.0, 0.0, 0.0, 0.0, 0.0, 0.0, 0.0, 1.7074745688125124E9, 0.0, 2024-02-09 11:29:28.812
74.0, -8932.517043652182, -15205.601180267477, 19936.772577377866, -3.620982601759744, 47286.94823824742, 19668.551643914183, 36152.359682602844, 11333.653191763544, 33293.79508421363, 3838.8450549656222, 39109.674287995615, 28487.34301177776, 40918.39980106352, 35979.893622385694, 30560.400254774126, 24838.800709104624, 0.085, 1.013, 0.14400000000000002, 192.0, 0.0, 0.0, 0.0, 0.0, 0.0, 0.0, 0.0, 0.0, 0.0, 1.7074745688195667E9, 0.0, 2024-02-09 11:29:28.819
76.0, -8874.201342368287, -15175.962767119738, 20004.207790399527, 102.1921756496639, 47565.74154683847, 19789.072250017198, 36284.72671326718, 11454.889053689129, 33666.890402661615, 3980.0857281787075, 39537.68784257029, 28653.52823180297, 41396.79418764045, 36477.08582604955, 30760.5601263714, 25042.648618537023, 0.085, 1.013, 0.14400000000000002, 192.0, 0.0, 0.0, 0.0, 0.0, 0.0, 0.0, 0.0, 0.0, 0.0, 1.707474568828604E9, 0.0, 2024-02-09 11:29:28.828
78.0, -8930.594793629027, -15199.834430198007, 19960.46542650049, 95.75487324653545, 47237.39442079001, 19694.457315737884, 36129.87382768081, 11313.491918264857, 33500.504016936306, 3778.1824205139187, 39340.97013961913, 28573.352524441783, 41223.61287160074, 36174.91259275825, 30671.6895904171, 24979.95197533989, 0.0835, 1.0165, 0.14300000000000002, 192.0, 1.0, 72.0, 15.5, 112.0, 2.0, 56.0, 0.0, 0.0, 0.0, 1.707474568836588E9, 0.0, 2024-02-09 11:29:28.836
80.0, -8836.538652961093, -15160.80828437904, 20027.11832846622, 78.27580908248534, 47531.25280514393, 19781.897340047042, 36271.89681194983, 11444.27197507286, 33549.70020648244, 3776.103708279575, 39310.9293950712, 28627.80137393491, 41103.67341085356, 36297.936594240266, 30671.667238672646, 24942.423396399427, 0.0835, 1.0165, 0.14300000000000002, 192.0, 0.0, 0.0, 0.0, 0.0, 0.0, 0.0, 0.0, 0.0, 0.0, 1.7074745688445694E9, 0.0, 2024-02-09 11:29:28.844
82.0, -8936.473302420773, -15216.173555394837, 19938.247792511916, 78.36521606030657, 47387.844012718684, 19717.77018520477, 36195.1409214903, 11389.890180813096, 33656.943876379, 3615.886404023934, 39568.26502898515, 28612.624539449756, 41526.367250247866, 36381.330952803015, 30779.335591713858, 25076.57856662018, 0.0835, 1.0165, 0.14300000000000002, 192.0, 0.0, 0.0, 0.0, 0.0, 0.0, 0.0, 0.0, 0.0, 0.0, 1.707474568851601E9, 0.0, 2024-02-09 11:29:28.851
84.0, -8901.403415370396, -15193.084203372504, 19973.876473173677, 70.69856771213624, 47309.903479803026, 19731.56121153369, 36175.42668288072, 11347.667735537021, 33375.49071019777, 3604.6881800518254, 39162.35734967677, 28552.677160820625, 40977.14018549206, 36142.45785980915, 30589.30106035484, 24885.44879978285, 0.0835, 1.0165, 0.14300000000000002, 192.0, 0.0, 0.0, 0.0, 0.0, 0.0, 0.0, 0.0, 0.0, 0.0, 1.7074745688605573E9, 0.0, 2024-02-09 11:29:28.860
86.0, -8855.738801448202, -15172.274729284612, 19991.57905478228, 60.95320712962236, 47562.724061337, 19780.936215035465, 36301.199948930735, 11469.417687585079, 33673.05948413128, 3563.091583620499, 39535.89970301386, 28633.434013537648, 41425.560882754435, 36362.019045593624, 30760.13544322675, 25040.0111126913, 0.0835, 1.0165, 0.14300000000000002, 192.0, 0.0, 0.0, 0.0, 0.0, 0.0, 0.0, 0.0, 0.0, 0.0, 1.7074745688686202E9, 0.0, 2024-02-09 11:29:28.868
88.0, -8972.146686571443, -15231.842128258006, 19924.61322839418, 70.76562294550216, 47217.25549903578, 19698.078298339642, 36142.43550806469, 11330.38983707307, 33464.11537696307, 3489.0849577289773, 39330.62128193632, 28564.098902237285, 41245.62933988921, 36285.8666522344, 30671.01903808344, 24983.438847474918, 0.07775000000000001, 1.01125, 0.14150000000000001, 192.0, 1.0, 32.0, 15.5, 56.0, 2.0, 48.0, 0.0, 0.0, 0.0, 1.7074745688756208E9, 0.0, 2024-02-09 11:29:28.875
90.0, -8857.549292749083, -15172.386488006889, 20000.7209182645, 50.15731455770905, 47507.06821764329, 19781.740877835855, 36288.973544713685, 11441.522710504856, 33472.34081892262, 3439.486436782651, 39262.31435088091, 28579.342791955805, 41060.19926788798, 36234.725860920655, 30647.952037805564, 24922.239771156284, 0.07775000000000001, 1.01125, 0.14150000000000001, 192.0, 0.0, 0.0, 0.0, 0.0, 0.0, 0.0, 0.0, 0.0, 0.0, 1.7074745688846645E9, 0.0, 2024-02-09 11:29:28.884
92.0, -8948.364430470996, -15223.236706642712, 19934.693865143523, 61.17672457417543, 47371.482535777395, 19724.453356796905, 36210.13894201982, 11380.748317330876, 33648.629027441624, 3404.707122410193, 39562.9900172937, 28610.992862104522, 41510.363401217866, 36384.72841796022, 30784.90117608323, 25075.505682886327, 0.07775000000000001, 1.01125, 0.14150000000000001, 192.0, 0.0, 0.0, 0.0, 0.0, 0.0, 0.0, 0.0, 0.0, 0.0, 1.7074745688919356E9, 0.0, 2024-02-09 11:29:28.891
94.0, -8920.737674324237, -15197.353386563467, 19952.977592107964, 58.181590817164285, 47283.50606960131, 19723.224010851864, 36185.41791265224, 11341.342191856169, 33346.58990461706, 3320.4186940692302, 39141.39141337769, 28527.620855286226, 40941.24328389684, 36154.72896751511, 30588.29523185435, 24883.325384059597, 0.07775000000000001, 1.01125, 0.14150000000000001, 192.0, 0.0, 0.0, 0.0, 0.0, 0.0, 0.0, 0.0, 0.0, 0.0, 1.7074745689006343E9, 0.0, 2024-02-09 11:29:28.900
96.0, -8886.360691351974, -15193.866514428439, 19969.070848115785, 47.40804998970628, 47550.76587805342, 19766.00524973932, 36317.0249840051, 11449.79285595332, 33644.35984425066, 3358.908398021269, 39512.698592269255, 28621.453478509604, 41388.27817300298, 36390.07048488504, 30763.75642582851, 25043.76620575979, 0.07775000000000001, 1.01125, 0.14150000000000001, 192.0, 0.0, 0.0, 0.0, 0.0, 0.0, 0.0, 0.0, 0.0, 0.0, 1.7074745689086835E9, 0.0, 2024-02-09 11:29:28.908
98.0, -8994.58783800457, -15257.099599492503, 19904.36254791767, 59.07566059537657, 47201.07283605014, 19680.55453068668, 36139.015691163026, 11304.931200138475, 33432.01827192525, 3268.3167777439094, 39309.81180784843, 28534.773413511924, 41221.131827966194, 36240.537314479036, 30659.574944922322, 24976.50980669377, 0.082875, 1.0046249999999999, 0.13375, 192.0, 1.0, 96.0, 15.5, 24.0, 1.5, 120.0, 0.0, 0.0, 0.0, 1.7074745689157004E9, 0.0, 2024-02-09 11:29:28.915
100.0, -8873.150810378887, -15199.901485431372, 19987.6674995026, 28.274956735963436, 47491.06436861329, 19753.15299667752, 36284.79376850054, 11412.331332246225, 33449.18441166692, 3278.240952282066, 39246.489315806546, 28564.165957470654, 41037.914578666045, 36222.32064274796, 30637.089090000285, 24919.781079266202, 0.082875, 1.0046249999999999, 0.13375, 192.0, 0.0, 0.0, 0.0, 0.0, 0.0, 0.0, 0.0, 0.0, 0.0, 1.707474568923719E9, 0.0, 2024-02-09 11:29:28.923
102.0, -8973.331329027573, -15256.853730303495, 19916.678359112546, 43.720012154580616, 47354.51756173582, 19683.750830143792, 36202.76286634956, 11356.049639707762, 33625.159695763556, 3234.9903267610466, 39531.25054016716, 28561.12612022473, 41486.938773028705, 36311.43704789127, 30761.811824060896, 25051.790482019245, 0.082875, 1.0046249999999999, 0.13375, 192.0, 0.0, 0.0, 0.0, 0.0, 0.0, 0.0, 0.0, 0.0, 0.0, 1.707474568932714E9, 0.0, 2024-02-09 11:29:28.932
104.0, -8940.273098978174, -15233.20558466978, 19957.336182276747, 66.11646009879829, 47268.48569732734, 19703.777993175747, 36157.902915227765, 11311.256743819325, 33327.70268055233, 3277.883324370781, 39130.10378242777, 28529.587808798293, 40931.27440586977, 36180.45582538317, 30575.867661937198, 24879.346773546553, 0.082875, 1.0046249999999999, 0.13375, 192.0, 0.0, 0.0, 0.0, 0.0, 0.0, 0.0, 0.0, 0.0, 0.0, 1.7074745689397316E9, 0.0, 2024-02-09 11:29:28.939
106.0, -8888.908790219879, -15211.747909992686, 19986.23698785746, 50.11261106879844, 47525.93308996357, 19750.113159431596, 36275.98718118515, 11431.64323945561, 33626.411393453054, 3312.4391212986857, 39504.450798565245, 28615.060879595385, 41365.23352446956, 36357.682807169294, 30749.317198910383, 25032.724443998868, 0.082875, 1.0046249999999999, 0.13375, 192.0, 0.0, 0.0, 0.0, 0.0, 0.0, 0.0, 0.0, 0.0, 0.0, 1.7074745689477005E9, 0.0, 2024-02-09 11:29:28.947
108.0, -8987.457631523328, -15284.145210283425, 19922.26629522637, 7.465482648072559, 47188.86878357754, 19645.97638201432, 36120.75431594304, 11329.428712061492, 33436.01923418274, 3273.323568501898, 39319.87009285332, 28521.988215683486, 41208.36898188222, 36154.03606343699, 30664.49232870249, 24976.71097239387, 0.0874375, 1.0043125, 0.12687500000000002, 192.0, 1.0, 112.0, 15.5, 48.0, 1.5, 96.0, 0.0, 0.0, 0.0, 1.7074745689566965E9, 0.0, 2024-02-09 11:29:28.956
110.0, -8860.767943950646, -15184.098802101471, 20015.271903904904, 73.85016368033453, 47488.56097323429, 19788.356994194626, 36304.55271059903, 11458.733553735443, 33434.298149859686, 3324.0173249265345, 39251.5631617979, 28537.232105402007, 41011.427761486506, 36161.72506352962, 30650.455433184557, 24917.367090865027, 0.0874375, 1.0043125, 0.12687500000000002, 192.0, 0.0, 0.0, 0.0, 0.0, 0.0, 0.0, 0.0, 0.0, 0.0, 1.7074745689647717E9, 0.0, 2024-02-09 11:29:28.964
112.0, -8947.336250226052, -15233.026770714137, 19956.33035377626, 117.70428630164699, 47367.638035731085, 19779.751572579335, 36227.1486195503, 11458.755905479897, 33633.407489467565, 3608.957363242789, 39566.90157257338, 28636.518554272483, 41476.098176967884, 36483.65723891941, 30803.363717003314, 25126.221791055417, 0.0874375, 1.0043125, 0.12687500000000002, 192.0, 0.0, 0.0, 0.0, 0.0, 0.0, 0.0, 0.0, 0.0, 0.0, 1.7074745689720392E9, 0.0, 2024-02-09 11:29:28.972
114.0, -8919.57538361256, -15215.234782127713, 19985.81230471281, 87.95411443163329, 47285.428319624465, 19757.42217986848, 36196.347915690894, 11408.084500799716, 33331.54718059864, 3576.9943686716997, 39148.25339892547, 28541.300122892873, 40919.45033305292, 36219.45961945768, 30613.597406577755, 24931.873373016522, 0.0874375, 1.0043125, 0.12687500000000002, 192.0, 0.0, 0.0, 0.0, 0.0, 0.0, 0.0, 0.0, 0.0, 0.0, 1.7074745689797387E9, 0.0, 2024-02-09 11:29:28.979
116.0, -8884.751365751192, -15204.863572700451, 19994.216560628007, 55.208808804608445, 47538.24890115844, 19783.35020343664, 36305.71500131071, 11497.692644321043, 33633.20632376747, 3624.402418661406, 39518.59945280546, 28623.018100621477, 41348.60382659481, 36367.15994681835, 30771.534832898957, 25069.984802005863, 0.0874375, 1.0043125, 0.12687500000000002, 192.0, 0.0, 0.0, 0.0, 0.0, 0.0, 0.0, 0.0, 0.0, 0.0, 1.7074745689887977E9, 0.0, 2024-02-09 11:29:28.988
118.0, -8987.569390245604, -15259.78180882714, 19927.60836215119, 86.88123069777855, 47202.14571978399, 19707.84601066661, 36136.10996438384, 11354.976755973907, 33421.82587645362, 3587.589095543515, 39320.13831378679, 28541.59069557079, 41178.48469954547, 36241.6549017018, 30670.05791307186, 24995.531141225238, 0.07971875, 1.01115625, 0.1194375, 192.0, 1.0, 32.0, 15.5, 104.0, 1.5, 64.0, 0.0, 0.0, 0.0, 1.7074745689957871E9, 0.0, 2024-02-09 11:29:28.995
120.0, -8869.038089399111, -15198.113345874948, 20009.728671279987, 57.68985243914753, 47490.99731337992, 19777.695212089446, 36267.27000084758, 11465.75200149441, 33444.647007542495, 3608.510328353683, 39246.086984406356, 28573.173710486142, 41005.95158409495, 36241.6549017018, 30648.533183161402, 24938.578896353116, 0.07971875, 1.01115625, 0.1194375, 192.0, 0.0, 0.0, 0.0, 0.0, 0.0, 0.0, 0.0, 0.0, 0.0, 1.7074745690038128E9, 0.0, 2024-02-09 11:29:29.003
122.0, -8963.653023678426, -15261.100561750003, 19932.27987674235, 41.44013422013929, 47365.5816752412, 19707.443679266416, 36190.759979577066, 11411.481965956924, 33632.356957478165, 3619.23916569223, 39544.371014162425, 28588.41760020466, 41459.15555467076, 36360.72264441522, 30775.66990562319, 25081.652412611536, 0.07971875, 1.01115625, 0.1194375, 192.0, 0.0, 0.0, 0.0, 0.0, 0.0, 0.0, 0.0, 0.0, 0.0, 1.707474569011823E9, 0.0, 2024-02-09 11:29:29.011
124.0, -8973.800715661135, -15290.068422564082, 19926.37901620615, -1.5199186229608803, 47235.40511553349, 19678.028783563233, 36126.76693520152, 11334.636668519577, 33311.54236931114, 3521.2267662557088, 39103.77342745941, 28474.334296504774, 40857.17837300043, 36085.6173736593, 30566.949315899532, 24870.87546239799, 0.07971875, 1.01115625, 0.1194375, 192.0, 0.0, 0.0, 0.0, 0.0, 0.0, 0.0, 0.0, 0.0, 0.0, 1.70747456902085E9, 0.0, 2024-02-09 11:29:29.020
126.0, -8883.790240739614, -15235.954849237783, 20000.497400819946, 37.59563417382648, 47552.73283156548, 19760.305554903218, 36275.65190501832, 11474.670347532076, 33609.40171592256, 3500.3949404233626, 39456.61806543089, 28534.84046874529, 41291.98685788952, 36251.444965773226, 30721.04224217442, 25005.544722741215, 0.07971875, 1.01115625, 0.1194375, 192.0, 0.0, 0.0, 0.0, 0.0, 0.0, 0.0, 0.0, 0.0, 0.0, 1.707474569028062E9, 0.0, 2024-02-09 11:29:29.028
128.0, -8971.54318947115, -15263.849826318006, 19965.338106791747, 101.29810587145161, 47257.39923207751, 19718.708958471892, 36123.10124911085, 11342.973869201407, 33488.45642667489, 3630.638555364437, 39340.523104730026, 28555.18055619962, 41252.87130509273, 36302.89868150934, 30706.133628622727, 25005.0529843632, 0.066859375, 1.018578125, 0.11471875000000001, 192.0, 0.5, 88.0, 16.0, 8.0, 1.5, 56.0, 0.0, 0.0, 0.0, 1.7074745690358691E9, 0.0, 2024-02-09 11:29:29.035
130.0, -8861.527903262127, -15214.698340260786, 20039.612953616735, 51.67723318066993, 47517.48413055946, 19774.185988209963, 36236.98338711064, 11448.675268730554, 33491.11628426508, 3629.7891890751353, 39268.505784095025, 28580.818007089856, 41052.689081751, 36252.85312567391, 30677.16576780865, 24945.574992367627, 0.066859375, 1.018578125, 0.11471875000000001, 192.0, 0.0, 0.0, 0.0, 0.0, 0.0, 0.0, 0.0, 0.0, 0.0, 1.7074745690438628E9, 0.0, 2024-02-09 11:29:29.043
132.0, -8969.240959792252, -15285.59807367302, 19934.38094072115, 47.363346500795664, 47390.079187164214, 19714.9538654034, 36194.13509298982, 11385.44218366649, 33657.18974556801, 3550.6640137033482, 39564.95697080576, 28572.257288963472, 41467.7386245416, 36336.56040865903, 30796.993469833553, 25075.885662542067, 0.066859375, 1.018578125, 0.11471875000000001, 192.0, 0.0, 0.0, 0.0, 0.0, 0.0, 0.0, 0.0, 0.0, 0.0, 1.7074745690520208E9, 0.0, 2024-02-09 11:29:29.052
134.0, -8981.556770987127, -15305.446422749332, 19884.849475008188, -11.04176176092169, 47239.070801624155, 19672.262033493764, 36115.43460076268, 11302.785432670766, 33278.59589798402, 3573.9992349146887, 39086.56258422883, 28468.522842946393, 40792.33596233559, 36077.23546948856, 30557.42747276157, 24855.050427323633, 0.066859375, 1.018578125, 0.11471875000000001, 192.0, 0.0, 0.0, 0.0, 0.0, 0.0, 0.0, 0.0, 0.0, 0.0, 1.7074745690598893E9, 0.0, 2024-02-09 11:29:29.059
136.0, -8887.366519852463, -15239.084093461526, 19973.250624328928, 9.074808248854668, 47551.59289259826, 19744.569926806682, 36266.398282813825, 11445.16604485107, 33556.092805396656, 3545.70192643427, 39432.455829674705, 28534.616951300737, 41285.258982808475, 36290.33700112546, 30719.209399129082, 24989.80909464468, 0.066859375, 1.018578125, 0.11471875000000001, 192.0, 0.0, 0.0, 0.0, 0.0, 0.0, 0.0, 0.0, 0.0, 0.0, 1.7074745690679252E9, 0.0, 2024-02-09 11:29:29.067
138.0, -8946.710401381302, -15268.320175209068, 19997.658729274124, 65.93764614315583, 47284.60130507962, 19678.118190541052, 36134.23241784959, 11327.327648082692, 33553.38824431756, 3603.1012061954984, 39368.41808181025, 28522.45760231705, 41282.71088394057, 36209.0437065415, 30703.652584988187, 24974.140521781508, 0.060429687499999996, 1.0232890625, 0.11535937500000001, 192.0, 0.5, 88.0, 16.0, 16.0, 1.5, 80.0, 0.0, 0.0, 0.0, 1.7074745690769289E9, 0.0, 2024-02-09 11:29:29.076
140.0, -8887.433575085828, -15199.789726709096, 19993.68011876108, 51.65488143621462, 47512.991429923946, 19784.378383681582, 36252.4060907848, 11425.183585308027, 33502.672136148474, 3560.5211330081383, 39274.786624286964, 28558.26509693445, 41067.10595692467, 36192.34695343339, 30682.39607601119, 24920.31752113313, 0.060429687499999996, 1.0232890625, 0.11535937500000001, 192.0, 0.0, 0.0, 0.0, 0.0, 0.0, 0.0, 0.0, 0.0, 0.0, 1.7074745690841708E9, 0.0, 2024-02-09 11:29:29.084
142.0, -8978.87456165249, -15292.996501087726, 19907.782364819333, -21.725895610558464, 47373.516544522834, 19686.410687733973, 36167.91649674374, 11355.289680396281, 33495.94426106742, 3471.6282453093822, 39471.54903072704, 28491.50043624645, 41395.94482135115, 36337.90151332635, 30729.312387622882, 25021.392109560027, 0.060429687499999996, 1.0232890625, 0.11535937500000001, 192.0, 0.0, 0.0, 0.0, 0.0, 0.0, 0.0, 0.0, 0.0, 0.0, 1.707474569092394E9, 0.0, 2024-02-09 11:29:29.092
144.0, -9054.60227186707, -15477.06311667718, 19872.31014636876, -143.3640889363395, 47268.64215953853, 19642.489509879295, 36088.45604520512, 11282.847676616631, 33367.28761998268, 3422.6332214633494, 39142.64311106719, 28441.857211811213, 40972.06633950071, 36088.23252776057, 30597.392391847658, 24858.894927369944, 0.060429687499999996, 1.0232890625, 0.11535937500000001, 192.0, 0.0, 0.0, 0.0, 0.0, 0.0, 0.0, 0.0, 0.0, 0.0, 1.7074745691009755E9, 0.0, 2024-02-09 11:29:29.100
146.0, -8891.948627465801, -15167.245586782168, 19976.603385997223, 46.33516625585154, 47574.03404403139, 19725.727406230857, 36261.8608786894, 11421.897878873096, 33456.82870827064, 3107.6747903436176, 39370.25092485559, 28363.939030640013, 41254.23476150451, 36084.499786436536, 30686.575852224334, 24906.325329104107, 0.060429687499999996, 1.0232890625, 0.11535937500000001, 192.0, 0.0, 0.0, 0.0, 0.0, 0.0, 0.0, 0.0, 0.0, 0.0, 1.7074745691069703E9, 0.0, 2024-02-09 11:29:29.106
148.0, -8942.172997256876, -15210.719729747741, 20026.73834881048, 180.13270856531963, 47321.302869475236, 19759.85852001411, 36163.91553448624, 11326.657095749033, 33579.31626788572, 3822.461226279882, 39406.863082273376, 28667.85569999882, 41351.01781499598, 36555.33928338758, 30735.325006881358, 25018.888714181034, 0.07021484375, 1.02564453125, 0.12167968750000001, 192.0, 1.0, 64.0, 16.0, 16.0, 2.0, 0.0, 0.0, 0.0, 0.0, 1.7074745691159751E9, 0.0, 2024-02-09 11:29:29.115
150.0, -8914.456834132294, -15290.247236519723, 20003.71605202151, -9.857119304790414, 47525.55311030783, 19741.44068258294, 36242.303102291, 11368.946596258475, 33539.97719764438, 3303.4313682831967, 39303.888595567776, 28610.27760628195, 41142.96777760598, 36262.196154856225, 30702.043259387407, 24942.445748143884, 0.07021484375, 1.02564453125, 0.12167968750000001, 192.0, 0.0, 0.0, 0.0, 0.0, 0.0, 0.0, 0.0, 0.0, 0.0, 1.7074745691239748E9, 0.0, 2024-02-09 11:29:29.123
152.0, -9041.370039149528, -15378.693089329374, 19831.00412261535, -154.6964233751802, 47342.71584066342, 19577.669450958903, 36117.64742346376, 11271.537693922246, 33608.97703277791, 2729.6844398599196, 39461.93778061125, 28354.484242735416, 41483.653066593775, 36146.05649066645, 30710.894550191708, 24942.043416743687, 0.07021484375, 1.02564453125, 0.12167968750000001, 192.0, 0.0, 0.0, 0.0, 0.0, 0.0, 0.0, 0.0, 0.0, 0.0, 1.7074745691319528E9, 0.0, 2024-02-09 11:29:29.131
154.0, -8857.325775304529, -15132.108644498427, 20043.52450889641, 194.43782501671615, 47326.2202532554, 19766.67580207298, 36158.595819305876, 11329.629877761588, 33318.672575792385, 3227.8601202798036, 39123.51001781345, 28517.674329003614, 40990.61828739861, 36161.389787362794, 30553.918248882088, 24816.650130349415, 0.07021484375, 1.02564453125, 0.12167968750000001, 192.0, 0.0, 0.0, 0.0, 0.0, 0.0, 0.0, 0.0, 0.0, 0.0, 1.7074745691399884E9, 0.0, 2024-02-09 11:29:29.139
156.0, -8808.710731114237, -15127.548888629544, 20072.201797032572, 152.17067625173047, 47615.407123018165, 19816.00610208584, 36296.036695961564, 11441.969745393963, 33879.72371336505, 3352.0911159624, 39653.11225093749, 28773.06536114995, 41591.83550975746, 36539.78246924668, 30839.26061859854, 25098.863255842123, 0.07021484375, 1.02564453125, 0.12167968750000001, 192.0, 0.0, 0.0, 0.0, 0.0, 0.0, 0.0, 0.0, 0.0, 0.0, 1.7074745691479836E9, 0.0, 2024-02-09 11:29:29.147
158.0, -9069.577940652125, -15320.265629323201, 19853.914660682043, 19.289555464929997, 47178.117594494535, 19636.678056320914, 36047.999387741016, 11235.797254538209, 33441.070728429644, 3040.0160598774028, 39340.90308438577, 28555.739349811003, 41312.1481313882, 36268.78991947054, 30664.559383935855, 24966.071542033143, 0.082107421875, 1.023822265625, 0.12583984375, 192.0, 1.0, 120.0, 15.5, 120.0, 2.0, 8.0, 0.0, 0.0, 0.0, 1.7074745691565397E9, 0.0, 2024-02-09 11:29:29.156
160.0, -8886.450098329795, -15222.968485709249, 19974.14469410714, 24.51986366747185, 47484.82823191026, 19735.785691235746, 36223.058250314985, 11371.695860826476, 33407.43135302441, 2804.898059952028, 39181.51279467497, 28477.93292736208, 41046.83292470371, 36149.54336280148, 30584.070752152296, 24849.306028998617, 0.082107421875, 1.023822265625, 0.12583984375, 192.0, 0.0, 0.0, 0.0, 0.0, 0.0, 0.0, 0.0, 0.0, 0.0, 1.7074745691630123E9, 0.0, 2024-02-09 11:29:29.163
162.0, -8873.486086545718, -15207.635189012908, 20013.19319167056, 79.30398932742946, 47458.92256008656, 19732.321170845174, 36217.91734909026, 11390.940712802496, 33740.561752386304, 2944.954090708982, 39601.16679682336, 28593.938481085122, 41674.358150286454, 36351.9831123332, 30796.546434944445, 25066.028543237277, 0.082107421875, 1.023822265625, 0.12583984375, 192.0, 0.0, 0.0, 0.0, 0.0, 0.0, 0.0, 0.0, 0.0, 0.0, 1.7074745691723375E9, 0.0, 2024-02-09 11:29:29.172
164.0, -8952.499503195228, -15246.840148787518, 19936.9066878446, 42.401259231717496, 47274.99005496384, 19693.965577359864, 36126.11873461232, 11301.265514047804, 33455.17467918094, 2830.51315909781, 39197.18136753814, 28517.78608772589, 41130.8084286223, 36201.4441134267, 30622.806325293343, 24898.636329011482, 0.082107421875, 1.023822265625, 0.12583984375, 192.0, 0.0, 0.0, 0.0, 0.0, 0.0, 0.0, 0.0, 0.0, 0.0, 1.7074745691800237E9, 0.0, 2024-02-09 11:29:29.180
166.0, -8822.948792332267, -15193.62064523943, 20046.094959508773, 61.95903563011118, 47595.71523615304, 19769.939156763456, 36287.7665505131, 11441.45565527149, 33710.63276656065, 2951.9054832345823, 39529.39534537737, 28610.210551048585, 41527.99892759311, 36352.67601641131, 30757.296771680925, 25023.984911916843, 0.082107421875, 1.023822265625, 0.12583984375, 192.0, 0.0, 0.0, 0.0, 0.0, 0.0, 0.0, 0.0, 0.0, 0.0, 1.70747456918806E9, 0.0, 2024-02-09 11:29:29.188
168.0, -8945.279889736163, -15257.97131752626, 19961.851234656722, 77.02411139298813, 47255.901665199, 19687.215350534363, 36110.852493149345, 11317.850508433641, 33576.05291319524, 2835.542301600254, 39392.35680012188, 28536.405090857163, 41436.28972009298, 36247.28754130453, 30697.03646862942, 24986.76925739876, 0.0860537109375, 1.0229111328125, 0.130919921875, 192.0, 1.0, 104.0, 15.5, 120.0, 2.0, 32.0, 0.0, 0.0, 0.0, 1.707474569196098E9, 0.0, 2024-02-09 11:29:29.196
170.0, -8839.17615880682, -15202.829563955018, 20042.317514695827, 57.68985243914753, 47530.0681626878, 19778.119895234096, 36251.847297173415, 11436.270050557858, 33571.13552941508, 2838.0680487237037, 39294.947897785656, 28569.060989506364, 41221.40004889966, 36239.196209811715, 30670.169671794138, 24929.772309037722, 0.0860537109375, 1.0229111328125, 0.130919921875, 192.0, 0.0, 0.0, 0.0, 0.0, 0.0, 0.0, 0.0, 0.0, 0.0, 1.707474569204128E9, 0.0, 2024-02-09 11:29:29.204
172.0, -8939.222566988774, -15267.582567642043, 19957.537347976846, 52.39248900323975, 47413.74968454238, 19720.273580583762, 36184.814415551955, 11381.418869664534, 33745.99322628894, 2836.4363713784664, 39599.401009011395, 28588.596414160304, 41681.711874212255, 36383.3873132929, 30800.502693713035, 25083.127627745587, 0.0860537109375, 1.0229111328125, 0.130919921875, 192.0, 0.0, 0.0, 0.0, 0.0, 0.0, 0.0, 0.0, 0.0, 0.0, 1.7074745692121203E9, 0.0, 2024-02-09 11:29:29.212
174.0, -8918.681313834348, -15248.337715666023, 19984.404144812124, 59.902675140222925, 47288.13288070356, 19719.75949046129, 36129.87382768081, 11327.707627738433, 33427.458516056366, 2766.676576933453, 39170.22516372504, 28506.654918987148, 41126.87452159817, 36147.554057544956, 30602.086258183273, 24879.860863669022, 0.0860537109375, 1.0229111328125, 0.130919921875, 192.0, 0.0, 0.0, 0.0, 0.0, 0.0, 0.0, 0.0, 0.0, 0.0, 1.7074745692191226E9, 0.0, 2024-02-09 11:29:29.219
176.0, -8867.741688220704, -15227.550593322587, 20013.5731713263, 54.605311704315156, 47576.045701032366, 19783.10433424763, 36275.67425676277, 11438.59463198121, 33724.1108684672, 2818.8902519810504, 39527.47309535422, 28603.99676609001, 41540.51590448808, 36365.97530436222, 30769.076141008874, 25030.91395269799, 0.0860537109375, 1.0229111328125, 0.130919921875, 192.0, 0.0, 0.0, 0.0, 0.0, 0.0, 0.0, 0.0, 0.0, 0.0, 1.7074745692281551E9, 0.0, 2024-02-09 11:29:29.228
178.0, -8977.958140129822, -15287.945006840828, 19942.941658847532, 63.523657741982674, 47227.35848752958, 19698.771202417756, 36091.85351036233, 11311.86024091962, 33545.36396805811, 2759.3005012632016, 39371.010884167066, 28531.55476231036, 41431.26057759054, 36265.81713745798, 30695.270680817448, 24986.61279518757, 0.0860537109375, 1.0229111328125, 0.130919921875, 192.0, 0.0, 0.0, 0.0, 0.0, 0.0, 0.0, 0.0, 0.0, 0.0, 1.7074745692363813E9, 0.0, 2024-02-09 11:29:29.236
180.0, -8857.191664837797, -15222.767320009152, 20024.30200866485, 50.336128513351504, 47491.26553431339, 19780.06449700171, 36256.92114316477, 11429.430416754534, 33514.09387756513, 2779.573533484165, 39264.19189741515, 28548.631495074213, 41202.66928704611, 36220.465447958166, 30652.847069841275, 24917.8811809875, 0.078, 1.016, 0.134, 192.0, 1.0, 56.0, 15.5, 96.0, 2.0, 24.0, 0.0, 0.0, 0.0, 1.7074745692432034E9, 0.0, 2024-02-09 11:29:29.243
182.0, -8960.479075965772, -15293.331777254556, 19940.79589137982, 32.85706434930138, 47375.103518379154, 19708.31539730017, 36175.940773003196, 11373.752221316365, 33705.00012695791, 2769.3364345236346, 39578.010389567666, 28580.52743441194, 41670.84892640697, 36360.81205139304, 30784.051809793928, 25067.10142697113, 0.078, 1.016, 0.134, 192.0, 0.0, 0.0, 0.0, 0.0, 0.0, 0.0, 0.0, 0.0, 0.0, 1.7074745692512114E9, 0.0, 2024-02-09 11:29:29.251
184.0, -8942.754142612714, -15266.509683908187, 19957.447940999027, 40.501360953016395, 47246.51393252778, 19713.65746422499, 36131.55020851496, 11322.991409658362, 33396.970736619325, 2721.3695909225453, 39151.60616059377, 28489.533482734383, 41099.13600672913, 36114.18290307318, 30589.05519116583, 24871.747180431747, 0.078, 1.016, 0.134, 192.0, 0.0, 0.0, 0.0, 0.0, 0.0, 0.0, 0.0, 0.0, 0.0, 1.7074745692601995E9, 0.0, 2024-02-09 11:29:29.260
186.0, -8877.397641825395, -15236.670105060353, 20011.360348625225, 43.45179122111693, 47571.06126201883, 19779.125723734585, 36281.32924810997, 11447.960012907984, 33683.00601041389, 2799.824213960673, 39499.19813861825, 28584.12606526924, 41507.077694782936, 36314.365126414916, 30752.312332667392, 25016.34061531313, 0.078, 1.016, 0.134, 192.0, 0.0, 0.0, 0.0, 0.0, 0.0, 0.0, 0.0, 0.0, 0.0, 1.7074745692682283E9, 0.0, 2024-02-09 11:29:29.268
188.0, -8986.272989067196, -15292.393003987432, 19947.210842038494, 51.76664015849116, 47226.151493328995, 19685.583673189125, 36103.230548290085, 11294.269418033293, 33534.09868885263, 2762.2509315313023, 39370.45209055568, 28532.426480344115, 41447.55499929846, 36226.12043930536, 30707.4970850345, 24985.539911453714, 0.078, 1.016, 0.134, 192.0, 0.0, 0.0, 0.0, 0.0, 0.0, 0.0, 0.0, 0.0, 0.0, 1.7074745692752316E9, 0.0, 2024-02-09 11:29:29.275
190.0, -8888.95349370879, -15249.522358122154, 19990.059136159318, 11.220575716564145, 47456.24035075192, 19746.71569427439, 36217.738535134624, 11385.330424944214, 33492.65855463249, 2760.0381088302265, 39241.14724888173, 28530.660692532147, 41189.95114445104, 36132.62309224881, 30635.949151033063, 24888.958023662333, 0.082, 1.02, 0.132, 192.0, 1.0, 72.0, 15.5, 112.0, 2.0, 16.0, 0.0, 0.0, 0.0, 1.707474569284258E9, 0.0, 2024-02-09 11:29:29.284
192.0, -8961.887235866456, -15289.420221974877, 19933.106891287196, 35.53927368393823, 47378.59039051418, 19713.009263635788, 36180.79110155, 11360.67645081001, 33683.63185925864, 2795.21975460288, 39541.39823214987, 28555.493480621994, 41621.40686767184, 36286.02311444558, 30758.32495192587, 25041.888659225544, 0.082, 1.02, 0.132, 192.0, 0.0, 0.0, 0.0, 0.0, 0.0, 0.0, 0.0, 0.0, 0.0, 1.7074745692922268E9, 0.0, 2024-02-09 11:29:29.292
194.0, -8939.66960187788, -15262.59812862851, 19973.362383051204, 47.89978836772303, 47252.25833085279, 19708.494211255816, 36113.087667594875, 11312.821365931197, 33387.56065220364, 2840.482037124877, 39151.67321582713, 28498.161256094132, 41149.136859075654, 36065.053768760416, 30598.28646162587, 24871.613069965017, 0.082, 1.02, 0.132, 192.0, 0.0, 0.0, 0.0, 0.0, 0.0, 0.0, 0.0, 0.0, 0.0, 1.707474569301267E9, 0.0, 2024-02-09 11:29:29.301
196.0, -8879.833981971024, -15230.344561379501, 19995.53531355087, 41.84246562033482, 47558.96896826851, 19772.554310864725, 36272.88028870586, 11429.273954543347, 33665.52694624984, 3031.2541760509225, 39485.00478088913, 28581.13093151223, 41450.05839467745, 36248.628645971854, 30739.57183832787, 25003.533065740237, 0.082, 1.02, 0.132, 192.0, 0.0, 0.0, 0.0, 0.0, 0.0, 0.0, 0.0, 0.0, 0.0, 1.7074745693072708E9, 0.0, 2024-02-09 11:29:29.307
198.0, -9000.39929156295, -15285.151038783913, 19938.47130995647, 58.20394256161959, 47228.029039863235, 19692.602120948093, 36116.70865019663, 11298.069214590694, 33506.71780189488, 3170.751413196494, 39361.2431718401, 28528.35846285325, 41431.707612479644, 36156.092423926886, 30706.871236189752, 24984.690545164412, 0.082, 1.02, 0.132, 192.0, 0.0, 0.0, 0.0, 0.0, 0.0, 0.0, 0.0, 0.0, 0.0, 1.7074745693162632E9, 0.0, 2024-02-09 11:29:29.316
200.0, -8869.574531266038, -15215.81592748355, 20032.23687794648, 51.52077096948278, 47511.33740083425, 19783.77488658129, 36278.624687030875, 11419.618000938655, 33457.81218502667, 3341.8987204907803, 39230.753687710014, 28525.095108162775, 41140.59849269372, 36050.39102439774, 30646.432119182602, 24893.987166164778, 0.076, 1.018, 0.136, 192.0, 1.0, 48.0, 15.5, 104.0, 2.0, 32.0, 0.0, 0.0, 0.0, 1.7074745693243124E9, 0.0, 2024-02-09 11:29:29.324
202.0, -8934.0593140196, -15242.615669085464, 19997.43521182957, 87.55178303143776, 47447.56787390326, 19761.400790381525, 36222.275939259045, 11400.39550070709, 33741.25465646442, 3542.662089188348, 39611.135674850426, 28606.120181813265, 41748.99062502273, 36322.322347441004, 30842.54632503347, 25095.778715107288, 0.076, 1.018, 0.136, 192.0, 0.0, 0.0, 0.0, 0.0, 0.0, 0.0, 0.0, 0.0, 0.0, 1.7074745693313031E9, 0.0, 2024-02-09 11:29:29.331
204.0, -8964.01065158971, -15278.512570680687, 19941.265278013383, 17.613174630781966, 47232.70055445439, 19680.97921383133, 36099.96719359961, 11276.477429446868, 33385.45958822484, 3653.2361690087523, 39164.5925241223, 28508.73363122149, 41136.77634439187, 36043.864315016785, 30617.44190662407, 24883.437142781873, 0.076, 1.018, 0.136, 192.0, 0.0, 0.0, 0.0, 0.0, 0.0, 0.0, 0.0, 0.0, 0.0, 1.7074745693402853E9, 0.0, 2024-02-09 11:29:29.340
206.0, -8887.27711287464, -15236.15601493788, 19987.958072180518, 1.452863389594959, 47558.83485780178, 19747.8109297527, 36274.66842826229, 11432.894937145107, 33593.53197735929, 3645.1001340270204, 39448.50438219361, 28515.50620979145, 41418.74360069557, 36060.22579195807, 30712.258006603482, 24966.831501344623, 0.076, 1.018, 0.136, 192.0, 0.0, 0.0, 0.0, 0.0, 0.0, 0.0, 0.0, 0.0, 0.0, 1.7074745693483305E9, 0.0, 2024-02-09 11:29:29.348
208.0, -8987.882314667979, -15282.558236427098, 19947.970801349977, 44.256454021507984, 47239.2496155798, 19680.912158597966, 36105.71159192462, 11324.95836317043, 33506.06960130568, 3799.953019613388, 39376.8446894699, 28530.146602409674, 41475.69584556769, 36116.46278100763, 30723.858561975787, 24994.301795280197, 0.076, 1.018, 0.136, 192.0, 0.0, 0.0, 0.0, 0.0, 0.0, 0.0, 0.0, 0.0, 0.0, 1.7074745693554373E9, 0.0, 2024-02-09 11:29:29.355
210.0, -8875.363633079962, -15201.510811032154, 19995.088278661762, 75.54889625893787, 47472.95945560449, 19805.277264747296, 36245.566456981476, 11440.874509915651, 33474.75480732379, 3749.728649822313, 39237.95094942462, 28528.40316634216, 41168.60522849622, 36059.242315202035, 30653.87525008622, 24906.615901782025, 0.076, 1.018, 0.14, 192.0, 1.0, 48.0, 15.5, 104.0, 2.0, 48.0, 0.0, 0.0, 0.0, 1.7074745693634284E9, 0.0, 2024-02-09 11:29:29.363
212.0, -8945.279889736163, -15275.808009601595, 19975.552854007823, 22.30704096639645, 47409.56990832924, 19736.94798194742, 36210.4965699311, 11404.329407731226, 33680.68142899054, 3888.801203823233, 39571.215459253246, 28586.450646692592, 41663.53990597009, 36302.56340534251, 30790.556167430423, 25083.217034723406, 0.076, 1.018, 0.14, 192.0, 0.0, 0.0, 0.0, 0.0, 0.0, 0.0, 0.0, 0.0, 0.0, 1.707474569372378E9, 0.0, 2024-02-09 11:29:29.372
214.0, -8956.567520686092, -15246.035485987126, 19956.933850876554, 65.69177695414746, 47262.83070598015, 19740.680723271456, 36122.74362119957, 11343.443255834969, 33397.79775116417, 3785.245571761796, 39173.51087015997, 28490.740476934967, 41153.741318433444, 36129.85147593635, 30622.426345637603, 24884.73354396028, 0.076, 1.018, 0.14, 192.0, 0.0, 0.0, 0.0, 0.0, 0.0, 0.0, 0.0, 0.0, 0.0, 1.7074745693793793E9, 0.0, 2024-02-09 11:29:29.379
216.0, -8880.593941282505, -15226.321247377546, 19993.925987950086, 43.54119819893816, 47568.87079106221, 19783.8195900702, 36268.18642237025, 11463.382716582146, 33570.64379103706, 3959.6338820021015, 39468.26332429211, 28604.309690512382, 41459.51318258204, 36227.729764906144, 30745.539754097434, 25011.110307110586, 0.076, 1.018, 0.14, 192.0, 0.0, 0.0, 0.0, 0.0, 0.0, 0.0, 0.0, 0.0, 0.0, 1.7074745693874018E9, 0.0, 2024-02-09 11:29:29.387
218.0, -9015.26320162573, -15309.961475129305, 19897.187637947518, 24.229290989552855, 47203.39741747349, 19679.70516439738, 36096.25680402003, 11292.414223243502, 33490.021048786766, 3793.9627520993654, 39360.48321252861, 28512.06404114533, 41434.34511832537, 36158.14878441677, 30695.94123315111, 24972.50884443627, 0.076, 1.018, 0.14, 192.0, 0.0, 0.0, 0.0, 0.0, 0.0, 0.0, 0.0, 0.0, 0.0, 1.7074745693953807E9, 0.0, 2024-02-09 11:29:29.395
220.0, -8885.667787273858, -15229.629305556931, 19977.542159264347, 18.149616497709335, 47467.99736833541, 19768.642755585046, 36219.86195085788, 11406.072843798738, 33411.52172225973, 3544.539635722594, 39153.79663155039, 28428.736737815947, 41023.520055236826, 35983.13462533172, 30585.747132986446, 24837.079624781567, 0.076, 1.016, 0.138, 192.0, 1.0, 48.0, 15.5, 96.0, 2.0, 40.0, 0.0, 0.0, 0.0, 1.70747456940443E9, 0.0, 2024-02-09 11:29:29.404
222.0, -8927.309087194097, -15269.25894847619, 20017.48472660598, 80.86861143930095, 47445.936196558025, 19744.748740762323, 36206.78618035152, 11400.26139024036, 33734.30326393882, 3963.9254169375204, 39640.41646008688, 28682.853720528332, 41855.58609433009, 36409.94118570581, 30838.411252309237, 25104.07121230021, 0.076, 1.016, 0.138, 192.0, 0.0, 0.0, 0.0, 0.0, 0.0, 0.0, 0.0, 0.0, 0.0, 1.70747456941141E9, 0.0, 2024-02-09 11:29:29.411
224.0, -8957.05925906411, -15316.018797876693, 19958.207900310506, -46.37986974476215, 47265.714081014885, 19674.832484106122, 36153.16434540324, 11311.547316497245, 33386.21954753632, 3533.609632683949, 39167.23002996803, 28461.72791263198, 41164.157231349614, 36020.28322461644, 30615.00556647844, 24868.52852923018, 0.076, 1.016, 0.138, 192.0, 0.0, 0.0, 0.0, 0.0, 0.0, 0.0, 0.0, 0.0, 0.0, 1.7074745694194353E9, 0.0, 2024-02-09 11:29:29.419
226.0, -8878.358766836973, -15240.15697719538, 19993.255435616426, 16.60734613029315, 47551.59289259826, 19752.840072255145, 36287.364219112904, 11446.395390796113, 33675.406417299084, 3272.384795234775, 39475.035902862066, 28500.93287240659, 41511.25747099608, 36254.21658208568, 30741.874068006764, 24957.622582629036, 0.076, 1.016, 0.138, 192.0, 0.0, 0.0, 0.0, 0.0, 0.0, 0.0, 0.0, 0.0, 0.0, 1.7074745694286575E9, 0.0, 2024-02-09 11:29:29.428
228.0, -9052.210635210353, -15412.488926945798, 19876.422867348538, -5.811453558379836, 47189.67344637793, 19629.257277161752, 36086.39968471524, 11269.704850876911, 33449.18441166692, 3532.4026384833624, 39339.00318610707, 28538.036768202397, 41403.879690632784, 36185.19439520769, 30682.105503333274, 24963.009353042766, 0.076, 1.016, 0.138, 192.0, 0.0, 0.0, 0.0, 0.0, 0.0, 0.0, 0.0, 0.0, 0.0, 1.707474569435442E9, 0.0, 2024-02-09 11:29:29.435
230.0, -8951.9630613283, -15284.301672494612, 19934.89503084362, -31.985346315544408, 47444.43862967952, 19728.23080160985, 36216.911520589776, 11374.10984922765, 33363.93485831438, 3126.137331263701, 39167.7441200905, 28453.72598811698, 41195.62848754269, 36071.53577465245, 30616.614892079222, 24848.747235387236, 0.076, 1.018, 0.146, 192.0, 1.0, 48.0, 15.5, 104.0, 2.0, 72.0, 0.0, 0.0, 0.0, 1.7074745694434378E9, 0.0, 2024-02-09 11:29:29.443
232.0, -8888.059423930577, -15203.164840121848, 20010.309816635825, 89.2281638655858, 47433.776847574336, 19744.212298895396, 36234.32352952046, 11405.201125764981, 33657.435614757014, 3384.1435175113106, 39537.46432512574, 28579.253384977983, 41636.06961203452, 36278.200003886224, 30767.936202041652, 25027.404728818507, 0.076, 1.018, 0.146, 192.0, 0.0, 0.0, 0.0, 0.0, 0.0, 0.0, 0.0, 0.0, 0.0, 1.7074745694534774E9, 0.0, 2024-02-09 11:29:29.453
234.0, -8970.82793364858, -15301.333701769556, 19954.788083408843, 73.55959100241554, 47250.403136062996, 19721.011188150787, 36139.932112685696, 11330.859223706631, 33489.35049645311, 3425.114265097888, 39229.926673165166, 28630.774155947467, 41257.006377816964, 36246.23700931514, 30657.764453621443, 24926.196029924875, 0.076, 1.018, 0.146, 192.0, 0.0, 0.0, 0.0, 0.0, 0.0, 0.0, 0.0, 0.0, 0.0, 1.707474569460485E9, 0.0, 2024-02-09 11:29:29.460
236.0, -8974.82889590608, -15319.282152567168, 19871.863111479655, -88.9599429321221, 47466.209228778986, 19683.884940610522, 36237.229256299644, 11395.63457913811, 33512.39514498653, 2840.3255749136897, 39386.67945703024, 28486.806569910834, 41433.96513866963, 36197.89018605831, 30699.673974475143, 24952.07935000412, 0.076, 1.018, 0.146, 192.0, 0.0, 0.0, 0.0, 0.0, 0.0, 0.0, 0.0, 0.0, 0.0, 1.7074745694674964E9, 0.0, 2024-02-09 11:29:29.467
238.0, -8931.220642473774, -15225.896564232895, 19989.835618714766, 92.15624238923102, 47268.39629034952, 19703.17449607545, 36152.516144814035, 11332.356790585136, 33487.11532200758, 3189.4151198166755, 39336.09745932787, 28523.37402383972, 41482.02138924854, 36255.80355594201, 30675.914070119154, 24937.79658529718, 0.076, 1.018, 0.146, 192.0, 0.0, 0.0, 0.0, 0.0, 0.0, 0.0, 0.0, 0.0, 0.0, 1.7074745694755082E9, 0.0, 2024-02-09 11:29:29.475
240.0, -8834.392885493384, -15186.579845736009, 20064.15516902866, 117.25725141254085, 47514.01961016889, 19797.208284998927, 36291.18636741476, 11429.609230710177, 33612.642718868585, 3263.287635241465, 39329.77191564702, 28681.40085713874, 41306.26962259646, 36293.22037616019, 30714.31436709337, 24950.55943138116, 0.07200000000000001, 1.012, 0.15, 192.0, 1.0, 32.0, 15.5, 80.0, 2.0, 88.0, 0.0, 0.0, 0.0, 1.707474569483546E9, 0.0, 2024-02-09 11:29:29.483
242.0, -8947.448008948328, -15282.155905026902, 19964.958127136008, 48.03389883445488, 47431.22874870643, 19721.14529861752, 36236.93868362173, 11391.812430836253, 33694.51715880837, 3000.2970099803224, 39597.7469799217, 28629.589513491337, 41743.290930186624, 36335.95691155874, 30823.18971433517, 25086.167464991508, 0.07200000000000001, 1.012, 0.15, 192.0, 0.0, 0.0, 0.0, 0.0, 0.0, 0.0, 0.0, 0.0, 0.0, 1.7074745694915416E9, 0.0, 2024-02-09 11:29:29.491
244.0, -8911.729921308746, -15231.708017791274, 19987.086354146762, 78.45462303812779, 47286.65766556951, 19722.687568984937, 36173.86206076885, 11342.10215116765, 33423.47990554332, 2970.502134621398, 39172.92972480413, 28546.083396206308, 41206.737304536975, 36149.96804594613, 30623.186304949082, 24896.401154565952, 0.07200000000000001, 1.012, 0.15, 192.0, 0.0, 0.0, 0.0, 0.0, 0.0, 0.0, 0.0, 0.0, 0.0, 1.70747456949977E9, 0.0, 2024-02-09 11:29:29.499
246.0, -8858.309252060562, -15215.614761783454, 20011.29329339186, 52.28073028096322, 47581.231305746, 19770.520302119294, 36311.19117870226, 11457.325393834757, 33720.66869982108, 3038.7196586989953, 39526.55667383155, 28653.930563203165, 41587.20869865522, 36361.84023163799, 30782.844815593344, 25034.132603899554, 0.07200000000000001, 1.012, 0.15, 192.0, 0.0, 0.0, 0.0, 0.0, 0.0, 0.0, 0.0, 0.0, 0.0, 1.7074745695075378E9, 0.0, 2024-02-09 11:29:29.507
248.0, -8974.426564505884, -15287.140344040436, 19924.14384176062, 50.35848025780681, 47227.09026659611, 19658.091027509097, 36105.890405880265, 11289.307330764215, 33539.28429356626, 2911.828805426217, 39388.22172739765, 28562.087245236307, 41521.58397693443, 36244.24770405862, 30699.249291330492, 24983.21533003036, 0.07200000000000001, 1.012, 0.15, 192.0, 0.0, 0.0, 0.0, 0.0, 0.0, 0.0, 0.0, 0.0, 0.0, 1.7074745695167072E9, 0.0, 2024-02-09 11:29:29.516
250.0, -8868.434592298818, -15227.327075878035, 20015.24955216045, 42.96005284310017, 47488.382159278655, 19738.490252314838, 36272.52266079458, 11396.215724493948, 33492.30092672121, 2903.111625088647, 39236.00634765701, 28565.015323759955, 41233.89467405018, 36175.62784858082, 30638.340787689784, 24885.11352361602, 0.076, 1.01, 0.154, 192.0, 1.0, 48.0, 15.5, 72.0, 2.0, 104.0, 0.0, 0.0, 0.0, 1.707474569522565E9, 0.0, 2024-02-09 11:29:29.522
252.0, -8952.454799706316, -15284.726355639263, 19956.464464242992, 50.55964595790458, 47428.56889111625, 19712.80809793569, 36254.55185825251, 11406.16225077656, 33708.28583339284, 2896.1155290741362, 39587.711046661265, 28614.300920283906, 41739.69229932932, 36362.48843222719, 30812.080897340882, 25075.080999741676, 0.076, 1.01, 0.154, 192.0, 0.0, 0.0, 0.0, 0.0, 0.0, 0.0, 0.0, 0.0, 0.0, 1.7074745695316672E9, 0.0, 2024-02-09 11:29:29.531
254.0, -8948.655003148915, -15277.864370091484, 19962.074752101274, 50.649052935725805, 47272.911342729494, 19697.40774600598, 36188.725970831634, 11339.62110753311, 33376.74240788727, 2819.9407839704495, 39152.097898971784, 28516.93672143659, 41185.212574626516, 36127.99628114656, 30614.737345544978, 24884.97941314929, 0.076, 1.01, 0.154, 192.0, 0.0, 0.0, 0.0, 0.0, 0.0, 0.0, 0.0, 0.0, 0.0, 1.707474569539579E9, 0.0, 2024-02-09 11:29:29.539
0.0, -8882.739708750214, -15251.019925000659, 19998.597502541244, 42.53536969844934, 47577.722081866516, 19767.011078239808, 36332.35828070143, 11466.64607127262, 33660.028417113834, 2875.6860346419853, 39480.757949442625, 28612.51278072748, 41543.68985220073, 36337.18625750378, 30772.361847443804, 25020.967426415376, 0.076, 1.01, 0.154, 192.0, 0.0, 0.0, 0.0, 0.0, 0.0, 0.0, 0.0, 0.0, 0.0, 1.7074745695476756E9, 0.0, 2024-02-09 11:29:29.547
2.0, -9002.098024141553, -15315.214135076301, 19916.76776609037, 49.933797113155975, 47233.3487550436, 19669.021030547745, 36153.767842503534, 11311.681426963976, 33510.294081007734, 2819.002010703327, 39367.47930854312, 28551.112538708752, 41489.75509283008, 36255.08830011944, 30711.341585080816, 24993.76535341327, 0.076, 1.01, 0.154, 192.0, 0.0, 0.0, 0.0, 0.0, 0.0, 0.0, 0.0, 0.0, 0.0, 1.7074745695556228E9, 0.0, 2024-02-09 11:29:29.555
4.0, -8885.33251110703, -15248.538881366121, 19998.19517114105, 37.3497649848181, 47481.54252547533, 19760.19379618094, 36294.5167773386, 11431.084445844228, 33460.449690872396, 2826.89217649605, 39217.74497243702, 28553.303009665375, 41191.69458051855, 36192.3916569223, 30643.951075548062, 24894.903587687444, 0.078, 1.006, 0.152, 192.0, 1.0, 56.0, 15.5, 56.0, 2.0, 96.0, 0.0, 0.0, 0.0, 1.707474569563723E9, 0.0, 2024-02-09 11:29:29.563
6.0, -8972.526666227182, -15300.283169780156, 19933.12924303165, 41.887169109245434, 47409.43579786251, 19715.602065992603, 36242.906599391295, 11403.211820508459, 33678.80388245629, 2835.2740806667903, 39565.627523139425, 28596.71009739758, 41692.79833946208, 36346.41752796382, 30799.653327423734, 25070.34242991715, 0.078, 1.006, 0.152, 192.0, 0.0, 0.0, 0.0, 0.0, 0.0, 0.0, 0.0, 0.0, 0.0, 1.7074745695726411E9, 0.0, 2024-02-09 11:29:29.572
8.0, -8967.072840580087, -15293.041204576637, 19942.338161747237, 34.64520390572595, 47248.950272673406, 19685.71778365586, 36168.452938610666, 11337.631802276588, 33359.643323378965, 2798.773681971274, 39136.5410848309, 28510.767639966925, 41129.93671058854, 36127.906874168744, 30595.939528458064, 24868.372067018994, 0.078, 1.006, 0.152, 192.0, 0.0, 0.0, 0.0, 0.0, 0.0, 0.0, 0.0, 0.0, 0.0, 1.7074745695796137E9, 0.0, 2024-02-09 11:29:29.579
10.0, -8894.116746677964, -15253.702134335297, 19985.700545990534, 26.196244501619876, 47556.24205544496, 19757.846863013132, 36312.2193589472, 11458.577091524256, 33639.64362617059, 2868.6452351385637, 39463.8153271455, 28604.89083586822, 41500.23806097962, 36302.384591386864, 30752.33468441185, 24997.095763337107, 0.078, 1.006, 0.152, 192.0, 0.0, 0.0, 0.0, 0.0, 0.0, 0.0, 0.0, 0.0, 0.0, 1.7074745695878189E9, 0.0, 2024-02-09 11:29:29.587
12.0, -9021.253469139752, -15326.166489859403, 19896.98647224742, 30.867759092779053, 47196.04369354769, 19642.780082557212, 36126.09638286786, 11297.041034345752, 33504.21440651589, 2835.318784155701, 39351.22959032412, 28537.16505016864, 41455.78044125801, 36215.19043626671, 30693.191968583105, 24972.30767873617, 0.078, 1.006, 0.152, 192.0, 0.0, 0.0, 0.0, 0.0, 0.0, 0.0, 0.0, 0.0, 0.0, 1.707474569595698E9, 0.0, 2024-02-09 11:29:29.595
14.0, -8906.18668868383, -15263.805122829095, 19978.52563602038, 27.38088695775115, 47431.58637661772, 19744.569926806682, 36250.595599483924, 11408.956218833473, 33422.764649720746, 2871.3274444732006, 39184.485576687526, 28533.521715822426, 41111.541224901826, 36126.40930729023, 30599.560511059823, 24862.314744271607, 0.082, 1.01, 0.15, 192.0, 1.0, 72.0, 15.5, 72.0, 2.0, 88.0, 0.0, 0.0, 0.0, 1.7074745696037016E9, 0.0, 2024-02-09 11:29:29.603
16.0, -8988.530515257182, -15310.810841418606, 19912.0515480103, 25.34687821231821, 47362.85476241765, 19694.14439131551, 36207.99317455211, 11382.245884209382, 33656.45213800098, 2998.508870423898, 39554.094023000485, 28594.6984403966, 41649.95004534126, 36296.170806428294, 30780.319068469893, 25055.18794717645, 0.082, 1.01, 0.15, 192.0, 0.0, 0.0, 0.0, 0.0, 0.0, 0.0, 0.0, 0.0, 0.0, 1.7074745696116877E9, 0.0, 2024-02-09 11:29:29.611
18.0, -8960.322613754584, -15274.936291567838, 19952.195281052027, 50.24672153553028, 47247.65387149499, 19705.208504820886, 36161.16626991824, 11330.143967884062, 33326.02629971818, 3095.4036826376537, 39118.212654377545, 28498.474180516503, 41036.528770509816, 36047.28413191845, 30564.58003098727, 24851.161223788407, 0.082, 1.01, 0.15, 192.0, 0.0, 0.0, 0.0, 0.0, 0.0, 0.0, 0.0, 0.0, 0.0, 1.707474569619762E9, 0.0, 2024-02-09 11:29:29.619
20.0, -8900.062310703077, -15253.188044212824, 19987.935720436064, 31.448904448617036, 47567.59674162826, 19765.647621828037, 36319.32721368399, 11450.262242586881, 33643.44342272799, 3387.965665813168, 39472.085472593964, 28618.413641263684, 41499.455749923676, 36271.69564624973, 30758.6602280927, 25006.23762681933, 0.082, 1.01, 0.15, 192.0, 0.0, 0.0, 0.0, 0.0, 0.0, 0.0, 0.0, 0.0, 0.0, 1.7074745696277704E9, 0.0, 2024-02-09 11:29:29.627
22.0, -9031.468216355826, -15316.376425787977, 19896.874713525143, 26.39741020171764, 47225.83856890662, 19666.383524702018, 36155.84655473787, 11317.537584011268, 33489.462255175386, 3454.9761956901784, 39353.33065430292, 28532.761756510947, 41421.31405130793, 36131.41609804823, 30698.69049771911, 24981.98598408532, 0.082, 1.01, 0.15, 192.0, 0.0, 0.0, 0.0, 0.0, 0.0, 0.0, 0.0, 0.0, 0.0, 1.7074745696347492E9, 0.0, 2024-02-09 11:29:29.634
24.0, -8954.175884029375, -15307.681597194864, 19930.223516252463, -46.2010557891197, 47431.02758300633, 19707.689548455422, 36252.16022159579, 11392.281817469815, 33406.336117546096, 3540.382211253907, 39169.3981491802, 28505.380869553195, 41098.241936950915, 36036.398832368715, 30617.508961857435, 24870.294317042153, 0.087, 1.0150000000000001, 0.14700000000000002, 192.0, 1.0, 112.0, 15.5, 112.0, 2.0, 64.0, 0.0, 0.0, 0.0, 1.7074745696437824E9, 0.0, 2024-02-09 11:29:29.643
26.0, -9011.843384724067, -15323.327818313577, 19881.60847206217, 10.505319893994319, 47377.96454166944, 19680.062792308665, 36212.17295076525, 11380.547151630779, 33564.966447945415, 3511.391998695374, 39470.967885371196, 28485.711334432526, 41516.01839256506, 36189.06124699846, 30730.94406496812, 25012.8537431781, 0.087, 1.0150000000000001, 0.14700000000000002, 192.0, 0.0, 0.0, 0.0, 0.0, 0.0, 0.0, 0.0, 0.0, 0.0, 1.7074745696518056E9, 0.0, 2024-02-09 11:29:29.651
28.0, -8963.988299845256, -15262.709887350786, 19960.934813134052, 79.66161723871437, 47245.91043542748, 19713.791574691724, 36161.56860131843, 11321.806767202232, 33351.64139886396, 3800.3777027580386, 39124.784067247405, 28522.36819533923, 41093.1010357262, 36114.58523447338, 30583.936641685563, 24872.753008932235, 0.087, 1.0150000000000001, 0.14700000000000002, 192.0, 0.0, 0.0, 0.0, 0.0, 0.0, 0.0, 0.0, 0.0, 0.0, 1.7074745696597471E9, 0.0, 2024-02-09 11:29:29.659
30.0, -8907.19251718432, -15251.556366867588, 19995.378851339683, 29.750171870013702, 47555.95148276705, 19762.406618882014, 36315.46036189322, 11461.304004347803, 33658.486146746414, 3836.386363075538, 39468.75506267012, 28600.353431743795, 41494.40425567678, 36219.146695035306, 30758.190841459138, 25009.94801639891, 0.087, 1.0150000000000001, 0.14700000000000002, 192.0, 0.0, 0.0, 0.0, 0.0, 0.0, 0.0, 0.0, 0.0, 0.0, 1.707474569666809E9, 0.0, 2024-02-09 11:29:29.666
32.0, -9022.460463340338, -15318.812765933606, 19916.18662073453, 25.302174723407596, 47224.4974642393, 19669.08808578111, 36139.75329873005, 11312.217868830905, 33484.29900220621, 3748.3204899216285, 39346.26750305504, 28508.59952075476, 41395.56484169541, 36131.50550502605, 30689.816855170353, 24975.727495637835, 0.087, 1.0150000000000001, 0.14700000000000002, 192.0, 0.0, 0.0, 0.0, 0.0, 0.0, 0.0, 0.0, 0.0, 0.0, 1.7074745696758249E9, 0.0, 2024-02-09 11:29:29.675
34.0, -8894.519078078161, -15228.4446631008, 20005.14656366665, 32.18651201564217, 47472.355958504195, 19755.14230193404, 36265.638323502346, 11396.662759383054, 33445.60813255407, 3741.1679316959303, 39203.32809726335, 28504.799724197357, 41130.6072629222, 35983.827529409835, 30635.30095044386, 24879.078552613086, 0.0925, 1.0125000000000002, 0.1385, 192.0, 1.5, 8.0, 15.5, 72.0, 2.0, 8.0, 0.0, 0.0, 0.0, 1.7074745696838336E9, 0.0, 2024-02-09 11:29:29.683
36.0, -9011.508108557238, -15319.550373500631, 19866.252823621373, 1.4752151340502662, 47335.049192315244, 19684.980176088833, 36168.69880779968, 11332.401494074047, 33641.029434326825, 3879.2123054519066, 39550.40598516536, 28592.17269327315, 41584.16886140929, 36351.42431872181, 30769.679638109166, 25052.796310519734, 0.0925, 1.0125000000000002, 0.1385, 192.0, 0.0, 0.0, 0.0, 0.0, 0.0, 0.0, 0.0, 0.0, 0.0, 1.7074745696908703E9, 0.0, 2024-02-09 11:29:29.690
38.0, -8939.647250133426, -15236.245421915703, 19981.632528499667, 79.59456200534845, 47286.27768591377, 19742.20064189442, 36208.73078211913, 11376.546189373279, 33277.97004913927, 3703.3934835664613, 39082.271049293406, 28454.195374750543, 41026.872816905125, 35997.529148760936, 30535.18748702854, 24844.25453475172, 0.0925, 1.0125000000000002, 0.1385, 192.0, 0.0, 0.0, 0.0, 0.0, 0.0, 0.0, 0.0, 0.0, 0.0, 1.707474569699837E9, 0.0, 2024-02-09 11:29:29.699
40.0, -8888.305293119585, -15229.271677645645, 20017.082395205784, 48.32447151237387, 47611.18264331611, 19798.39292745506, 36350.68671115478, 11499.637246088654, 33697.31112686529, 3943.585329483191, 39518.44299059427, 28644.095795642832, 41552.13881160484, 36298.5177395961, 30807.677603683187, 25057.57958383317, 0.0925, 1.0125000000000002, 0.1385, 192.0, 0.0, 0.0, 0.0, 0.0, 0.0, 0.0, 0.0, 0.0, 0.0, 1.7074745697080026E9, 0.0, 2024-02-09 11:29:29.708
42.0, -9042.197053694374, -15358.151836174946, 19870.857282979166, -40.836637119846, 47203.95621108487, 19636.879222021013, 36124.35294680035, 11330.970982428908, 33490.512787164786, 3740.6761933179137, 39359.16445960575, 28514.388622568684, 41423.750391453555, 36121.06724036542, 30699.517512263956, 25000.51558023877, 0.0925, 1.0125000000000002, 0.1385, 192.0, 0.0, 0.0, 0.0, 0.0, 0.0, 0.0, 0.0, 0.0, 0.0, 1.7074745697148511E9, 0.0, 2024-02-09 11:29:29.714
44.0, -8923.889270292435, -15252.986878512727, 19954.13988281964, 5.297363435907774, 47458.27435949736, 19755.499929845326, 36255.15535535281, 11439.399294781602, 33376.85416660955, 3674.850305897034, 39131.489590583995, 28444.740586845946, 41030.87377916262, 35965.94613384559, 30582.886109696166, 24836.140851514443, 0.08524999999999999, 1.01425, 0.13925, 192.0, 1.0, 56.0, 15.5, 96.0, 2.0, 48.0, 0.0, 0.0, 0.0, 1.7074745697228882E9, 0.0, 2024-02-09 11:29:29.722
46.0, -8981.44501226485, -15276.612672401987, 19949.289554272837, 58.8744948952788, 47443.11987675666, 19739.473729070873, 36231.39545099681, 11418.276896271336, 33629.80885861026, 3833.100656640608, 39547.388499663895, 28596.419524719662, 41711.9984879492, 36350.418490221324, 30803.497827470044, 25069.224842694384, 0.08524999999999999, 1.01425, 0.13925, 192.0, 0.0, 0.0, 0.0, 0.0, 0.0, 0.0, 0.0, 0.0, 0.0, 1.707474569731874E9, 0.0, 2024-02-09 11:29:29.731
48.0, -8975.208875561819, -15292.102431309515, 19964.66755445809, 28.185549758142205, 47276.82289800917, 19695.19492330491, 36165.6366188093, 11333.407322574536, 33360.760910601726, 3733.0095449697433, 39133.05421269587, 28507.325471320808, 41081.20990767598, 36036.264721901985, 30603.650880295147, 24867.74621817425, 0.08524999999999999, 1.01425, 0.13925, 192.0, 0.0, 0.0, 0.0, 0.0, 0.0, 0.0, 0.0, 0.0, 0.0, 1.707474569738911E9, 0.0, 2024-02-09 11:29:29.738
50.0, -8911.171127697364, -15258.843035560018, 19999.983310697477, -23.111703766787503, 47587.310980237846, 19742.155938405507, 36322.43410616328, 11450.5528152648, 33610.13932348959, 3546.663051445848, 39436.993233799134, 28518.79191622638, 41493.17490973174, 36153.92430471472, 30753.541678612433, 24976.576861927137, 0.08524999999999999, 1.01425, 0.13925, 192.0, 0.0, 0.0, 0.0, 0.0, 0.0, 0.0, 0.0, 0.0, 0.0, 1.7074745697469459E9, 0.0, 2024-02-09 11:29:29.746
52.0, -9072.573074409136, -15354.307336128633, 19867.236300377404, 41.61894817578175, 47174.273094448225, 19652.23487046181, 36106.62801344729, 11292.525981965779, 33496.14542676752, 3717.3856755954835, 39350.04494786799, 28534.706358278556, 41438.90487419425, 36170.4869473561, 30704.926634422143, 24978.856739861578, 0.08524999999999999, 1.01425, 0.13925, 192.0, 0.0, 0.0, 0.0, 0.0, 0.0, 0.0, 0.0, 0.0, 0.0, 1.707474569754954E9, 0.0, 2024-02-09 11:29:29.754
54.0, -8925.185671470843, -15242.615669085464, 19970.23313882746, 0.7376075670251331, 47438.20249297649, 19743.05000818372, 36249.63447447235, 11401.647198396588, 33283.714447464285, 3440.5369687720504, 39096.464407022526, 28466.511185945415, 41033.39952628607, 36062.259800703505, 30563.462443764503, 24844.96979057429, 0.083625, 1.0161250000000002, 0.139625, 192.0, 1.0, 72.0, 15.5, 104.0, 2.0, 48.0, 0.0, 0.0, 0.0, 1.707474569763942E9, 0.0, 2024-02-09 11:29:29.763
56.0, -8963.585968445059, -15289.3084632526, 19987.823961713788, 28.856102091801418, 47463.61642642217, 19729.32603708816, 36259.1563176103, 11412.599553179689, 33704.39662985762, 3467.962559218712, 39587.80045363909, 28556.141681211197, 41697.00046741968, 36295.969640728195, 30823.703804457644, 25071.77294156229, 0.083625, 1.0161250000000002, 0.139625, 192.0, 0.0, 0.0, 0.0, 0.0, 0.0, 0.0, 0.0, 0.0, 0.0, 1.7074745697711327E9, 0.0, 2024-02-09 11:29:29.771
58.0, -8965.955253357322, -15295.83517263355, 19972.356554550715, 60.26030305150784, 47272.9560462184, 19702.638054208524, 36160.87569724032, 11323.147871869549, 33424.66454799945, 3334.679107031716, 39168.749948590994, 28501.8269421848, 41170.63923724166, 36095.00510633053, 30619.72178455851, 24881.514892758714, 0.083625, 1.0161250000000002, 0.139625, 192.0, 0.0, 0.0, 0.0, 0.0, 0.0, 0.0, 0.0, 0.0, 0.0, 1.7074745697790995E9, 0.0, 2024-02-09 11:29:29.779
60.0, -8879.699871504292, -15198.15804936386, 20021.642151074666, 70.9220851566893, 47585.29932323687, 19767.77103755129, 36314.208664203725, 11457.683021746043, 33620.30936721675, 3331.7957319969814, 39458.942646854244, 28594.139646785217, 41478.64627583579, 36218.47614270164, 30750.121861710773, 25000.94026338342, 0.083625, 1.0161250000000002, 0.139625, 192.0, 0.0, 0.0, 0.0, 0.0, 0.0, 0.0, 0.0, 0.0, 0.0, 1.707474569787962E9, 0.0, 2024-02-09 11:29:29.787
62.0, -8980.506238997727, -15255.646736102908, 19960.04074335584, 121.16880669221959, 47249.710231984885, 19722.732272473844, 36156.04772043797, 11350.126427427105, 33561.747796743846, 3434.211425091198, 39421.27995744705, 28618.503048241502, 41504.97663080414, 36359.448594981266, 30734.60975105879, 25029.371682330573, 0.083625, 1.0161250000000002, 0.139625, 192.0, 0.0, 0.0, 0.0, 0.0, 0.0, 0.0, 0.0, 0.0, 0.0, 1.70747456979499E9, 0.0, 2024-02-09 11:29:29.794
64.0, -8881.75623199418, -15219.682779274319, 20021.95507549704, 62.137849585753635, 47463.61642642217, 19773.49308413185, 36286.06781793449, 11437.566451736266, 33497.59829015712, 3252.581149647373, 39223.60112948431, 28569.865652306755, 41160.64800747013, 36165.368397875834, 30640.285389457393, 24906.995881437768, 0.08481250000000001, 1.0190625, 0.1428125, 192.0, 1.0, 88.0, 15.5, 120.0, 2.0, 72.0, 0.0, 0.0, 0.0, 1.7074745698029933E9, 0.0, 2024-02-09 11:29:29.802
66.0, -8965.910549868411, -15284.569893428075, 19952.351743263214, 34.287575994441035, 47423.852673036185, 19715.982045648343, 36230.36727075187, 11394.91932331554, 33711.839760761235, 3157.1839043121226, 39577.786872123106, 28590.116332783266, 41698.274516853635, 36328.6255393774, 30804.816580392908, 25076.310345686717, 0.08481250000000001, 1.0190625, 0.1428125, 192.0, 0.0, 0.0, 0.0, 0.0, 0.0, 0.0, 0.0, 0.0, 0.0, 1.7074745698110273E9, 0.0, 2024-02-09 11:29:29.811
68.0, -8970.403250503929, -15274.869236334473, 19966.29923180333, 44.457619721605745, 47246.24571159431, 19694.457315737884, 36154.77367100402, 11316.330589810681, 33375.446006708866, 3096.141290204679, 39148.834544281315, 28489.39937226765, 41161.027987125875, 36059.97992276906, 30598.15235115914, 24868.081494341077, 0.08481250000000001, 1.0190625, 0.1428125, 192.0, 0.0, 0.0, 0.0, 0.0, 0.0, 0.0, 0.0, 0.0, 0.0, 1.7074745698200288E9, 0.0, 2024-02-09 11:29:29.820
70.0, -8900.151717680897, -15251.221090700757, 20016.81417427232, 38.66851790768122, 47581.566581912826, 19767.033429984265, 36337.78975460408, 11451.849216443208, 33646.57266695174, 3124.840930085293, 39460.79784164403, 28589.401076960694, 41499.61221213487, 36289.30882088051, 30758.883745537252, 24999.688565693923, 0.08481250000000001, 1.0190625, 0.1428125, 192.0, 0.0, 0.0, 0.0, 0.0, 0.0, 0.0, 0.0, 0.0, 0.0, 1.7074745698269992E9, 0.0, 2024-02-09 11:29:29.826
72.0, -9023.667457540925, -15321.003236890227, 19938.27014425637, 46.37986974476215, 47241.104810369594, 19678.118190541052, 36156.27123788252, 11333.094398152161, 33523.19103755844, 3045.9616239025145, 39378.208145881676, 28520.89298020518, 41502.316773213955, 36212.418819954255, 30724.864390476276, 24995.151161569498, 0.08481250000000001, 1.0190625, 0.1428125, 192.0, 0.0, 0.0, 0.0, 0.0, 0.0, 0.0, 0.0, 0.0, 0.0, 1.7074745698350356E9, 0.0, 2024-02-09 11:29:29.835
74.0, -8918.770720812168, -15255.154997724892, 20010.48863059147, 31.001869559510897, 47463.281150255345, 19752.393037366037, 36264.38662581285, 11423.730721918431, 33445.988112209816, 3028.9966498609365, 39192.68866690262, 28514.612140013236, 41165.81126043931, 36114.58523447338, 30644.57692439281, 24884.666488726914, 0.08540625000000002, 1.02053125, 0.14540625000000001, 192.0, 1.0, 88.0, 15.5, 120.0, 2.0, 80.0, 0.0, 0.0, 0.0, 1.7074745698443651E9, 0.0, 2024-02-09 11:29:29.844
76.0, -8986.295340811652, -15296.639835433942, 19943.52280420337, 25.615099145781894, 47436.3472981867, 19712.09284211312, 36241.54314297952, 11405.648160654087, 33674.89232717661, 3053.6506239951404, 39552.46234565524, 28565.618820860247, 41684.81876669154, 36317.11439098292, 30805.822408893397, 25064.15099670303, 0.08540625000000002, 1.02053125, 0.14540625000000001, 192.0, 0.0, 0.0, 0.0, 0.0, 0.0, 0.0, 0.0, 0.0, 0.0, 1.7074745698520532E9, 0.0, 2024-02-09 11:29:29.852
78.0, -8994.409024048928, -15299.210286046302, 19939.857118112697, 27.894977080223214, 47254.515857042774, 19687.729440656836, 36149.073976167914, 11317.895211922552, 33363.26430598072, 2993.882059321649, 39134.50707608546, 28476.63652618367, 41155.372995778685, 36091.540585939954, 30604.67906054009, 24869.78022691968, 0.08540625000000002, 1.02053125, 0.14540625000000001, 192.0, 0.0, 0.0, 0.0, 0.0, 0.0, 0.0, 0.0, 0.0, 0.0, 1.707474569859114E9, 0.0, 2024-02-09 11:29:29.859
80.0, -8919.709494079292, -15266.755553097197, 19985.09704889024, 28.1631980136869, 47569.27312246241, 19774.92359577699, 36313.09107698096, 11466.131981150149, 33620.331718961206, 3051.013118149414, 39426.80083832751, 28559.226221946028, 41454.61815054633, 36271.04744566053, 30733.581570813843, 24990.636109189527, 0.08540625000000002, 1.02053125, 0.14540625000000001, 192.0, 0.0, 0.0, 0.0, 0.0, 0.0, 0.0, 0.0, 0.0, 0.0, 1.7074745698671637E9, 0.0, 2024-02-09 11:29:29.867
82.0, -9030.752960533257, -15321.450271779333, 19915.27019921186, 50.67140468018111, 47238.89198766852, 19695.41844074946, 36151.39855759127, 11345.410209347036, 33504.840255360636, 3008.0307135618586, 39361.64550324029, 28508.890093432678, 41469.59381933139, 36222.05242181449, 30712.302710092394, 25000.202655816396, 0.08540625000000002, 1.02053125, 0.14540625000000001, 192.0, 0.0, 0.0, 0.0, 0.0, 0.0, 0.0, 0.0, 0.0, 0.0, 1.7074745698760962E9, 0.0, 2024-02-09 11:29:29.876
84.0, -8923.53164238115, -15256.473750647754, 19992.96486293851, 39.74140164153596, 47447.59022564772, 19769.492121874348, 36266.89002119184, 11433.811358667775, 33416.550864762175, 3032.2600045514114, 39168.884059057724, 28508.867741688224, 41114.51400691438, 36137.562827773436, 30633.602217865257, 24891.506122530238, 0.086703125, 1.020265625, 0.147703125, 192.0, 1.0, 96.0, 15.5, 112.0, 2.0, 88.0, 0.0, 0.0, 0.0, 1.7074745698831592E9, 0.0, 2024-02-09 11:29:29.883
86.0, -8986.138878600465, -15297.444498234332, 19941.84642336922, 38.82498011886837, 47421.10340846818, 19737.52912730326, 36240.35850052339, 11431.129149333137, 33657.23444905692, 3045.2463680799447, 39538.224284437216, 28559.69560857959, 41632.47098117721, 36334.057013280035, 30797.373449489292, 25078.21024396542, 0.086703125, 1.020265625, 0.147703125, 192.0, 0.0, 0.0, 0.0, 0.0, 0.0, 0.0, 0.0, 0.0, 0.0, 1.7074745698911574E9, 0.0, 2024-02-09 11:29:29.891
88.0, -8984.350739044039, -15290.82838187556, 19963.43820851305, 58.65097745072573, 47241.90947316998, 19715.937342159432, 36151.756185502556, 11338.548223799256, 33344.55589587163, 3011.249364763423, 39123.21944513553, 28472.076770314787, 41114.93869005903, 36079.89532707874, 30606.377793118692, 24888.466285284318, 0.086703125, 1.020265625, 0.147703125, 192.0, 0.0, 0.0, 0.0, 0.0, 0.0, 0.0, 0.0, 0.0, 0.0, 1.707474569899171E9, 0.0, 2024-02-09 11:29:29.899
90.0, -8918.703665578803, -15258.127779737448, 20005.7724125114, 42.401259231717496, 47549.15655245263, 19787.887607561068, 36313.024021747595, 11478.693661534031, 33616.487218914895, 3143.5493401943854, 39427.11376274988, 28572.972544786044, 41406.561899967426, 36260.16214611079, 30758.61552460379, 25019.46985953687, 0.086703125, 1.020265625, 0.147703125, 192.0, 0.0, 0.0, 0.0, 0.0, 0.0, 0.0, 0.0, 0.0, 0.0, 1.707474569907296E9, 0.0, 2024-02-09 11:29:29.907
92.0, -9031.9823064783, -15320.109167112014, 19944.439225726037, 62.29431179694078, 47238.310842312676, 19707.689548455422, 36137.16049637324, 11332.33443884068, 33504.72849663836, 3146.1868460401115, 39363.992436408094, 28513.002814412455, 41433.2275311026, 36215.9503955782, 30728.105393422295, 25017.033519391243, 0.086703125, 1.020265625, 0.147703125, 192.0, 0.0, 0.0, 0.0, 0.0, 0.0, 0.0, 0.0, 0.0, 0.0, 1.707474569915135E9, 0.0, 2024-02-09 11:29:29.915
94.0, -8929.09722675052, -15264.654489118397, 20002.509057820924, 22.44115143312829, 47449.87010358216, 19763.546557849237, 36261.011512400095, 11424.915364374563, 33404.07859135611, 3227.5471958574294, 39161.128003731734, 28501.759886951437, 41080.29348615331, 36099.38604824377, 30638.40784292315, 24888.198064350854, 0.0863515625, 1.0171328124999999, 0.14785156249999998, 192.0, 1.0, 88.0, 15.5, 88.0, 2.0, 80.0, 0.0, 0.0, 0.0, 1.7074745699231756E9, 0.0, 2024-02-09 11:29:29.923
96.0, -8992.978512403788, -15300.17141105788, 19938.873641356666, 3.8221483018575078, 47432.97218477395, 19721.27940908425, 36244.717090692175, 11414.87943111413, 33647.48908847441, 3314.361371321842, 39531.74227854518, 28538.908486236156, 41620.91512929382, 36227.3497852504, 30805.308318770927, 25062.58637459116, 0.0863515625, 1.0171328124999999, 0.14785156249999998, 192.0, 0.0, 0.0, 0.0, 0.0, 0.0, 0.0, 0.0, 0.0, 0.0, 1.7074745699312243E9, 0.0, 2024-02-09 11:29:29.931
98.0, -8993.894933926456, -15285.21809401728, 19937.7560541339, 33.70643063860305, 47234.26517656627, 19706.013167621277, 36151.666778524734, 11319.973924156897, 33348.713320340314, 3418.878128394858, 39124.53819805839, 28473.64139242666, 41104.880405054144, 36070.306428707416, 30603.91910122861, 24872.507139743226, 0.0863515625, 1.0171328124999999, 0.14785156249999998, 192.0, 0.0, 0.0, 0.0, 0.0, 0.0, 0.0, 0.0, 0.0, 0.0, 1.7074745699392495E9, 0.0, 2024-02-09 11:29:29.939
100.0, -8910.679389319348, -15247.68951507682, 19988.33805183626, 33.28174749395222, 47556.86790428971, 19788.982843039375, 36328.49142891067, 11483.566341825288, 33605.423105409514, 3554.933196894312, 39418.03895450103, 28559.628553346225, 41400.9739638536, 36212.776447865544, 30740.018873216974, 24990.05496383369, 0.0863515625, 1.0171328124999999, 0.14785156249999998, 192.0, 0.0, 0.0, 0.0, 0.0, 0.0, 0.0, 0.0, 0.0, 0.0, 1.7074745699472003E9, 0.0, 2024-02-09 11:29:29.947
102.0, -9038.777236792712, -15318.566896744598, 19901.12154497165, 39.67434640817004, 47206.10197855258, 19683.594367932605, 36149.431604079204, 11335.798959231253, 33501.621604159074, 3570.311197079563, 39366.585238764914, 28508.17483761011, 41415.79317042747, 36165.502508342564, 30717.667128761666, 25004.717708196367, 0.0863515625, 1.0171328124999999, 0.14785156249999998, 192.0, 0.0, 0.0, 0.0, 0.0, 0.0, 0.0, 0.0, 0.0, 0.0, 1.7074745699552128E9, 0.0, 2024-02-09 11:29:29.955
104.0, -8944.184654257853, -15268.096657764514, 19954.206938053005, -2.793968056913383, 47402.305591381264, 19755.99166822334, 36256.07177687547, 11422.903707373585, 33360.69385536836, 3605.76106378568, 39132.45071559557, 28472.456749970526, 41000.90008984805, 36004.45818954208, 30602.041554694362, 24870.562537975617, 0.08517578125, 1.01556640625, 0.14892578125, 192.0, 1.0, 80.0, 15.5, 88.0, 2.0, 88.0, 0.0, 0.0, 0.0, 1.7074745699622128E9, 0.0, 2024-02-09 11:29:29.962
106.0, -8962.848360878035, -15258.999497771205, 19979.710278476512, 79.30398932742946, 47444.192760490514, 19771.928462019976, 36274.40020732882, 11454.196149611014, 33639.822440126234, 3697.0902916300647, 39528.34481338797, 28535.399262356674, 41561.21361985369, 36250.662654717285, 30789.639745907756, 25066.72144731539, 0.08517578125, 1.01556640625, 0.14892578125, 192.0, 0.0, 0.0, 0.0, 0.0, 0.0, 0.0, 0.0, 0.0, 0.0, 1.7074745699712398E9, 0.0, 2024-02-09 11:29:29.971
108.0, -8968.838628392057, -15258.172483226357, 19997.34580485175, 99.64407678175888, 47271.48083108435, 19756.43870311245, 36183.87564228483, 11381.06124175325, 33398.647117453474, 3855.7876772627446, 39172.61680038176, 28535.041634445388, 41138.11744905919, 36121.55897874344, 30652.44473844108, 24931.180468938408, 0.08517578125, 1.01556640625, 0.14892578125, 192.0, 0.0, 0.0, 0.0, 0.0, 0.0, 0.0, 0.0, 0.0, 0.0, 1.7074745699793491E9, 0.0, 2024-02-09 11:29:29.979
110.0, -8898.229467657742, -15234.770206781652, 20028.414729644624, 63.858933908812276, 47583.82410810282, 19814.73205265189, 36332.04535627906, 11504.912257780106, 33627.596035909184, 3882.0956804866414, 39441.06125129, 28596.151303786195, 41397.174167296194, 36240.89494239032, 30777.12276901278, 25032.836202721144, 0.08517578125, 1.01556640625, 0.14892578125, 192.0, 0.0, 0.0, 0.0, 0.0, 0.0, 0.0, 0.0, 0.0, 0.0, 1.707474569987299E9, 0.0, 2024-02-09 11:29:29.987
112.0, -9019.26416388323, -15301.758384914207, 19943.6569146701, 50.76081165800234, 47256.616921021574, 19694.680833182436, 36156.986493705095, 11346.080761680694, 33522.453429991416, 3818.9967058893094, 39372.687265001216, 28517.897846448166, 41404.55024296645, 36159.512240828546, 30732.531038824447, 25022.46499329388, 0.08517578125, 1.01556640625, 0.14892578125, 192.0, 0.0, 0.0, 0.0, 0.0, 0.0, 0.0, 0.0, 0.0, 0.0, 1.7074745699952693E9, 0.0, 2024-02-09 11:29:29.995
114.0, -8898.341226380018, -15233.853785258983, 20021.82096503031, 31.068924792876818, 47470.903095114605, 19771.01204049731, 36269.90750669331, 11428.82691965424, 33434.27579811523, 3792.2863712652174, 39166.35831193427, 28496.753096193446, 41049.06809914924, 36049.251085430515, 30647.63911338319, 24888.622747495505, 0.084587890625, 1.013783203125, 0.148462890625, 192.0, 1.0, 80.0, 15.5, 80.0, 2.0, 80.0, 0.0, 0.0, 0.0, 1.707474570003308E9, 0.0, 2024-02-09 11:29:30.003
116.0, -8979.411003519417, -15292.393003987432, 19938.89599310112, 11.980535028044585, 47425.48435038142, 19726.710882986892, 36232.53538996403, 11397.333311716713, 33694.71832450847, 3887.6612648560126, 39559.77136609213, 28571.02794301843, 41601.871443017895, 36298.09305645145, 30828.867057426818, 25081.764171333813, 0.084587890625, 1.013783203125, 0.148462890625, 192.0, 0.0, 0.0, 0.0, 0.0, 0.0, 0.0, 0.0, 0.0, 0.0, 1.707474570011338E9, 0.0, 2024-02-09 11:29:30.011
118.0, -9005.316675343118, -15305.468774493787, 19905.79305956281, -26.71033462409194, 47211.891080366506, 19662.9413560559, 36121.17899908769, 11283.205304527915, 33269.163461823875, 3699.146652119953, 39077.1748515576, 28414.34221438673, 40978.16836573701, 35976.29499152839, 30570.39148454565, 24841.57232541708, 0.084587890625, 1.013783203125, 0.148462890625, 192.0, 0.0, 0.0, 0.0, 0.0, 0.0, 0.0, 0.0, 0.0, 0.0, 1.7074745700183656E9, 0.0, 2024-02-09 11:29:30.018
120.0, -8912.780453298146, -15256.786675070129, 19967.975612637474, 30.82305560386844, 47546.89902626265, 19779.460999901414, 36286.04546619004, 11474.133905665149, 33562.39599733305, 3830.977240917354, 39386.83591924142, 28522.50230580596, 41349.4084893952, 36161.72506352962, 30717.868294461765, 24962.383504198016, 0.084587890625, 1.013783203125, 0.148462890625, 192.0, 0.0, 0.0, 0.0, 0.0, 0.0, 0.0, 0.0, 0.0, 0.0, 1.7074745700264227E9, 0.0, 2024-02-09 11:29:30.026
122.0, -8996.01834964971, -15272.4552479333, 19951.48002522946, 80.3545213168289, 47265.46821182588, 19726.33090333115, 36166.39657812078, 11378.446087651979, 33552.11419488361, 3911.711741889923, 39382.47732907264, 28540.60721881476, 41434.56863576992, 36213.22348275465, 30725.6019980433, 25019.62632174806, 0.084587890625, 1.013783203125, 0.148462890625, 192.0, 0.0, 0.0, 0.0, 0.0, 0.0, 0.0, 0.0, 0.0, 0.0, 1.70747457003541E9, 0.0, 2024-02-09 11:29:30.035
124.0, -8921.363523168984, -15259.871215804962, 19993.38954608316, 19.088389764832232, 47452.39585070561, 19770.38619165256, 36260.519774022076, 11429.87745164364, 33452.91715299096, 3794.4544904773825, 39173.53322190443, 28503.905654419144, 41052.08558465071, 36105.08574307987, 30638.988988278987, 24888.287471328673, 0.084587890625, 1.013783203125, 0.148462890625, 192.0, 0.0, 0.0, 0.0, 0.0, 0.0, 0.0, 0.0, 0.0, 0.0, 1.7074745700434084E9, 0.0, 2024-02-09 11:29:30.043
126.0, -9020.806434250646, -15335.487167297266, 19888.157533187572, -23.29051772242996, 47397.45526283446, 19721.14529861752, 36247.46635526018, 11399.479079184423, 33629.65239639907, 3762.469144161838, 39506.70832475524, 28522.278788361407, 41548.58488423644, 36264.431329301755, 30787.717495884597, 25052.818662264188, 0.08, 1.012, 0.15, 192.0, 1.0, 64.0, 15.5, 80.0, 2.0, 88.0, 0.0, 0.0, 0.0, 1.7074745700503957E9, 0.0, 2024-02-09 11:29:30.050
128.0, -9053.104704988564, -15327.395835804444, 19889.118658199153, -23.804607844902023, 47210.706437910376, 19692.08803082562, 36142.56961853142, 11321.024456146295, 33259.932191363834, 3599.010836960177, 39083.34393302726, 28395.611452533183, 41054.16429688505, 35978.91014562966, 30597.52650231439, 24853.932840100868, 0.08, 1.012, 0.15, 192.0, 0.0, 0.0, 0.0, 0.0, 0.0, 0.0, 0.0, 0.0, 0.0, 1.707474570059414E9, 0.0, 2024-02-09 11:29:30.059
130.0, -8877.978787181233, -15236.78186378263, 20030.336979667783, 24.095180522821014, 47588.205050016055, 19785.853598815633, 36335.398117947356, 11494.138716952648, 33552.225953605885, 3773.3097402226617, 39335.06927908293, 28479.452845985037, 41266.662331421656, 36101.35300175584, 30692.25319531598, 24947.65370460197, 0.08, 1.012, 0.15, 192.0, 0.0, 0.0, 0.0, 0.0, 0.0, 0.0, 0.0, 0.0, 0.0, 1.707474570067415E9, 0.0, 2024-02-09 11:29:30.067
132.0, -9020.001771450254, -15324.914792169904, 19952.731722918954, 28.520825924971813, 47290.524517360274, 19703.37566177555, 36160.45101409567, 11338.302354610249, 33599.96927976242, 3645.1001340270204, 39429.28188196205, 28526.63737853019, 41550.283616815046, 36213.69286938821, 30779.76027485851, 25021.392109560027, 0.08, 1.012, 0.15, 192.0, 0.0, 0.0, 0.0, 0.0, 0.0, 0.0, 0.0, 0.0, 0.0, 1.7074745700744324E9, 0.0, 2024-02-09 11:29:30.074
134.0, -8921.43057840235, -15272.231730488746, 20002.44200258756, 44.927006355167194, 47450.428897193546, 19790.614520384614, 36252.22727682916, 11413.091291557705, 33398.445951753376, 3516.510548175639, 39161.329169431825, 28482.962069864523, 41088.83185253523, 36156.070072182425, 30645.046311026374, 24875.50227350024, 0.08, 1.012, 0.15, 192.0, 0.0, 0.0, 0.0, 0.0, 0.0, 0.0, 0.0, 0.0, 0.0, 1.7074745700825164E9, 0.0, 2024-02-09 11:29:30.082
136.0, -9050.17662646492, -15382.828162053605, 19882.88252149612, -80.1086521278205, 47395.4883093224, 19691.171609302954, 36186.53549987501, 11354.842645507175, 33607.61357636614, 3382.4671366771627, 39500.606298518935, 28457.257563740917, 41585.733483521166, 36268.141718881336, 30778.441521935645, 25025.14720262852, 0.09, 1.012, 0.15, 192.0, 1.0, 104.0, 15.5, 80.0, 2.0, 88.0, 0.0, 0.0, 0.0, 1.70747457009154E9, 0.0, 2024-02-09 11:29:30.091
138.0, -8910.277057919153, -15185.19403757978, 19974.412915040604, 91.59744877784834, 47247.56446451718, 19733.95284819041, 36158.61817105033, 11333.429674318992, 33362.437291435876, 3497.8244898110024, 39090.92117439761, 28450.909668315613, 41033.39952628607, 35989.30370680138, 30561.495490252437, 24829.81530783359, 0.09, 1.012, 0.15, 192.0, 0.0, 0.0, 0.0, 0.0, 0.0, 0.0, 0.0, 0.0, 0.0, 1.7074745700984254E9, 0.0, 2024-02-09 11:29:30.098
140.0, -8916.24497368872, -15233.20558466978, 19979.397354054137, 43.69766041012531, 47549.402421641644, 19790.10043026214, 36291.90162323733, 11441.612117482677, 33747.93782805656, 3636.114732755987, 39494.01253390462, 28675.38823788026, 41480.27795318102, 36379.90044115787, 30774.84289107834, 25022.353234571605, 0.09, 1.012, 0.15, 192.0, 0.0, 0.0, 0.0, 0.0, 0.0, 0.0, 0.0, 0.0, 0.0, 1.7074745701074028E9, 0.0, 2024-02-09 11:29:30.107
142.0, -9099.484574733326, -15397.62501688302, 19789.005194783833, -126.44381838367205, 47143.450038844356, 19601.764631481725, 36060.5610681249, 11259.959490294397, 33339.996140002746, 3203.720236268072, 39262.58257181437, 28421.092441212233, 41326.72146877307, 36098.76019939902, 30629.95888351904, 24920.965721722332, 0.09, 1.012, 0.15, 192.0, 0.0, 0.0, 0.0, 0.0, 0.0, 0.0, 0.0, 0.0, 0.0, 1.7074745701154492E9, 0.0, 2024-02-09 11:29:30.115
144.0, -8853.235406069209, -15170.19601705027, 20047.50311940946, 70.11742235629825, 47464.68931015603, 19793.20732274143, 36271.04744566053, 11435.331277290736, 33505.19788327192, 3175.311169065377, 39142.59840757828, 28437.990360020445, 41065.45192783498, 36036.264721901985, 30575.778254959376, 24809.028185490155, 0.09, 1.012, 0.15, 192.0, 0.0, 0.0, 0.0, 0.0, 0.0, 0.0, 0.0, 0.0, 0.0, 1.7074745701234372E9, 0.0, 2024-02-09 11:29:30.123
146.0, -8964.547093456638, -15288.436745218843, 19962.32062129028, 52.25837853650791, 47453.04405129481, 19749.532014075758, 36238.61506445588, 11400.104928029172, 33783.67826744059, 3357.2320171871206, 39605.190110825315, 28633.09873737082, 41700.17441513234, 36436.91974126336, 30830.297569071958, 25079.417238166006, 0.088, 1.014, 0.15, 192.0, 1.0, 96.0, 15.5, 88.0, 2.0, 88.0, 0.0, 0.0, 0.0, 1.707474570130447E9, 0.0, 2024-02-09 11:29:30.130
148.0, -8956.366354985996, -15260.988803027727, 19958.94550787753, 36.16512252868683, 47251.78894421923, 19708.203638577896, 36148.40342383426, 11315.168299099005, 33340.97961675878, 2991.2892569648334, 39113.675250253116, 28425.09340346973, 41094.062160737776, 36041.74089929353, 30593.749057501445, 24851.317685999595, 0.088, 1.014, 0.15, 192.0, 0.0, 0.0, 0.0, 0.0, 0.0, 0.0, 0.0, 0.0, 0.0, 1.7074745701396787E9, 0.0, 2024-02-09 11:29:30.139
150.0, -8891.0992611765, -15241.319267907056, 19989.612101270213, 22.351744455307063, 47564.33338693779, 19781.33854643566, 36305.91616701081, 11440.539233748823, 33702.474379834464, 3275.067004569412, 39440.055422789505, 28595.436047963627, 41460.85428724936, 36309.2689286791, 30758.36965541478, 24989.496170222304, 0.088, 1.014, 0.15, 192.0, 0.0, 0.0, 0.0, 0.0, 0.0, 0.0, 0.0, 0.0, 0.0, 1.7074745701474888E9, 0.0, 2024-02-09 11:29:30.147
152.0, -9018.9288877164, -15340.091626655058, 19912.65504511059, -41.61894817578175, 47235.025135877746, 19654.805321074167, 36114.115847839814, 11333.362619085625, 33583.96543073242, 3082.6184848092184, 39384.22076514015, 28500.396430539662, 41470.26437166505, 36209.490741430614, 30718.538846795425, 24984.13175155303, 0.088, 1.014, 0.15, 192.0, 0.0, 0.0, 0.0, 0.0, 0.0, 0.0, 0.0, 0.0, 0.0, 1.7074745701545863E9, 0.0, 2024-02-09 11:29:30.154
154.0, -8854.71062120326, -15202.24841859918, 20061.897642838674, 74.47601252508314, 47476.491031228434, 19793.743764608356, 36272.85793696141, 11450.441056542524, 33487.54000515223, 3019.944193356537, 39157.88700078571, 28458.330447474775, 41120.839550595236, 36071.28990546345, 30611.585749576778, 24838.845412593535, 0.088, 1.014, 0.15, 192.0, 0.0, 0.0, 0.0, 0.0, 0.0, 0.0, 0.0, 0.0, 0.0, 1.7074745701625853E9, 0.0, 2024-02-09 11:29:30.162
156.0, -8929.544261639627, -15266.554387397098, 19989.209769870016, 49.95614885761128, 47476.982769606446, 19770.654412586024, 36277.82002423049, 11447.512978018878, 33779.990229605464, 3196.7688437424713, 39603.849006157994, 28621.18525757614, 41707.5951942915, 36435.511581362676, 30842.92630468921, 25098.34916571965, 0.08, 1.008, 0.15, 192.0, 1.0, 64.0, 15.5, 64.0, 2.0, 88.0, 0.0, 0.0, 0.0, 1.7074745701715727E9, 0.0, 2024-02-09 11:29:30.171
158.0, -8965.463514979305, -15279.384288714444, 19962.454731757014, 38.86968360777898, 47251.47601979686, 19730.801252222212, 36161.72506352962, 11356.966061230429, 33431.3924230805, 3009.3941699736324, 39151.87438152723, 28468.478139457482, 41152.064937599294, 36100.48128372208, 30621.10759271474, 24888.846264940057, 0.08, 1.008, 0.15, 192.0, 0.0, 0.0, 0.0, 0.0, 0.0, 0.0, 0.0, 0.0, 0.0, 1.7074745701785924E9, 0.0, 2024-02-09 11:29:30.178
160.0, -8880.415127326862, -15242.235689429725, 20008.320511379305, 25.391581701228823, 47585.45578544805, 19803.265607746318, 36334.36993770241, 11490.249513417426, 33673.104187620185, 3080.249199896956, 39420.58705336894, 28561.684913836114, 41432.400516557755, 36280.77045449858, 30747.305541909405, 24993.51948422426, 0.08, 1.008, 0.15, 192.0, 0.0, 0.0, 0.0, 0.0, 0.0, 0.0, 0.0, 0.0, 0.0, 1.707474570186577E9, 0.0, 2024-02-09 11:29:30.186
162.0, -9008.848250967056, -15315.951742643327, 19918.22062947996, 25.011602045488605, 47257.30982509969, 19702.19101931942, 36169.72698804462, 11336.827139476198, 33575.27060213931, 3013.819815375783, 39394.055532700484, 28510.0300323999, 41502.33912495842, 36250.953227395206, 30730.541733567923, 25007.824600675656, 0.08, 1.008, 0.15, 192.0, 0.0, 0.0, 0.0, 0.0, 0.0, 0.0, 0.0, 0.0, 0.0, 1.7074745701945643E9, 0.0, 2024-02-09 11:29:30.194
164.0, -8899.704682791791, -15250.327020922545, 19994.305967605826, 7.68900009262563, 47441.264681966866, 19757.66804905749, 36264.788957213044, 11398.964989061951, 33459.66737981646, 2998.508870423898, 39159.20575370857, 28490.002869367945, 41118.35850696069, 36135.28294983899, 30622.91808401562, 24861.241860537753, 0.08, 1.008, 0.15, 192.0, 0.0, 0.0, 0.0, 0.0, 0.0, 0.0, 0.0, 0.0, 0.0, 1.7074745702048533E9, 0.0, 2024-02-09 11:29:30.204
166.0, -8967.028137091176, -15290.470753964277, 19950.161272306595, 15.087427507332267, 47454.96630131797, 19748.123854175075, 36267.53822178105, 11424.580088207733, 33717.31593815279, 3035.6127662197073, 39555.45747941226, 28554.59941084378, 41663.07051933653, 36350.977283832704, 30807.00705134953, 25047.878926739566, 0.078, 1.004, 0.16, 192.0, 1.0, 56.0, 15.5, 48.0, 2.5, 0.0, 0.0, 0.0, 0.0, 1.7074745702116334E9, 0.0, 2024-02-09 11:29:30.211
168.0, -8994.766651960213, -15300.93137036936, 19949.401312995116, 22.999945044510966, 47241.84241793662, 19710.37175779006, 36162.932057730206, 11327.484110293879, 33382.5315097012, 2974.279579434345, 39137.68102379811, 28453.100139272232, 41154.14364983364, 36115.85928390733, 30620.213522936527, 24867.16507281841, 0.078, 1.004, 0.16, 192.0, 0.0, 0.0, 0.0, 0.0, 0.0, 0.0, 0.0, 0.0, 0.0, 1.7074745702186503E9, 0.0, 2024-02-09 11:29:30.218
170.0, -8907.818366029069, -15259.044201260114, 19999.82684848629, 11.511148394483138, 47566.65796836114, 19784.177217981483, 36325.58570213147, 11465.304966605303, 33627.08194578671, 3039.859597666216, 39405.99136423962, 28543.401186871673, 41420.934071652184, 36284.39143710035, 30753.31816116788, 24973.31350723666, 0.078, 1.004, 0.16, 192.0, 0.0, 0.0, 0.0, 0.0, 0.0, 0.0, 0.0, 0.0, 0.0, 1.7074745702276297E9, 0.0, 2024-02-09 11:29:30.227
172.0, -9028.897765743466, -15329.966286416804, 19922.623923137657, 22.53055841094952, 47238.668470223965, 19692.155086058985, 36150.571543046426, 11335.62014527561, 33546.05687213622, 2999.246477990923, 39380.82329998294, 28492.618023469215, 41486.82701430643, 36232.96007310868, 30731.346396368313, 24985.919891109454, 0.078, 1.004, 0.16, 192.0, 0.0, 0.0, 0.0, 0.0, 0.0, 0.0, 0.0, 0.0, 0.0, 1.7074745702346988E9, 0.0, 2024-02-09 11:29:30.234
174.0, -8916.781415555646, -15259.893567549416, 20013.930799237587, 26.598575901815405, 47433.48627489642, 19777.918729533998, 36257.725805965165, 11427.865794642663, 33425.44685905539, 3020.8606148792046, 39149.05806172587, 28486.448941999548, 41096.81142530578, 36122.877731666296, 30636.17266847762, 24862.895889627445, 0.078, 1.004, 0.16, 192.0, 0.0, 0.0, 0.0, 0.0, 0.0, 0.0, 0.0, 0.0, 0.0, 1.7074745702426896E9, 0.0, 2024-02-09 11:29:30.242
176.0, -8974.650081950436, -15302.004254103214, 19964.62285096918, 24.922195067667374, 47448.61840589266, 19755.365819378596, 36249.99210238363, 11435.867719157663, 33692.9525366965, 3104.7914153088827, 39548.01434850864, 28558.376855656727, 41641.21051325923, 36340.74018487218, 30825.089612613872, 25063.39103739155, 0.078, 1.008, 0.156, 192.0, 1.0, 56.0, 15.5, 64.0, 2.0, 112.0, 0.0, 0.0, 0.0, 1.70747457025072E9, 0.0, 2024-02-09 11:29:30.250
178.0, -9017.11839641552, -15322.634914235463, 19929.485908685438, 3.3304099238407523, 47206.839586119604, 19688.04236507921, 36119.14499034226, 11309.312142051715, 33360.98442804628, 3111.429883412109, 39123.88999746919, 28447.73572060296, 41118.42556219406, 36078.93420206716, 30614.20090367805, 24867.030962351677, 0.078, 1.008, 0.156, 192.0, 0.0, 0.0, 0.0, 0.0, 0.0, 0.0, 0.0, 0.0, 0.0, 1.7074745702597284E9, 0.0, 2024-02-09 11:29:30.259
180.0, -8934.171072741876, -15283.340547483034, 19968.422647526582, -18.663706620181397, 47528.95057546504, 19757.712752546402, 36274.221393373184, 11425.272992285847, 33580.65737255304, 3234.9903267610466, 39358.42685203873, 28497.513055504925, 41319.21128263608, 36177.50539511507, 30703.138494865718, 24936.522535863227, 0.078, 1.008, 0.156, 192.0, 0.0, 0.0, 0.0, 0.0, 0.0, 0.0, 0.0, 0.0, 0.0, 1.7074745702668874E9, 0.0, 2024-02-09 11:29:30.266
182.0, -9058.536178891203, -15348.719400014807, 19880.468533094947, -3.509223879483209, 47203.218603517846, 19685.963652844865, 36128.756240458046, 11301.824307659186, 33524.39803175903, 3378.7343953531263, 39358.38214854981, 28468.031104568377, 41397.95647835213, 36179.04766548248, 30697.774076196445, 24962.338800709105, 0.078, 1.008, 0.156, 192.0, 0.0, 0.0, 0.0, 0.0, 0.0, 0.0, 0.0, 0.0, 0.0, 1.7074745702747548E9, 0.0, 2024-02-09 11:29:30.274
184.0, -8955.271119507684, -15298.092698823537, 19962.924118390576, -12.338162939329498, 47397.701132023474, 19756.215185667897, 36248.8074599275, 11398.406195450569, 33395.27200404072, 3505.7146556037255, 39122.45948582405, 28460.744435875946, 41013.35001150966, 36042.94789349412, 30611.161066432127, 24843.58398241806, 0.078, 1.008, 0.156, 192.0, 0.0, 0.0, 0.0, 0.0, 0.0, 0.0, 0.0, 0.0, 0.0, 1.7074745702827597E9, 0.0, 2024-02-09 11:29:30.282
186.0, -8978.762802930212, -15294.538771455143, 19957.71616193249, 24.27399447846347, 47456.575626918755, 19757.9139182465, 36255.624741986365, 11426.88231788663, 33636.51438194685, 3614.3664854009735, 39515.33609811498, 28514.12040163522, 41531.03876483903, 36202.62875588283, 30791.852568608832, 25034.19965913292, 0.092, 1.014, 0.15, 192.0, 1.0, 112.0, 15.5, 88.0, 2.0, 88.0, 0.0, 0.0, 0.0, 1.707474570290764E9, 0.0, 2024-02-09 11:29:30.290
188.0, -8997.895896183956, -15301.490163980743, 19958.47612124397, 32.164160271186866, 47237.68499346793, 19718.105461371597, 36159.04285419498, 11349.277061137804, 33396.65781219695, 3692.9328671613775, 39151.22618093803, 28458.53161317487, 41112.010611535385, 36058.99644601303, 30640.464203413037, 24898.79279122267, 0.092, 1.014, 0.15, 192.0, 0.0, 0.0, 0.0, 0.0, 0.0, 0.0, 0.0, 0.0, 0.0, 1.7074745702988167E9, 0.0, 2024-02-09 11:29:30.298
190.0, -8905.47143286126, -15253.344506424011, 20022.6256278307, 32.588843415837694, 47573.251732975456, 19812.072195061708, 36319.036641006074, 11498.921990266084, 33602.89735828607, 3814.258136064784, 39400.11285544787, 28536.785070512902, 41312.90809069969, 36157.612342549844, 30752.71466406759, 24981.650707918492, 0.092, 1.014, 0.15, 192.0, 0.0, 0.0, 0.0, 0.0, 0.0, 0.0, 0.0, 0.0, 0.0, 1.7074745703068247E9, 0.0, 2024-02-09 11:29:30.306
192.0, -9021.208765650841, -15316.734053699263, 19942.56167919179, 52.8618756368012, 47248.369127317565, 19722.24053409583, 36142.949598187166, 11339.95638369994, 33545.1180988691, 3875.47956412787, 39402.19156768222, 28517.294349347874, 41408.61826045731, 36213.201131010195, 30751.597076844824, 25010.104478610097, 0.092, 1.014, 0.15, 192.0, 0.0, 0.0, 0.0, 0.0, 0.0, 0.0, 0.0, 0.0, 0.0, 1.7074745703158512E9, 0.0, 2024-02-09 11:29:30.315
194.0, -8908.935953251834, -15244.15793945288, 20023.519697608914, 43.720012154580616, 47434.31328944126, 19797.901189077045, 36252.24962857361, 11431.822053411253, 33417.91432117395, 3883.2132677094064, 39158.043462996895, 28502.899825918656, 40990.104197276145, 36054.8613732888, 30637.692587100577, 24864.30404952813, 0.092, 1.014, 0.15, 192.0, 0.0, 0.0, 0.0, 0.0, 0.0, 0.0, 0.0, 0.0, 0.0, 1.7074745703218942E9, 0.0, 2024-02-09 11:29:30.321
196.0, -8966.715212668803, -15285.151038783913, 19970.501359760925, 34.01935506097735, 47452.217036749964, 19769.022735240786, 36230.99311959662, 11412.845422368697, 33697.020554187366, 3942.9818323828977, 39563.07942427152, 28573.12900699723, 41553.144640105325, 36270.48865204914, 30825.179019591695, 25073.7175433299, 0.084, 1.01, 0.156, 192.0, 1.0, 80.0, 15.5, 72.0, 2.0, 112.0, 0.0, 0.0, 0.0, 1.7074745703308275E9, 0.0, 2024-02-09 11:29:30.330
198.0, -8989.513992013215, -15292.683576665351, 19952.75407466341, 31.784180615446644, 47218.26132753627, 19728.47667079886, 36123.3247665554, 11329.473415550401, 33365.34301821506, 3874.8313635386667, 39148.29810241438, 28467.58406967927, 41046.89997993708, 36032.263759644484, 30613.440944366568, 24882.476017770296, 0.084, 1.01, 0.156, 192.0, 0.0, 0.0, 0.0, 0.0, 0.0, 0.0, 0.0, 0.0, 0.0, 1.7074745703388088E9, 0.0, 2024-02-09 11:29:30.338
200.0, -8894.653188544893, -15242.839186530018, 20008.834601501778, 26.084485779343343, 47563.84164855977, 19810.619331672115, 36355.894667612876, 11503.481746134967, 33611.07809675671, 3926.553300208247, 39401.76688453757, 28550.397282886184, 41285.661314208664, 36173.72795030212, 30751.574725100367, 24985.159931797974, 0.084, 1.01, 0.156, 192.0, 0.0, 0.0, 0.0, 0.0, 0.0, 0.0, 0.0, 0.0, 0.0, 1.7074745703468719E9, 0.0, 2024-02-09 11:29:30.346
202.0, -9010.368169590018, -15304.395890759934, 19931.13993777513, 39.07084930787675, 47251.20779886339, 19715.53501075924, 36173.616191579844, 11368.566616602733, 33559.35616008713, 3942.512445749336, 39406.37134389536, 28527.553800052858, 41411.74750468106, 36175.00199973607, 30752.93818151214, 25017.23468509134, 0.084, 1.01, 0.156, 192.0, 0.0, 0.0, 0.0, 0.0, 0.0, 0.0, 0.0, 0.0, 0.0, 1.707474570354906E9, 0.0, 2024-02-09 11:29:30.354
204.0, -8927.756122083203, -15272.812875844584, 19975.686964474557, -5.8338053028351435, 47416.94598399949, 19747.900336730523, 36240.961997623686, 11409.02327406684, 33418.3390043186, 3919.5795559381913, 39147.9404745031, 28490.584014723783, 40999.69309564747, 36032.88960848923, 30623.25336018245, 24852.859956367014, 0.084, 1.01, 0.156, 192.0, 0.0, 0.0, 0.0, 0.0, 0.0, 0.0, 0.0, 0.0, 0.0, 1.7074745703628862E9, 0.0, 2024-02-09 11:29:30.362
206.0, -8981.757936687223, -15310.564972229598, 19923.18271674904, -3.978610513044657, 47433.95566152998, 19727.314380087184, 36255.22241058617, 11407.145727532594, 33661.03424561432, 3899.7312068618785, 39514.55378705905, 28524.290445362385, 41508.77642736154, 36200.7959128375, 30786.108170283816, 25027.024749162763, 0.082, 1.016, 0.158, 192.0, 1.0, 72.0, 15.5, 96.0, 2.0, 120.0, 0.0, 0.0, 0.0, 1.7074745703711157E9, 0.0, 2024-02-09 11:29:30.371
208.0, -9010.25641086774, -15323.394873546944, 19916.208972478984, 3.1068924792876818, 47195.95428656987, 19695.41844074946, 36140.33444408589, 11310.563839741211, 33352.088433753066, 3924.2510705293503, 39106.656802494144, 28460.856194598222, 41031.07494486272, 36034.25306490101, 30598.95701395953, 24854.11165405651, 0.082, 1.016, 0.158, 192.0, 0.0, 0.0, 0.0, 0.0, 0.0, 0.0, 0.0, 0.0, 0.0, 1.7074745703779085E9, 0.0, 2024-02-09 11:29:30.377
210.0, -8919.9553632683, -15281.619463159976, 19979.330298820772, -6.61611635877089, 47531.54337782185, 19782.456133658427, 36309.64890833484, 11460.78991422533, 33574.48829108337, 3972.6873007640006, 39360.95259916218, 28535.913352479143, 41259.33095924032, 36152.225572136114, 30718.203570628593, 24950.537079636706, 0.082, 1.016, 0.158, 192.0, 0.0, 0.0, 0.0, 0.0, 0.0, 0.0, 0.0, 0.0, 0.0, 1.7074745703869653E9, 0.0, 2024-02-09 11:29:30.386
212.0, -9060.637242870003, -15356.564862318619, 19861.06721890774, -17.36730544177359, 47193.830870846614, 19669.445713692396, 36125.26936832302, 11301.913714637009, 33466.797586297704, 3909.8565471001325, 39344.702880943165, 28480.190453552063, 41326.430896095146, 36118.96617638662, 30702.847922187797, 24973.648783403492, 0.082, 1.016, 0.158, 192.0, 0.0, 0.0, 0.0, 0.0, 0.0, 0.0, 0.0, 0.0, 0.0, 1.7074745703949404E9, 0.0, 2024-02-09 11:29:30.394
214.0, -8902.588057826526, -15251.221090700757, 20025.553706354345, 32.20886376009748, 47460.59894092071, 19777.494046389347, 36293.242727904646, 11425.138881819115, 33393.79678890667, 3895.2832097152723, 39126.57220680382, 28480.481026229983, 40992.92051707751, 35997.05976212737, 30626.717880573022, 24850.088340054554, 0.082, 1.016, 0.158, 192.0, 0.0, 0.0, 0.0, 0.0, 0.0, 0.0, 0.0, 0.0, 0.0, 1.7074745704029124E9, 0.0, 2024-02-09 11:29:30.402
216.0, -8958.713288153802, -15288.97318708577, 19970.300194060826, 64.2389135645525, 47470.143135803126, 19786.05476451573, 36298.22716691818, 11448.608213497188, 33708.64346130413, 4034.6016329052013, 39577.339837234, 28602.14157130022, 41609.985126255175, 36329.81018183353, 30855.48798507309, 25097.432744196984, 0.082, 1.016, 0.156, 192.0, 1.0, 72.0, 15.5, 96.0, 2.0, 112.0, 0.0, 0.0, 0.0, 1.7074745704109359E9, 0.0, 2024-02-09 11:29:30.410
218.0, -8999.438166551372, -15308.642722206441, 19944.32746700376, 54.80647740441292, 47233.30405155469, 19730.57773477766, 36184.72500857413, 11354.328555384704, 33334.36350040001, 3995.284914408316, 39130.64022429469, 28497.960090394034, 41023.520055236826, 36036.28707364644, 30635.815040566333, 24900.69268950137, 0.082, 1.016, 0.156, 192.0, 0.0, 0.0, 0.0, 0.0, 0.0, 0.0, 0.0, 0.0, 0.0, 1.7074745704191263E9, 0.0, 2024-02-09 11:29:30.419
220.0, -8914.456834132294, -15271.762343855185, 19975.306984818817, 22.84348283332382, 47563.036985759376, 19808.00417757084, 36345.52345818561, 11486.136792437648, 33580.0762271972, 4022.7775600883438, 39374.65421851328, 28572.726675597034, 41261.54378194139, 36186.915479530755, 30757.78851005894, 24998.436868004428, 0.082, 1.016, 0.156, 192.0, 0.0, 0.0, 0.0, 0.0, 0.0, 0.0, 0.0, 0.0, 0.0, 1.707474570426971E9, 0.0, 2024-02-09 11:29:30.426
222.0, -9040.49832111577, -15342.84089122306, 19883.26250115186, 8.717180337569754, 47233.77343818825, 19699.732327429334, 36185.55202311898, 11346.952479714451, 33515.25616827681, 3962.2713878478276, 39364.10419513038, 28509.247721343963, 41382.89140258925, 36135.35000507236, 30744.66803606368, 25016.09474612412, 0.082, 1.016, 0.156, 192.0, 0.0, 0.0, 0.0, 0.0, 0.0, 0.0, 0.0, 0.0, 0.0, 1.7074745704339736E9, 0.0, 2024-02-09 11:29:30.433
224.0, -8960.814352132602, -15303.770041915184, 19902.55205661679, -23.558738655893645, 47345.73332616488, 19759.947926991932, 36262.754948467606, 11412.577201435233, 33312.54819781163, 3867.030604723764, 39059.002883315436, 28448.048645025334, 40871.17056502945, 35994.13168360373, 30589.189301632563, 24843.226354506776, 0.082, 1.016, 0.156, 192.0, 0.0, 0.0, 0.0, 0.0, 0.0, 0.0, 0.0, 0.0, 0.0, 1.707474570443009E9, 0.0, 2024-02-09 11:29:30.443
226.0, -8967.028137091176, -15296.617483689486, 19958.766693921887, 12.718142595069718, 47457.402641463596, 19752.169519921485, 36306.60907108892, 11469.171818396071, 33668.32091430675, 4022.4646356659696, 39520.72286852871, 28553.99591374349, 41524.199131035704, 36254.17187859677, 30806.045926337953, 25060.418255378994, 0.084, 1.012, 0.166, 192.0, 1.0, 80.0, 15.5, 80.0, 2.5, 24.0, 0.0, 0.0, 0.0, 1.7074745704510093E9, 0.0, 2024-02-09 11:29:30.451
228.0, -9017.252506882252, -15306.385196016456, 19900.31688217126, 57.86866639478998, 47179.34694043958, 19751.163691420996, 36182.981572506615, 11361.838741521686, 33276.07015086057, 3881.045148497242, 39093.871604665714, 28466.533537689873, 40989.34423796466, 36093.57459468539, 30605.707240785032, 24891.148494618952, 0.084, 1.012, 0.166, 192.0, 0.0, 0.0, 0.0, 0.0, 0.0, 0.0, 0.0, 0.0, 0.0, 1.7074745704580014E9, 0.0, 2024-02-09 11:29:30.458
230.0, -8895.18963041182, -15262.866349561973, 20022.290351663873, 26.531520668449485, 47569.407232929145, 19812.943913095467, 36369.41747300833, 11501.89477227864, 33632.7369371339, 4064.932950131053, 39404.40439038329, 28603.437972478627, 41348.80499229491, 36231.61896844137, 30769.210251475604, 25016.09474612412, 0.084, 1.012, 0.166, 192.0, 0.0, 0.0, 0.0, 0.0, 0.0, 0.0, 0.0, 0.0, 0.0, 1.707474570465988E9, 0.0, 2024-02-09 11:29:30.465
232.0, -9017.207803393341, -15304.820573904584, 19945.623868182167, 63.255436808518986, 47265.289397870234, 19718.843068938622, 36207.43438094072, 11362.732811299898, 33535.2162760754, 3927.894404875565, 39383.55021280649, 28518.523695292915, 41398.80584464143, 36156.33829311589, 30756.13448096925, 25006.84112391962, 0.084, 1.012, 0.166, 192.0, 0.0, 0.0, 0.0, 0.0, 0.0, 0.0, 0.0, 0.0, 0.0, 1.707474570475052E9, 0.0, 2024-02-09 11:29:30.475
234.0, -8946.822160103578, -15328.535774771664, 19975.977537152474, -22.44115143312829, 47406.28420189431, 19740.278391871263, 36266.532393280555, 11406.586933921211, 33449.31852213365, 3797.7625486567676, 39152.72374781653, 28507.839561443277, 41031.477276262915, 36068.60769612881, 30668.69445666009, 24886.54403526116, 0.084, 1.012, 0.166, 192.0, 0.0, 0.0, 0.0, 0.0, 0.0, 0.0, 0.0, 0.0, 0.0, 1.7074745704821596E9, 0.0, 2024-02-09 11:29:30.482
236.0, -9053.194111966386, -15363.13627518848, 19834.133366839098, -104.74027451756889, 47394.0354459328, 19658.873338565034, 36242.303102291, 11390.739547102397, 33587.13937844508, 3703.7734632222014, 39461.40133874433, 28462.91255508811, 41470.06320596495, 36011.81191346788, 30776.09458876784, 25002.9519203844, 0.084, 1.014, 0.166, 192.0, 1.0, 80.0, 15.5, 96.0, 2.5, 24.0, 0.0, 0.0, 0.0, 1.7074745704900997E9, 0.0, 2024-02-09 11:29:30.490
238.0, -9034.910385001944, -15320.042111878647, 19907.022405507854, 54.80647740441292, 47175.63655086, 19714.350368303105, 36138.613359762836, 11320.040979390262, 33215.58633036451, 3799.3718742575497, 39012.1089234482, 28402.026403191856, 40963.05858648522, 36108.818484403906, 30546.922152867577, 24821.656921107402, 0.084, 1.014, 0.166, 192.0, 0.0, 0.0, 0.0, 0.0, 0.0, 0.0, 0.0, 0.0, 0.0, 1.707474570499045E9, 0.0, 2024-02-09 11:29:30.499
240.0, -8914.389778898929, -15289.330814997056, 19999.893903719654, 16.629697874748455, 47563.729889837494, 19801.231599000883, 36353.45832746725, 11480.861780746196, 33661.32481829224, 3881.2463141973394, 39419.24594870162, 28614.680899939645, 41379.24806824304, 36259.02220714357, 30778.352114957826, 25007.556379742193, 0.084, 1.014, 0.166, 192.0, 0.0, 0.0, 0.0, 0.0, 0.0, 0.0, 0.0, 0.0, 0.0, 1.707474570507072E9, 0.0, 2024-02-09 11:29:30.507
242.0, -9048.880225286512, -15377.3296329176, 19890.929149500033, -26.62092764627071, 47247.340947072626, 19676.26299575126, 36200.63945062631, 11339.86697672212, 33483.2037667279, 3297.2175833246215, 39342.0877268419, 28395.879673466647, 41404.32672552189, 36028.70983227609, 30729.781774256444, 24962.13763500901, 0.084, 1.014, 0.166, 192.0, 0.0, 0.0, 0.0, 0.0, 0.0, 0.0, 0.0, 0.0, 0.0, 1.7074745705140812E9, 0.0, 2024-02-09 11:29:30.514
244.0, -8993.425547292894, -15301.3113500251, 19876.51227432636, -19.33425895384061, 47324.25329974334, 19747.855633241612, 36254.864782674886, 11425.78708240832, 33406.73844894629, 3733.769504281224, 39123.21944513553, 28531.241837887985, 40988.38311295308, 36163.557906574955, 30630.696491086066, 24865.175767561886, 0.084, 1.014, 0.166, 192.0, 0.0, 0.0, 0.0, 0.0, 0.0, 0.0, 0.0, 0.0, 0.0, 1.707474570522154E9, 0.0, 2024-02-09 11:29:30.522
246.0, -9009.585858534081, -15334.816614963605, 19895.55596060228, -46.33516625585154, 47449.62423439315, 19713.65746422499, 36304.53035885458, 11460.74521073642, 33437.53915280571, 3301.062083370934, 39403.10798920489, 28450.797909593333, 41452.96412145664, 36118.608548475335, 30733.35805336929, 24996.827542403644, 0.081, 1.0150000000000001, 0.164, 192.0, 1.0, 56.0, 15.5, 96.0, 2.5, 8.0, 0.0, 0.0, 0.0, 1.7074745705311592E9, 0.0, 2024-02-09 11:29:30.531
248.0, -8984.976587888788, -15300.014948846692, 19977.676269731077, 60.99791061853298, 47239.003746390794, 19742.334752361152, 36215.16808452226, 11380.569503375233, 33428.151420134476, 3447.44365780874, 39150.17564894863, 28478.49172097346, 41176.76361522241, 36121.15664734324, 30655.551630920367, 24895.194160365365, 0.081, 1.0150000000000001, 0.164, 192.0, 0.0, 0.0, 0.0, 0.0, 0.0, 0.0, 0.0, 0.0, 0.0, 1.707474570538168E9, 0.0, 2024-02-09 11:29:30.538
250.0, -8910.969961997267, -15277.350279969012, 20029.644075589666, 45.68696566664764, 47582.2818377354, 19825.662055690536, 36377.59821147897, 11513.405920673124, 33640.872972115634, 3402.986038087134, 39427.1584662388, 28593.89377759621, 41386.2218125131, 36329.83253357799, 30791.696106397645, 25012.585522244637, 0.081, 1.0150000000000001, 0.164, 192.0, 0.0, 0.0, 0.0, 0.0, 0.0, 0.0, 0.0, 0.0, 0.0, 1.7074745705461051E9, 0.0, 2024-02-09 11:29:30.546
252.0, -9077.736327378312, -15337.36471383151, 19862.944765441986, 18.082561264343415, 47209.298278009686, 19668.730457869824, 36184.36738066285, 11343.018572690318, 33488.702295863906, 3125.779703352416, 39365.042968397494, 28468.388732479663, 41429.6289002453, 36188.07777024243, 30742.41050987369, 24996.894597637012, 0.081, 1.0150000000000001, 0.164, 192.0, 0.0, 0.0, 0.0, 0.0, 0.0, 0.0, 0.0, 0.0, 0.0, 1.7074745705544515E9, 0.0, 2024-02-09 11:29:30.554
254.0, -8923.509290636694, -15272.030564788649, 19976.223406341483, 10.88529954973454, 47402.14912917008, 19763.68066831597, 36282.335076610456, 11418.656875927076, 33370.34980897306, 3312.8638044433364, 39101.40414254715, 28507.54898876536, 40987.243173985866, 36106.315089024916, 30602.689755283565, 24853.016418578198, 0.081, 1.0150000000000001, 0.164, 192.0, 0.0, 0.0, 0.0, 0.0, 0.0, 0.0, 0.0, 0.0, 0.0, 1.707474570563198E9, 0.0, 2024-02-09 11:29:30.563
0.0, -8911.729921308746, -15221.068587430549, 20011.561514325324, 116.34082988987326, 47489.23152556796, 19790.52511340679, 36310.90060602434, 11450.083428631238, 33701.71442052298, 3283.5606674624287, 39565.001674294675, 28607.79656264741, 41653.593379687474, 36399.52527278963, 30833.180944106694, 25085.58631963567, 0.0825, 1.0175, 0.159, 192.0, 1.0, 80.0, 15.5, 112.0, 2.0, 104.0, 0.0, 0.0, 0.0, 1.707474570570644E9, 0.0, 2024-02-09 11:29:30.570
2.0, -9004.176736375897, -15288.2579312632, 19942.159347791596, 38.89203535223429, 47219.46832173685, 19708.158935088984, 36171.15749968976, 11322.186746857971, 33443.66353078646, 3254.5033996705297, 39202.12110306277, 28533.298198377874, 41192.61100204122, 36155.71244427114, 30657.004494309964, 24917.0318146982, 0.0825, 1.0175, 0.159, 192.0, 0.0, 0.0, 0.0, 0.0, 0.0, 0.0, 0.0, 0.0, 0.0, 1.7074745705782037E9, 0.0, 2024-02-09 11:29:30.578
4.0, -8908.645380573915, -15242.190985940813, 19943.075769314262, 20.85417757680149, 47527.36360160871, 19786.367688938106, 36338.50501042664, 11482.806382513809, 33582.93725048748, 3211.4092363606974, 39367.501660287584, 28567.11638773875, 41332.9576054761, 36243.823020913966, 30734.542695825425, 24975.973364826845, 0.0825, 1.0175, 0.159, 192.0, 0.0, 0.0, 0.0, 0.0, 0.0, 0.0, 0.0, 0.0, 0.0, 1.7074745705873628E9, 0.0, 2024-02-09 11:29:30.587
6.0, -8991.659759480925, -15286.894474851428, 19962.544138734836, 67.88224791076755, 47271.391424106536, 19711.690510712924, 36184.30032542948, 11355.356735629646, 33627.35016672017, 3144.9575000950695, 39419.06713474597, 28547.893887507187, 41543.220465567174, 36261.81617520049, 30743.7069110521, 25018.173458358462, 0.0825, 1.0175, 0.159, 192.0, 0.0, 0.0, 0.0, 0.0, 0.0, 0.0, 0.0, 0.0, 0.0, 1.7074745705942335E9, 0.0, 2024-02-09 11:29:30.594
