%OpenBCI Raw EXG Data
%Number of channels = 16
%Sample Rate = 125 Hz
%Board = OpenBCI_GUI$BoardCytonSerialDaisy
Sample Index, EXG Channel 0, EXG Channel 1, EXG Channel 2, EXG Channel 3, EXG Channel 4, EXG Channel 5, EXG Channel 6, EXG Channel 7, EXG Channel 8, EXG Channel 9, EXG Channel 10, EXG Channel 11, EXG Channel 12, EXG Channel 13, EXG Channel 14, EXG Channel 15, Accel Channel 0, Accel Channel 1, Accel Channel 2, Other, Other, Other, Other, Other, Other, Other, Analog Channel 0, Analog Channel 1, Analog Channel 2, Timestamp, Other, Timestamp (Formatted)
0.0, -7035.949174874923, -13521.19606985999, 21964.656944830054, 1385.6293422733954, 47558.38782291268, 20896.355318588652, 37419.45772402975, 12376.876160726091, 0.0, 0.0, 0.0, 0.0, 0.0, 0.0, 0.0, 0.0, 0.0, 0.0, 0.0, 192.0, 0.0, 0.0, 0.0, 0.0, 0.0, 0.0, 0.0, 0.0, 0.0, 1.707474749201192E9, 0.0, 2024-02-09 11:32:29.201
242.0, -6963.484819350818, -13469.38472621259, 22019.284608278824, 1383.5059265501413, 47607.58401245881, 20937.080196986222, 37448.22441914373, 12391.78477427778, 35267.811747528525, 8036.033277038727, 39768.9389907049, 29161.002237916262, 41856.30135015266, 36929.70865126952, 31200.35305027402, 24700.84574232647, 0.0, 0.0, 0.0, 192.0, 0.0, 0.0, 0.0, 0.0, 0.0, 0.0, 0.0, 0.0, 0.0, 1.7074747492012787E9, 0.0, 2024-02-09 11:32:29.201
0.0, -3508.6874376162814, -6695.442699842775, 11054.055220372107, 725.3588110636248, 23767.6604113174, 10500.894248592169, 18750.18551947898, 6216.9142027991065, 17797.040080671322, 4050.449019724014, 20111.518515529457, 14627.160385508585, 21221.34968296882, 18591.041098957194, 15696.557247228295, 12447.977059838422, 0.092, 1.026, 0.11, 192.0, 1.0, 112.0, 16.0, 8.0, 1.5, 56.0, 0.0, 0.0, 0.0, 1.707474749246523E9, 0.0, 2024-02-09 11:32:29.246
2.0, -6901.883411631991, -13325.506547153778, 22158.33481053529, 1439.1394184994006, 47810.873128279825, 21065.245099692955, 37617.71769734832, 12519.927325240056, 35554.450518423386, 8272.313567675777, 39944.75781259034, 29191.40061037548, 42072.576829502206, 37087.73548456854, 31414.952148789427, 24744.56575448105, 0.092, 1.026, 0.11, 192.0, 0.0, 0.0, 0.0, 0.0, 0.0, 0.0, 0.0, 0.0, 0.0, 1.7074747492545533E9, 0.0, 2024-02-09 11:32:29.254
4.0, -7032.328192273163, -13399.960207934406, 22074.336954872248, 1442.4027731898755, 47598.71036991005, 20988.958595866992, 37523.0580595801, 12439.930431834511, 35655.05572021672, 8261.20475068149, 40135.97698640549, 29195.155703443972, 42381.03090298545, 37175.08610189988, 31476.553556508254, 24825.993159531732, 0.092, 1.026, 0.11, 192.0, 0.0, 0.0, 0.0, 0.0, 0.0, 0.0, 0.0, 0.0, 0.0, 1.7074747492625573E9, 0.0, 2024-02-09 11:32:29.262
6.0, -6956.444019847396, -13341.242175250314, 22121.968522306506, 1447.2083982477664, 47605.66176243565, 21022.463860805496, 37537.11730684248, 12444.736056892403, 35407.7560195632, 8220.949258917482, 39778.75140652077, 29135.923580637405, 41887.303219712165, 36992.87468110021, 31335.648159461995, 24680.68446882778, 0.092, 1.026, 0.11, 192.0, 0.0, 0.0, 0.0, 0.0, 0.0, 0.0, 0.0, 0.0, 0.0, 1.707474749270532E9, 0.0, 2024-02-09 11:32:29.270
8.0, -6935.701600992871, -13344.527881685244, 22119.55453390533, 1448.0577645370681, 47769.634159759786, 21045.754378527927, 37625.853732330055, 12513.981761214944, 35716.99240410238, 8295.40291969811, 40181.4851381165, 29234.271256240758, 42363.90946673268, 37217.88969253179, 31495.820760228726, 24833.480993924262, 0.11, 1.022, 0.084, 192.0, 1.5, 56.0, 15.5, 120.0, 1.0, 80.0, 0.0, 0.0, 0.0, 1.7074747492785404E9, 0.0, 2024-02-09 11:32:29.278
10.0, -7038.318459787186, -13401.904809702017, 22069.285460625346, 1460.217113520755, 47470.63487418114, 20972.373601481155, 37478.73455032522, 12390.26485565482, 35458.00274109873, 8212.634409980108, 39901.954221958425, 29140.729205695297, 42074.83435569219, 37051.123327150744, 31379.88226173905, 24752.925306907335, 0.11, 1.022, 0.084, 192.0, 0.0, 0.0, 0.0, 0.0, 0.0, 0.0, 0.0, 0.0, 0.0, 1.707474749286849E9, 0.0, 2024-02-09 11:32:29.286
12.0, -6890.036987070678, -13315.738834826809, 22159.340639035778, 1465.3133112565652, 47768.36011032583, 21066.899128782647, 37634.05682254515, 12518.608572317193, 35556.79745159119, 8264.266939671867, 39954.14554526157, 29201.905930269473, 42050.627416447096, 37107.740295856034, 31402.815151550192, 24752.7911964406, 0.11, 1.022, 0.084, 192.0, 0.0, 0.0, 0.0, 0.0, 0.0, 0.0, 0.0, 0.0, 0.0, 1.7074747492936516E9, 0.0, 2024-02-09 11:32:29.293
14.0, -7018.090131055133, -13395.26634159879, 22095.14642896014, 1476.4891834842185, 47583.08650053579, 21008.136392609646, 37575.11527241651, 12478.286025319818, 35662.9682377539, 8265.429230383543, 40164.8330884973, 29222.134259001527, 42385.68006583215, 37207.227910426605, 31501.27458587582, 24871.233090309273, 0.11, 1.022, 0.084, 192.0, 0.0, 0.0, 0.0, 0.0, 0.0, 0.0, 0.0, 0.0, 0.0, 1.7074747493025627E9, 0.0, 2024-02-09 11:32:29.302
16.0, -6956.242854147298, -13354.094428312115, 22147.181290052093, 1469.8283636365372, 47586.595724415274, 21034.0644161778, 37570.08612991407, 12478.442487531005, 35400.849330526515, 8209.929848901016, 39792.38597063851, 29147.21121158734, 41882.408187676454, 36990.63950665468, 31349.081557879636, 24716.04492855608, 0.11, 1.022, 0.084, 192.0, 0.0, 0.0, 0.0, 0.0, 0.0, 0.0, 0.0, 0.0, 0.0, 1.70747474931062E9, 0.0, 2024-02-09 11:32:29.310
18.0, -6932.147673624477, -13356.5531202022, 22156.99370586797, 1471.0800613260344, 47749.36112753882, 21073.068210252313, 37621.87512181701, 12571.135171787164, 35726.424840262516, 8285.63520737114, 40193.398617911174, 29250.297457015215, 42361.6966440316, 37225.86926530233, 31506.527245822817, 24872.26127055422, 0.098, 1.05, 0.084, 192.0, 1.5, 8.0, 16.0, 104.0, 1.0, 80.0, 0.0, 0.0, 0.0, 1.7074747493185804E9, 0.0, 2024-02-09 11:32:29.318
20.0, -7035.7033056859145, -13404.296446358734, 22118.794574593852, 1479.506668985685, 47448.61840589266, 21007.219971086975, 37469.7938525431, 12455.330783764219, 35468.26219180372, 8208.454633766965, 39923.47895186889, 29157.023627403218, 42085.80906221975, 37069.295295392905, 31383.72676178536, 24783.256624133188, 0.098, 1.05, 0.084, 192.0, 0.0, 0.0, 0.0, 0.0, 0.0, 0.0, 0.0, 0.0, 0.0, 1.7074747493256507E9, 0.0, 2024-02-09 11:32:29.325
22.0, -6895.691978417872, -13320.902087795985, 22192.063592918348, 1463.703985655783, 47734.92190062069, 21083.17119874611, 37579.853842241035, 12532.578412601759, 35558.18325974742, 8257.427305868543, 39966.01432156734, 29207.15859021647, 42053.93547462648, 37107.472074922574, 31397.78600904775, 24772.550138539093, 0.098, 1.05, 0.084, 192.0, 0.0, 0.0, 0.0, 0.0, 0.0, 0.0, 0.0, 0.0, 0.0, 1.7074747493346467E9, 0.0, 2024-02-09 11:32:29.334
24.0, -7027.097884070621, -13402.284789357756, 22117.85580132673, 1476.6009422064951, 47544.77561053939, 21024.520221295385, 37487.8987655519, 12480.454144531983, 35664.80108079923, 8255.572111078753, 40170.59983856676, 29215.518142642755, 42376.09116746082, 37210.91594826173, 31467.590506981673, 24864.482863483772, 0.098, 1.05, 0.084, 192.0, 0.0, 0.0, 0.0, 0.0, 0.0, 0.0, 0.0, 0.0, 0.0, 1.7074747493427658E9, 0.0, 2024-02-09 11:32:29.342
26.0, -6963.7977437731915, -13353.245062022814, 22166.515549005933, 1480.154869574889, 47552.73283156548, 21048.324829140285, 37494.22430923275, 12473.078068861732, 35398.72591480326, 8216.098930370681, 39795.85049102909, 29154.363769813037, 41868.86303053654, 37019.36149827975, 31325.09813607909, 24718.973007079723, 0.098, 1.05, 0.084, 192.0, 0.0, 0.0, 0.0, 0.0, 0.0, 0.0, 0.0, 0.0, 0.0, 1.7074747493496392E9, 0.0, 2024-02-09 11:32:29.349
28.0, -6939.6131562725495, -13344.907861340984, 22164.660354216143, 1474.186953805322, 47727.97050809509, 21066.474445637996, 37562.933571688365, 12527.437511377038, 35714.64547093457, 8289.680873117552, 40192.05751324386, 29261.383922265046, 42344.08346940082, 37248.958617324664, 31484.488425789885, 24865.64515419545, 0.08600000000000001, 1.054, 0.08, 192.0, 1.0, 88.0, 16.0, 120.0, 1.0, 64.0, 0.0, 0.0, 0.0, 1.7074747493588853E9, 0.0, 2024-02-09 11:32:29.358
30.0, -7044.0405063677445, -13391.60065550812, 22123.533144418376, 1493.476509270252, 47449.06544078177, 21007.97993039846, 37472.118433966454, 12434.186033509497, 35463.121290579, 8216.903593171071, 39921.80257103474, 29170.05469442066, 42069.13466085609, 37081.92403101016, 31378.33999137163, 24781.222615387753, 0.08600000000000001, 1.054, 0.08, 192.0, 0.0, 0.0, 0.0, 0.0, 0.0, 0.0, 0.0, 0.0, 0.0, 1.7074747493666615E9, 0.0, 2024-02-09 11:32:29.366
32.0, -6882.459745700329, -13285.29575887868, 22213.72243329554, 1505.8593756984922, 47753.2726828185, 21119.716300930537, 37629.832342843096, 12578.53359920187, 35568.59917266359, 8283.020053269871, 39973.36804549313, 29237.914590586974, 42040.85970412013, 37142.9666451176, 31424.004605293827, 24801.853275520003, 0.08600000000000001, 1.054, 0.08, 192.0, 0.0, 0.0, 0.0, 0.0, 0.0, 0.0, 0.0, 0.0, 0.0, 1.7074747493746839E9, 0.0, 2024-02-09 11:32:29.374
34.0, -7010.177613517954, -13361.023469093261, 22127.779975864887, 1510.7544077342043, 47564.24397995997, 21042.31220988181, 37535.12800158597, 12495.51922029486, 35684.62707813109, 8303.985989568948, 40188.034199241905, 29270.905765403008, 42376.6499610722, 37257.295818006496, 31506.840170245192, 24911.376823351005, 0.08600000000000001, 1.054, 0.08, 192.0, 0.0, 0.0, 0.0, 0.0, 0.0, 0.0, 0.0, 0.0, 0.0, 1.707474749381702E9, 0.0, 2024-02-09 11:32:29.381
36.0, -6950.856083733569, -13321.840861063107, 22166.67201121712, 1502.350151819009, 47563.953407282046, 21068.530806127885, 37528.66834743838, 12484.768031211857, 35412.516941132184, 8250.855892998683, 39804.18769171092, 29191.557072586667, 41865.62202759052, 37041.33326307932, 31350.757938713785, 24746.957391137767, 0.08600000000000001, 1.054, 0.08, 192.0, 0.0, 0.0, 0.0, 0.0, 0.0, 0.0, 0.0, 0.0, 0.0, 1.7074747493906877E9, 0.0, 2024-02-09 11:32:29.390
38.0, -6935.634545759505, -13324.545422142199, 22173.131665364705, 1492.0683493695676, 47739.32519427838, 21087.440381937075, 37591.09676970205, 12537.115816726187, 35733.21977057693, 8310.244478016433, 40200.685286603606, 29285.680268487966, 42341.06598389935, 37255.127698794335, 31507.957757467957, 24886.767552705714, 0.07, 1.052, 0.07, 192.0, 1.0, 24.0, 16.0, 112.0, 1.0, 24.0, 0.0, 0.0, 0.0, 1.707474749398743E9, 0.0, 2024-02-09 11:32:29.398
40.0, -7046.163922090998, -13382.54819900372, 22133.591429423264, 1497.7009889723051, 47456.575626918755, 21008.471668776474, 37439.0378521726, 12418.472757157417, 35474.386569784474, 8223.966744418949, 39928.597501349155, 29177.721342768833, 42079.12589062761, 37081.83462403234, 31389.225290921368, 24791.48206609274, 0.07, 1.052, 0.07, 192.0, 0.0, 0.0, 0.0, 0.0, 0.0, 0.0, 0.0, 0.0, 0.0, 1.7074747494057252E9, 0.0, 2024-02-09 11:32:29.405
42.0, -6894.350873750553, -13296.449279361877, 22222.909000266674, 1494.705855215294, 47752.06568861791, 21090.860198838735, 37551.80240294962, 12515.658142049091, 35568.912097085966, 8281.097803246714, 39970.57407743622, 29231.7008056284, 42036.88109360708, 37121.35250822932, 31406.391430663043, 24777.199301385797, 0.07, 1.052, 0.07, 192.0, 0.0, 0.0, 0.0, 0.0, 0.0, 0.0, 0.0, 0.0, 0.0, 1.7074747494147594E9, 0.0, 2024-02-09 11:32:29.414
44.0, -7021.219375278875, -13369.897111642018, 22157.351333779257, 1512.3860850794417, 47580.314884223335, 21047.92249774009, 37494.067847021564, 12502.336502353728, 35683.77771184179, 8287.49040216093, 40191.23049869901, 29252.487927971833, 42376.35938839429, 37238.050966030474, 31494.211434627945, 24889.94150041837, 0.07, 1.052, 0.07, 192.0, 0.0, 0.0, 0.0, 0.0, 0.0, 0.0, 0.0, 0.0, 0.0, 1.7074747494227211E9, 0.0, 2024-02-09 11:32:29.422
46.0, -6966.681118807926, -13332.21207049037, 22197.651529032177, 1505.0100094091904, 47568.53551489538, 21058.53957635636, 37481.17089047085, 12469.010051370866, 35418.99894702422, 8235.790817235806, 39811.988450525816, 29181.409380603956, 41866.49374562428, 37034.67244323164, 31342.666607220963, 24737.61436195545, 0.07, 1.052, 0.07, 192.0, 0.0, 0.0, 0.0, 0.0, 0.0, 0.0, 0.0, 0.0, 0.0, 1.7074747494310536E9, 0.0, 2024-02-09 11:32:29.431
48.0, -6938.652031260972, -13326.870003565551, 22203.999424457485, 1501.7243029742604, 47762.705118978636, 21095.487009940985, 37574.98116194978, 12566.731878129469, 35733.9350263995, 8311.160899539102, 40211.302365219875, 29281.276974830267, 42342.697661244594, 37257.921666851245, 31506.728411522916, 24884.39826779345, 0.056, 1.05, 0.066, 192.0, 0.5, 96.0, 16.0, 104.0, 1.0, 8.0, 0.0, 0.0, 0.0, 1.7074747494377792E9, 0.0, 2024-02-09 11:32:29.437
50.0, -7050.410753537507, -13379.396603035522, 22141.74981614945, 1505.278230342654, 47466.47744971245, 21013.59021825674, 37448.492640077195, 12447.41826622704, 35489.295183336166, 8237.400142836588, 39948.49055391438, 29191.15474118647, 42077.13658537109, 37097.39143817323, 31397.048401480726, 24794.857179505492, 0.056, 1.05, 0.066, 192.0, 0.0, 0.0, 0.0, 0.0, 0.0, 0.0, 0.0, 0.0, 0.0, 1.7074747494468036E9, 0.0, 2024-02-09 11:32:29.446
52.0, -6899.4023679974525, -13287.39682285748, 22229.435709647623, 1499.220907595266, 47767.801316714445, 21098.728012887004, 37593.04137146966, 12543.798988318324, 35572.331913987626, 8289.390300439632, 39972.89865885957, 29239.747433632307, 42019.49143642085, 37122.04541230743, 31419.31073895821, 24778.629813030937, 0.056, 1.05, 0.066, 192.0, 0.0, 0.0, 0.0, 0.0, 0.0, 0.0, 0.0, 0.0, 0.0, 1.707474749454804E9, 0.0, 2024-02-09 11:32:29.454
54.0, -7035.569195219183, -13376.937911145438, 22142.018037082915, 1501.34432331852, 47583.801756358356, 21050.828224519282, 37500.81807384707, 12501.241266875419, 35692.74076136837, 8301.147318023124, 40201.735818593006, 29255.68422742894, 42379.1533564512, 37242.5883701549, 31511.891664492094, 24896.043526654666, 0.056, 1.05, 0.066, 192.0, 0.0, 0.0, 0.0, 0.0, 0.0, 0.0, 0.0, 0.0, 0.0, 1.7074747494618344E9, 0.0, 2024-02-09 11:32:29.461
56.0, -6973.408993888974, -13329.976896044838, 22193.315290607847, 1511.2014426233104, 47580.20312550105, 21072.59882361875, 37504.550815171104, 12484.633920745126, 35417.94841503482, 8227.76654097635, 39813.664831359965, 29178.81657824714, 41867.20900144685, 37027.74340245049, 31345.460575277877, 24730.640617685392, 0.056, 1.05, 0.066, 192.0, 0.0, 0.0, 0.0, 0.0, 0.0, 0.0, 0.0, 0.0, 0.0, 1.7074747494698236E9, 0.0, 2024-02-09 11:32:29.469
58.0, -6942.205958629365, -13316.67760809393, 22205.452287847078, 1509.0780269000563, 47779.73714825358, 21097.766887875427, 37588.61572606751, 12551.599747133227, 35744.4850497824, 8322.493233977943, 40221.360650224764, 29296.699678504432, 42348.28559735842, 37264.13545180982, 31512.405754614563, 24877.60333747904, 0.044, 1.046, 0.068, 192.0, 0.5, 48.0, 16.0, 88.0, 1.0, 16.0, 0.0, 0.0, 0.0, 1.7074747494788215E9, 0.0, 2024-02-09 11:32:29.478
60.0, -7055.506951273317, -13373.138114588037, 22147.918897619118, 1515.2024048808105, 47477.07217658427, 21023.290875350343, 37446.03394818711, 12431.772045108324, 35501.96862244232, 8245.58088130723, 39961.40986220955, 29198.508465112267, 42099.9353647155, 37095.312725938886, 31401.65286083852, 24789.783333514137, 0.044, 1.046, 0.068, 192.0, 0.0, 0.0, 0.0, 0.0, 0.0, 0.0, 0.0, 0.0, 0.0, 1.7074747494858284E9, 0.0, 2024-02-09 11:32:29.485
62.0, -6904.900897133458, -13280.892465220984, 22237.437634162623, 1517.2364136262433, 47776.74201449657, 21110.50738221495, 37586.58171732208, 12540.781502816857, 35575.23764076682, 8287.825678327761, 39978.95598160696, 29247.07880581365, 42036.59052092916, 37125.644043164735, 31419.578959891674, 24778.316888608562, 0.044, 1.046, 0.068, 192.0, 0.0, 0.0, 0.0, 0.0, 0.0, 0.0, 0.0, 0.0, 0.0, 1.7074747494942832E9, 0.0, 2024-02-09 11:32:29.494
64.0, -7033.177558562465, -13361.738724915831, 22157.597202968267, 1512.8778234574586, 47602.06313157835, 21029.705826009016, 37486.46825390676, 12468.115981592653, 35701.88262485059, 8293.100690019213, 40212.46465593155, 29262.993247865827, 42403.27088871848, 37243.12481202183, 31509.075344690722, 24879.726753202292, 0.044, 1.046, 0.068, 192.0, 0.0, 0.0, 0.0, 0.0, 0.0, 0.0, 0.0, 0.0, 0.0, 1.707474749502877E9, 0.0, 2024-02-09 11:32:29.502
66.0, -6978.684005580427, -13327.607611132576, 22200.892531978196, 1509.1674338778776, 47584.06997729182, 21049.285954151866, 37474.59947760099, 12438.723437633926, 35419.021298768675, 8237.087218414214, 39821.08561051913, 29175.687334023398, 41884.039865021696, 37032.392565297196, 31342.64425547651, 24709.518219175126, 0.044, 1.046, 0.068, 192.0, 0.0, 0.0, 0.0, 0.0, 0.0, 0.0, 0.0, 0.0, 0.0, 1.7074747495098894E9, 0.0, 2024-02-09 11:32:29.509
68.0, -6949.894958721991, -13319.270410450747, 22209.430898360122, 1510.7767594786596, 47788.007293702045, 21091.08371628329, 37562.84416471054, 12534.8582905362, 35744.46269803795, 8321.50975722191, 40215.638603644205, 29283.489797531343, 42359.550876563895, 37255.8429546169, 31504.1356091661, 24863.722904172293, 0.032, 1.058, 0.076, 192.0, 0.5, 0.0, 16.5, 8.0, 1.0, 48.0, 0.0, 0.0, 0.0, 1.707474749517845E9, 0.0, 2024-02-09 11:32:29.517
70.0, -7065.4087740670175, -13378.03314662375, 22149.103540075248, 1510.285021100643, 47482.503650486906, 21005.074203619268, 37402.828026155, 12388.901399243046, 35511.49046558028, 8244.217424895456, 39958.45943194145, 29192.227624920324, 42117.28031841282, 37098.06199050689, 31397.3613259031, 24783.144865410908, 0.032, 1.058, 0.076, 192.0, 0.0, 0.0, 0.0, 0.0, 0.0, 0.0, 0.0, 0.0, 0.0, 1.707474749526147E9, 0.0, 2024-02-09 11:32:29.526
72.0, -6915.540327494184, -13288.872037991528, 22232.922581782652, 1507.8039774661038, 47770.41647081572, 21107.02051007992, 37555.33397857356, 12518.34035138373, 35568.88974534151, 8286.953960294004, 39972.09399605918, 29231.45493643939, 42039.786820386274, 37125.15230478672, 31403.955090517415, 24757.70858022077, 0.032, 1.058, 0.076, 192.0, 0.0, 0.0, 0.0, 0.0, 0.0, 0.0, 0.0, 0.0, 0.0, 1.7074747495349216E9, 0.0, 2024-02-09 11:32:29.534
74.0, -7038.318459787186, -13363.348050516612, 22149.885851131185, 1506.0381896541346, 47600.8337856333, 21041.194622659044, 37482.08731199352, 12446.211272026452, 35702.79904637326, 8303.471899446477, 40208.55310065187, 29253.158480305494, 42410.222281244074, 37229.244378715084, 31503.979146954913, 24869.78022691968, 0.032, 1.058, 0.076, 192.0, 0.0, 0.0, 0.0, 0.0, 0.0, 0.0, 0.0, 0.0, 0.0, 1.7074747495419688E9, 0.0, 2024-02-09 11:32:29.541
76.0, -6997.414767433974, -13331.988553045816, 22175.612708999244, 1493.8564889259922, 47560.48888689147, 21050.604707074726, 37458.23800065971, 12409.040320997277, 35420.697679602825, 8238.62948878163, 39807.67456384594, 29165.897269951973, 41883.72694059932, 37021.70843144756, 31331.826011160138, 24694.0284602676, 0.032, 1.058, 0.076, 192.0, 0.0, 0.0, 0.0, 0.0, 0.0, 0.0, 0.0, 0.0, 0.0, 1.7074747495499616E9, 0.0, 2024-02-09 11:32:29.549
78.0, -6962.993080972801, -13325.506547153778, 22181.602976513266, 1489.2967330571096, 47766.84019170287, 21080.98072778949, 37577.93159221788, 12497.866153462668, 35733.957378143954, 8290.887867318139, 40192.48219638851, 29261.987419365338, 42352.08539391582, 37227.25507345856, 31491.953908437958, 24837.39254920394, 0.043, 1.0510000000000002, 0.081, 192.0, 0.5, 88.0, 16.0, 80.0, 1.0, 88.0, 0.0, 0.0, 0.0, 1.7074747495593903E9, 0.0, 2024-02-09 11:32:29.559
80.0, -7072.248407870342, -13378.480181512856, 22117.833449582275, 1495.5552215045955, 47466.32098750127, 21007.35408155371, 37431.147686379874, 12354.837340693157, 35500.336945097086, 8214.802529192273, 39946.30008295776, 29178.414246846947, 42116.7885800348, 37082.19225194362, 31389.538215343742, 24757.909745920868, 0.043, 1.0510000000000002, 0.081, 192.0, 0.0, 0.0, 0.0, 0.0, 0.0, 0.0, 0.0, 0.0, 0.0, 1.707474749566076E9, 0.0, 2024-02-09 11:32:29.566
82.0, -6922.871699675525, -13292.045985704182, 22194.14230515269, 1482.993541120713, 47754.27851131899, 21072.911748041126, 37573.88592647146, 12441.942088835489, 35561.82659409363, 8251.459390098977, 39958.05710054125, 29228.236285237825, 42033.39422147205, 37096.05033350591, 31392.220424678377, 24727.399614739374, 0.043, 1.0510000000000002, 0.081, 192.0, 0.0, 0.0, 0.0, 0.0, 0.0, 0.0, 0.0, 0.0, 0.0, 1.7074747495739813E9, 0.0, 2024-02-09 11:32:29.573
84.0, -7040.039544110245, -13365.73968717333, 22114.011301280418, 1491.9789423917464, 47580.06901503432, 21009.790421699337, 37505.28842273813, 12385.25806489683, 35703.15667428454, 8260.981233236937, 40201.646411615184, 29244.84363136812, 42417.643060403236, 37207.853759271355, 31489.51756829233, 24836.900810825922, 0.043, 1.0510000000000002, 0.081, 192.0, 0.0, 0.0, 0.0, 0.0, 0.0, 0.0, 0.0, 0.0, 0.0, 1.7074747495819588E9, 0.0, 2024-02-09 11:32:29.581
86.0, -6980.405089903485, -13315.582372615621, 22157.731313434997, 1502.0148756521794, 47561.002977013944, 21038.244192390943, 37505.33312622704, 12370.930596700979, 35417.76960107918, 8212.276782068824, 39811.60847087008, 29174.90502296746, 41885.29156271119, 37004.296422516876, 31328.2944355362, 24680.237433938677, 0.043, 1.0510000000000002, 0.081, 192.0, 0.0, 0.0, 0.0, 0.0, 0.0, 0.0, 0.0, 0.0, 0.0, 1.7074747495909984E9, 0.0, 2024-02-09 11:32:29.590
88.0, -6936.774484726726, -13305.97112249984, 22172.23759558649, 1499.6902942288273, 47772.18225862769, 21068.061419494323, 37602.16088320743, 12446.479492959917, 35737.041918878786, 8301.147318023124, 40214.67747863263, 29281.74636146383, 42352.01833868246, 37231.65836711626, 31495.619594528627, 24832.028130534665, 0.0625, 1.0335, 0.0905, 192.0, 1.0, 72.0, 15.5, 96.0, 1.5, 16.0, 0.0, 0.0, 0.0, 1.7074747495980408E9, 0.0, 2024-02-09 11:32:29.598
90.0, -7048.600262236627, -13369.897111642018, 22110.882057056675, 1509.6591722558944, 47449.57953090424, 21006.325901308766, 37456.13693668091, 12323.276677522264, 35504.33790735459, 8221.329238573222, 39976.29612401678, 29193.30050865418, 42120.36485914765, 37086.19321420112, 31389.135883943545, 24758.62500174344, 0.0625, 1.0335, 0.0905, 192.0, 0.0, 0.0, 0.0, 0.0, 0.0, 0.0, 0.0, 0.0, 0.0, 1.7074747496060724E9, 0.0, 2024-02-09 11:32:29.606
92.0, -6901.481080231796, -13285.787497256697, 22199.037337188405, 1511.2014426233104, 47742.700307691135, 21093.184780262087, 37597.53407210518, 12439.148120778576, 35560.26197198176, 8260.422439625554, 39969.50119370237, 29238.048701053704, 42029.46031444792, 37109.6625458792, 31389.895843255028, 24736.9885131107, 0.0625, 1.0335, 0.0905, 192.0, 0.0, 0.0, 0.0, 0.0, 0.0, 0.0, 0.0, 0.0, 0.0, 1.70747474961406E9, 0.0, 2024-02-09 11:32:29.614
94.0, -7022.538128201739, -13363.280995283247, 22120.85093508374, 1518.5551665491066, 47579.37611095621, 21038.288895879854, 37524.91325436989, 12413.30950418824, 35706.86706386412, 8276.58275086674, 40221.74062988051, 29264.5578699777, 42416.70428713611, 37234.72055610664, 31494.27848986131, 24864.795787906147, 0.0625, 1.0335, 0.0905, 192.0, 0.0, 0.0, 0.0, 0.0, 0.0, 0.0, 0.0, 0.0, 0.0, 1.7074747496220508E9, 0.0, 2024-02-09 11:32:29.622
96.0, -6973.721918311348, -13328.546384399699, 22159.2288803135, 1507.4016460659084, 47546.94372975156, 21032.745663254937, 37509.62466116246, 12386.398003864051, 35410.86291204249, 8215.406026292567, 39816.92818605044, 29180.11297942555, 41879.36835043053, 37013.97472786602, 31329.613188459065, 24700.264596970632, 0.0625, 1.0335, 0.0905, 192.0, 0.0, 0.0, 0.0, 0.0, 0.0, 0.0, 0.0, 0.0, 0.0, 1.707474749630097E9, 0.0, 2024-02-09 11:32:29.630
98.0, -6937.020353915734, -13322.869041308051, 22169.15305485166, 1493.543564503618, 47762.3251393229, 21070.87773929569, 37607.14532222096, 12460.069353588744, 35728.95058738597, 8299.962675566992, 40204.105103505266, 29280.762884707798, 42343.30115834489, 37219.8342942994, 31492.982088682904, 24836.230258492265, 0.07925, 1.02175, 0.09225, 192.0, 1.5, 0.0, 15.5, 72.0, 1.0, 120.0, 0.0, 0.0, 0.0, 1.7074747496381757E9, 0.0, 2024-02-09 11:32:29.638
100.0, -7056.937462918457, -13385.878608927562, 22106.85874305472, 1505.6582099983943, 47433.91095804107, 21006.750584453417, 37455.64519830289, 12375.512704314317, 35488.15524436894, 8208.231116322413, 39959.82288835322, 29184.40451436097, 42126.06455398376, 37090.52945262545, 31388.107703698603, 24770.13615013792, 0.07925, 1.02175, 0.09225, 192.0, 0.0, 0.0, 0.0, 0.0, 0.0, 0.0, 0.0, 0.0, 0.0, 1.7074747496471467E9, 0.0, 2024-02-09 11:32:29.647
102.0, -6912.500490248262, -13298.39388112949, 22185.358069581758, 1494.1247098594558, 47719.11921729079, 21095.911693085636, 37595.656525570936, 12485.23741784542, 35538.491372882294, 8256.555587834786, 39947.79764983626, 29223.65417762449, 42013.79174158475, 37094.23984220503, 31385.671363552974, 24744.677513203325, 0.07925, 1.02175, 0.09225, 192.0, 0.0, 0.0, 0.0, 0.0, 0.0, 0.0, 0.0, 0.0, 0.0, 1.7074747496541138E9, 0.0, 2024-02-09 11:32:29.654
104.0, -7026.539090459239, -13370.21003606439, 22113.85483906923, 1499.5114802731848, 47556.73379382298, 21043.340390126752, 37508.48472219524, 12437.248222499875, 35688.40452294404, 8268.089087973725, 40198.740684836, 29240.999131321805, 42407.40596144271, 37224.05877400145, 31487.640021758085, 24862.739427416258, 0.07925, 1.02175, 0.09225, 192.0, 0.0, 0.0, 0.0, 0.0, 0.0, 0.0, 0.0, 0.0, 0.0, 1.7074747496621816E9, 0.0, 2024-02-09 11:32:29.662
106.0, -6983.959017271879, -13340.482215938833, 22154.11033083324, 1495.6446284824167, 47519.02640092688, 21044.3685703717, 37490.580974886536, 12408.526230874806, 35390.634583310435, 8204.85600290966, 39797.70568581887, 29162.835080961595, 41863.38685314499, 37010.66666968664, 31317.92322610894, 24697.157704491343, 0.07925, 1.02175, 0.09225, 192.0, 0.0, 0.0, 0.0, 0.0, 0.0, 0.0, 0.0, 0.0, 0.0, 1.7074747496701975E9, 0.0, 2024-02-09 11:32:29.670
108.0, -6937.46738880484, -13325.30538145368, 22171.701153719565, 1493.7894336926263, 47739.571063467396, 21085.294614469363, 37593.063723214116, 12492.725252237948, 35712.25383427785, 8286.953960294004, 40189.39765565368, 29261.4062740095, 42325.75503894747, 37218.51554137654, 31483.482597289396, 24838.241915493243, 0.085625, 1.021875, 0.093125, 192.0, 1.0, 112.0, 15.5, 120.0, 1.0, 120.0, 0.0, 0.0, 0.0, 1.707474749678193E9, 0.0, 2024-02-09 11:32:29.678
110.0, -7057.0715733851885, -13390.4607165409, 22108.065737255307, 1500.7631779626822, 47406.91005073906, 20997.228741315455, 37428.55488402306, 12356.267852338297, 35491.06097114813, 8214.377846047622, 39956.71599587393, 29179.10715092506, 42108.1384549306, 37091.02119100347, 31381.24571815082, 24767.923327436845, 0.085625, 1.021875, 0.093125, 192.0, 0.0, 0.0, 0.0, 0.0, 0.0, 0.0, 0.0, 0.0, 0.0, 1.7074747496862056E9, 0.0, 2024-02-09 11:32:29.686
112.0, -6912.545193737173, -13307.736910311809, 22194.20936038606, 1490.8613551689812, 47701.50604266, 21087.1274575147, 37577.417502095406, 12470.574673482737, 35535.004500747265, 8246.407895852077, 39931.726745572894, 29212.29949144119, 41984.57801158167, 37091.177653214654, 31374.11551166958, 24728.874829873424, 0.085625, 1.021875, 0.093125, 192.0, 0.0, 0.0, 0.0, 0.0, 0.0, 0.0, 0.0, 0.0, 0.0, 1.7074747496942055E9, 0.0, 2024-02-09 11:32:29.694
114.0, -7038.921956887479, -13380.558893747198, 22112.714900102008, 1493.185936592333, 47547.36841289621, 21029.616419031194, 37490.290402208615, 12435.594193410183, 35685.00705778683, 8267.463239128976, 40194.20328071157, 29235.768823119262, 42385.121272220764, 37216.816808797936, 31484.04139090078, 24864.661677439413, 0.085625, 1.021875, 0.093125, 192.0, 0.0, 0.0, 0.0, 0.0, 0.0, 0.0, 0.0, 0.0, 0.0, 1.7074747497024164E9, 0.0, 2024-02-09 11:32:29.702
116.0, -6992.787956331726, -13339.811663605175, 22142.286258016382, 1483.3064655430874, 47496.49584251593, 21031.270448120886, 37464.18356468482, 12406.179297706998, 35384.8007780076, 8215.361322803656, 39788.005028725274, 29150.631028489, 41828.56283528362, 37005.50341671746, 31302.880502090517, 24687.63586135338, 0.085625, 1.021875, 0.093125, 192.0, 0.0, 0.0, 0.0, 0.0, 0.0, 0.0, 0.0, 0.0, 0.0, 1.70747474970933E9, 0.0, 2024-02-09 11:32:29.709
118.0, -6951.191359900398, -13335.229555991837, 22157.86542390173, 1478.992578863213, 47727.322307505885, 21073.090561996767, 37563.02297866619, 12491.250037103897, 35706.710601652936, 8293.100690019213, 40180.50166136047, 29251.59385819362, 42289.05347455186, 37200.29886964546, 31467.299934303755, 24826.14962174292, 0.08481250000000001, 1.0199375000000002, 0.09256249999999999, 192.0, 1.0, 80.0, 15.5, 104.0, 1.0, 112.0, 0.0, 0.0, 0.0, 1.70747474971822E9, 0.0, 2024-02-09 11:32:29.718
120.0, -7074.68474801597, -13397.523867788777, 22099.929702273574, 1493.8117854370817, 47408.7875972733, 21017.68058749206, 37427.90668343385, 12385.995672463856, 35481.650886732445, 8213.57318324723, 39950.681024870995, 29164.645572262478, 42076.980123159905, 37078.48186236404, 31372.64029653553, 24762.871833189947, 0.08481250000000001, 1.0199375000000002, 0.09256249999999999, 192.0, 0.0, 0.0, 0.0, 0.0, 0.0, 0.0, 0.0, 0.0, 0.0, 1.7074747497262328E9, 0.0, 2024-02-09 11:32:29.726
122.0, -6919.340124051586, -13309.480346379321, 22192.063592918348, 1487.6650557118721, 47722.091999303346, 21092.84950409526, 37576.836356739565, 12488.210199857975, 35523.1357244415, 8250.610023809675, 39927.27874842629, 29208.41028790597, 41962.58389503764, 37078.05717921939, 31373.579069802654, 24733.367530508942, 0.08481250000000001, 1.0199375000000002, 0.09256249999999999, 192.0, 0.0, 0.0, 0.0, 0.0, 0.0, 0.0, 0.0, 0.0, 0.0, 1.7074747497342584E9, 0.0, 2024-02-09 11:32:29.734
124.0, -7041.53711098875, -13384.60455949361, 22111.776126834888, 1485.1169568439673, 47566.34504393877, 21033.103291166222, 37484.076617250044, 12426.98877179489, 35690.68440087848, 8267.932625762538, 40195.56673712334, 29235.88058184154, 42366.99400746751, 37201.68467780169, 31484.533129278796, 24853.865784867503, 0.08481250000000001, 1.0199375000000002, 0.09256249999999999, 192.0, 0.0, 0.0, 0.0, 0.0, 0.0, 0.0, 0.0, 0.0, 0.0, 1.7074747497422175E9, 0.0, 2024-02-09 11:32:29.742
126.0, -7000.141680257521, -13351.993364333317, 22156.90429889015, 1490.928410402347, 47533.24211040045, 21047.63192506217, 37471.44788163279, 12404.838193039679, 35403.19626369432, 8214.467253025443, 39785.92631649093, 29150.72043546682, 41830.99917542925, 36995.02044856792, 31315.4421824744, 24685.60185260795, 0.08481250000000001, 1.0199375000000002, 0.09256249999999999, 192.0, 0.0, 0.0, 0.0, 0.0, 0.0, 0.0, 0.0, 0.0, 0.0, 1.7074747497502425E9, 0.0, 2024-02-09 11:32:29.750
128.0, -6948.017412187745, -13325.104215753581, 22183.458171303057, 1492.6271429809503, 47768.40481381474, 21092.31306222833, 37578.803310251635, 12500.526011052849, 35724.390831517085, 8298.174536010569, 40180.6357718272, 29259.148747819516, 42289.72402688552, 37217.442657642685, 31480.219242598923, 24833.369235201986, 0.07540625000000001, 1.01796875, 0.09328125, 192.0, 1.0, 8.0, 15.5, 96.0, 1.0, 120.0, 0.0, 0.0, 0.0, 1.7074747497594523E9, 0.0, 2024-02-09 11:32:29.759
130.0, -7062.391288565552, -13379.486010013345, 22128.60699040973, 1510.0391519116345, 47447.05378378079, 21018.10527063671, 37421.11175311944, 12384.632216052081, 35510.663451035434, 8233.265070112357, 39967.3330744902, 29183.085761438106, 42086.6360767646, 37083.846281033315, 31387.057171709203, 24775.545272296105, 0.07540625000000001, 1.01796875, 0.09328125, 192.0, 0.0, 0.0, 0.0, 0.0, 0.0, 0.0, 0.0, 0.0, 0.0, 1.707474749765432E9, 0.0, 2024-02-09 11:32:29.765
132.0, -6911.718179192327, -13293.118869438038, 22214.97413098504, 1508.2063088662994, 47740.28631928997, 21111.155582804156, 37577.08222592858, 12499.274313363352, 35544.03460550721, 8277.63328285614, 39941.89678930006, 29231.25377073929, 41956.660682756985, 37086.86376653478, 31385.201976919412, 24747.672646960338, 0.07540625000000001, 1.01796875, 0.09328125, 192.0, 0.0, 0.0, 0.0, 0.0, 0.0, 0.0, 0.0, 0.0, 0.0, 1.7074747497742703E9, 0.0, 2024-02-09 11:32:29.774
134.0, -7032.730523673359, -13366.253777295802, 22140.364007993223, 1511.1343873899445, 47603.56069845685, 21055.45503562153, 37503.0532482926, 12455.330783764219, 35709.32575575421, 8293.860649330694, 40212.62111814274, 29255.661875684487, 42374.32537964885, 37227.61270136985, 31498.36885909663, 24875.54697698915, 0.07540625000000001, 1.01796875, 0.09328125, 192.0, 0.0, 0.0, 0.0, 0.0, 0.0, 0.0, 0.0, 0.0, 0.0, 1.7074747497823071E9, 0.0, 2024-02-09 11:32:29.782
136.0, -6999.091148268122, -13341.912727583973, 22170.605918241254, 1504.764140220182, 47552.95634901003, 21058.181948445075, 37473.12426246694, 12426.564088650239, 35405.945528262324, 8228.861776454662, 39804.76883706675, 29169.227679875814, 41830.30627135113, 37003.06707657183, 31326.5957029576, 24704.89140807288, 0.07540625000000001, 1.01796875, 0.09328125, 192.0, 0.0, 0.0, 0.0, 0.0, 0.0, 0.0, 0.0, 0.0, 0.0, 1.7074747497892838E9, 0.0, 2024-02-09 11:32:29.789
138.0, -6944.843464475091, -13318.10811973907, 22190.454267317567, 1498.9526866618023, 47794.48929959408, 21104.695928656573, 37584.167728920904, 12518.34035138373, 35715.383078501596, 8312.814928628793, 40182.75918755045, 29265.78721592274, 42287.28768673989, 37208.18903543819, 31488.71290549194, 24840.566496916592, 0.069703125, 1.0179843750000002, 0.091640625, 192.0, 1.0, 0.0, 15.5, 104.0, 1.0, 104.0, 0.0, 0.0, 0.0, 1.707474749798334E9, 0.0, 2024-02-09 11:32:29.798
140.0, -7074.5059340603275, -13389.767812462786, 22114.793612336354, 1491.9118871583805, 47462.54354268832, 21005.58829374174, 37420.91058741934, 12381.391213106062, 35504.20379688785, 8228.168872376547, 39962.88507734359, 29176.58140380161, 42093.02867567881, 37086.7520078125, 31389.02412522127, 24768.57152802605, 0.069703125, 1.0179843750000002, 0.091640625, 192.0, 0.0, 0.0, 0.0, 0.0, 0.0, 0.0, 0.0, 0.0, 0.0, 1.7074747498063183E9, 0.0, 2024-02-09 11:32:29.806
142.0, -6924.928060165413, -13303.132450954015, 22202.613616301252, 1478.1655643183667, 47749.18231358317, 21076.532730642884, 37544.135754601455, 12461.052830344777, 35534.82568679162, 8259.081334958237, 39920.03678322277, 29203.31409017016, 41954.89489494501, 37068.66944654816, 31364.459558064886, 24713.966216321733, 0.069703125, 1.0179843750000002, 0.091640625, 192.0, 0.0, 0.0, 0.0, 0.0, 0.0, 0.0, 0.0, 0.0, 0.0, 1.707474749813362E9, 0.0, 2024-02-09 11:32:29.813
144.0, -7031.076494583666, -13370.612367464588, 22139.201717281547, 1491.6213144804615, 47607.82988164781, 21029.191735886543, 37463.13303269542, 12413.108338488144, 35709.50456970985, 8277.409765411589, 40203.50160640498, 29236.819355108662, 42381.0532547299, 37201.46116035714, 31481.09096063268, 24835.00091254722, 0.069703125, 1.0179843750000002, 0.091640625, 192.0, 0.0, 0.0, 0.0, 0.0, 0.0, 0.0, 0.0, 0.0, 0.0, 1.7074747498213954E9, 0.0, 2024-02-09 11:32:29.821
146.0, -6993.592619132116, -13341.465692694866, 22178.093752633784, 1497.0974918720117, 47547.01078498492, 21037.26071563491, 37443.93288420831, 12381.011233450323, 35412.315775432086, 8214.690770469997, 39795.291697417706, 29158.521194281722, 41841.34803311206, 36983.95633506255, 31314.1904847849, 24671.22968092319, 0.069703125, 1.0179843750000002, 0.091640625, 192.0, 0.0, 0.0, 0.0, 0.0, 0.0, 0.0, 0.0, 0.0, 0.0, 1.70747474983067E9, 0.0, 2024-02-09 11:32:29.830
148.0, -6938.540272538695, -13317.951657527883, 22201.3395668673, 1493.3200470590648, 47778.88778196428, 21076.93506204308, 37554.79753670663, 12476.676699719037, 35733.2868258103, 8295.760547609396, 40185.41904514063, 29265.340181033636, 42292.98738157599, 37209.530140105504, 31488.824664214215, 24822.752156585713, 0.0718515625, 1.0189921875, 0.0918203125, 192.0, 1.0, 40.0, 15.5, 112.0, 1.0, 112.0, 0.0, 0.0, 0.0, 1.7074747498383896E9, 0.0, 2024-02-09 11:32:29.838
150.0, -7068.314500846208, -13387.912617672995, 22127.6235136537, 1498.1703756058664, 47435.520283641854, 21002.369642540176, 37391.36158124943, 12354.055029637222, 35519.04535520617, 8222.33506707371, 39973.055121070756, 29174.25682237826, 42107.37849561912, 37074.52560359545, 31387.370096131577, 24751.651257473382, 0.0718515625, 1.0189921875, 0.0918203125, 192.0, 0.0, 0.0, 0.0, 0.0, 0.0, 0.0, 0.0, 0.0, 0.0, 1.7074747498454592E9, 0.0, 2024-02-09 11:32:29.845
152.0, -6917.037894372689, -13298.527991596222, 22213.3424536398, 1490.794299935615, 47722.20375802562, 21092.536579672884, 37532.49049574024, 12450.256937772863, 35551.23186722182, 8260.198922181002, 39928.97748100489, 29211.718346085352, 41959.29818860271, 37073.4527198616, 31369.466348822876, 24709.048832541568, 0.0718515625, 1.0189921875, 0.0918203125, 192.0, 0.0, 0.0, 0.0, 0.0, 0.0, 0.0, 0.0, 0.0, 0.0, 1.707474749853439E9, 0.0, 2024-02-09 11:32:29.853
154.0, -7032.037619595244, -13362.901015627505, 22141.86157487173, 1498.8856314284362, 47590.373169228216, 21037.327770868276, 37473.39248340041, 12415.388216422585, 35722.17800881601, 8279.756698579395, 40217.06911528935, 29244.865983112573, 42386.01534199898, 37222.91883503424, 31485.382495568098, 24840.14181377194, 0.0718515625, 1.0189921875, 0.0918203125, 192.0, 0.0, 0.0, 0.0, 0.0, 0.0, 0.0, 0.0, 0.0, 0.0, 1.7074747498624353E9, 0.0, 2024-02-09 11:32:29.862
156.0, -6999.962866301878, -13334.514300169267, 22165.509720505444, 1497.2316023387436, 47520.63572652766, 21040.814643003305, 37451.86775348995, 12383.559332318227, 35413.12043823248, 8227.274802598335, 39798.845624786096, 29161.315162338637, 41841.19157090087, 37007.224501040524, 31313.452877217875, 24671.40849487883, 0.0718515625, 1.0189921875, 0.0918203125, 192.0, 0.0, 0.0, 0.0, 0.0, 0.0, 0.0, 0.0, 0.0, 0.0, 1.7074747498694522E9, 0.0, 2024-02-09 11:32:29.869
158.0, -6947.257452876264, -13319.292762195202, 22180.463037546044, 1488.0003318787017, 47756.08900261987, 21085.987518547478, 37567.18040313487, 12487.00320565739, 35723.8320379057, 8299.11330927769, 40176.45599561405, 29259.41696875298, 42279.710445369536, 37213.35228840736, 31477.380571053098, 24818.907656539403, 0.07892578125, 1.01849609375, 0.09491015625, 192.0, 1.0, 88.0, 15.5, 104.0, 1.5, 8.0, 0.0, 0.0, 0.0, 1.7074747498774326E9, 0.0, 2024-02-09 11:32:29.877
160.0, -7077.277550372786, -13388.40435605101, 22106.99285352145, 1492.537736003129, 47432.659260351575, 21010.148049610623, 37401.15164532085, 12347.282451067264, 35512.60805280305, 8224.503186285876, 39968.24949601287, 29170.8370054766, 42105.97033571843, 37085.18738570063, 31382.810340262695, 24755.04872263059, 0.07892578125, 1.01849609375, 0.09491015625, 192.0, 0.0, 0.0, 0.0, 0.0, 0.0, 0.0, 0.0, 0.0, 0.0, 1.7074747498864815E9, 0.0, 2024-02-09 11:32:29.886
162.0, -6927.766731711237, -13302.037215475704, 22202.568912812345, 1493.1635848478777, 47727.52347320598, 21102.9301408446, 37537.58669347605, 12462.125714078631, 35529.885951267, 8262.679965815541, 39907.922137728, 29198.687279067908, 41948.345833819614, 37081.83462403234, 31367.566450544175, 24707.506562174152, 0.07892578125, 1.01849609375, 0.09491015625, 192.0, 0.0, 0.0, 0.0, 0.0, 0.0, 0.0, 0.0, 0.0, 0.0, 1.707474749894442E9, 0.0, 2024-02-09 11:32:29.894
164.0, -7037.424390008973, -13373.048707610216, 22132.630304411687, 1490.1460993464113, 47592.1836605291, 21035.092596422746, 37462.060148961566, 12407.498050629862, 35704.07309580721, 8288.362120194688, 40198.29364994689, 29235.254732996793, 42379.86861227377, 37219.051983243466, 31489.94225143698, 24838.376025959973, 0.07892578125, 1.01849609375, 0.09491015625, 192.0, 0.0, 0.0, 0.0, 0.0, 0.0, 0.0, 0.0, 0.0, 0.0, 1.707474749901778E9, 0.0, 2024-02-09 11:32:29.901
166.0, -7009.998799562311, -13353.915614356472, 22161.3299442923, 1483.1052998429896, 47510.30922058931, 21031.382206843165, 37428.19725611177, 12366.34848908764, 35394.99317347922, 8203.358436031156, 39784.518156590246, 29138.38227252749, 41835.313062109126, 36984.80570135185, 31311.91060685046, 24662.870128496903, 0.07892578125, 1.01849609375, 0.09491015625, 192.0, 0.0, 0.0, 0.0, 0.0, 0.0, 0.0, 0.0, 0.0, 0.0, 1.7074747499095936E9, 0.0, 2024-02-09 11:32:29.909
168.0, -6941.960089440357, -13317.929305783427, 22198.90322672167, 1493.051826125601, 47766.683729491684, 21099.309158242842, 37556.27275184068, 12485.125659123143, 35717.10416282465, 8291.536067907342, 40171.69507404507, 29250.856250626595, 42272.96021854404, 37195.3814858653, 31477.13470186409, 24808.424688389863, 0.078462890625, 1.021248046875, 0.09645507812500001, 192.0, 1.0, 56.0, 16.0, 0.0, 1.5, 8.0, 0.0, 0.0, 0.0, 1.7074747499185023E9, 0.0, 2024-02-09 11:32:29.918
170.0, -7074.729451504881, -13389.700757229419, 22126.12594677519, 1495.0858348710342, 47434.91678654156, 21013.813735701293, 37391.853319627444, 12361.900491941034, 35516.27373889372, 8231.655744511574, 39979.134795562604, 29172.602793288566, 42114.75457128937, 37081.27583042096, 31394.723820057374, 24761.731894222725, 0.078462890625, 1.021248046875, 0.09645507812500001, 192.0, 0.0, 0.0, 0.0, 0.0, 0.0, 0.0, 0.0, 0.0, 0.0, 1.707474749925544E9, 0.0, 2024-02-09 11:32:29.925
172.0, -6929.487816034296, -13305.479384121822, 22218.081023464325, 1490.8166516800704, 47715.520586433486, 21097.208094264042, 37529.785934661144, 12465.679641447025, 35531.38351814551, 8264.4010501386, 39917.15340818804, 29201.190674446905, 41945.060127384684, 37067.57421106985, 31367.745264499816, 24710.635806397895, 0.078462890625, 1.021248046875, 0.09645507812500001, 192.0, 0.0, 0.0, 0.0, 0.0, 0.0, 0.0, 0.0, 0.0, 0.0, 1.707474749933502E9, 0.0, 2024-02-09 11:32:29.933
174.0, -7037.491445242339, -13372.64637621002, 22141.81687138282, 1491.733073202738, 47588.65208490516, 21038.981799957968, 37468.0951199645, 12421.713760103436, 35719.67461343701, 8279.68964334603, 40211.05649603087, 29242.92138134496, 42386.23885944353, 37214.224006441116, 31491.015135170837, 24846.623819663982, 0.078462890625, 1.021248046875, 0.09645507812500001, 192.0, 0.0, 0.0, 0.0, 0.0, 0.0, 0.0, 0.0, 0.0, 0.0, 1.7074747499415808E9, 0.0, 2024-02-09 11:32:29.941
176.0, -7002.063930280678, -13342.516224684266, 22172.282299075403, 1496.9857331497353, 47517.99822068193, 21055.611497832717, 37440.378956839915, 12389.951931232445, 35409.365345163984, 8213.39436929159, 39791.424845626934, 29150.787490700186, 41833.18964638587, 36990.50539618795, 31317.118563308548, 24677.35405890394, 0.078462890625, 1.021248046875, 0.09645507812500001, 192.0, 0.0, 0.0, 0.0, 0.0, 0.0, 0.0, 0.0, 0.0, 0.0, 1.7074747499505644E9, 0.0, 2024-02-09 11:32:29.950
178.0, -6939.657859761461, -13315.425910404434, 22197.986805199005, 1493.5882679925285, 47774.95387494015, 21089.2285214935, 37552.27178958318, 12477.369603797151, 35739.65707298006, 8306.824661114772, 40172.76795777893, 29262.88148914355, 42270.54623014286, 37194.93445097619, 31482.119140877625, 24818.460621650294, 0.078462890625, 1.021248046875, 0.09645507812500001, 192.0, 0.0, 0.0, 0.0, 0.0, 0.0, 0.0, 0.0, 0.0, 0.0, 1.707474749957544E9, 0.0, 2024-02-09 11:32:29.957
180.0, -7084.810088254224, -13394.104050887116, 22120.269789727903, 1492.6718464698608, 47447.612577392174, 21009.38809029914, 37395.40724699584, 12353.518587770295, 35524.1862564309, 8239.322392859745, 39975.04442632728, 29172.468682821833, 42102.416408350044, 37083.57806009985, 31391.30400315571, 24758.155615109878, 0.078, 1.024, 0.10400000000000001, 192.0, 1.0, 56.0, 16.0, 0.0, 1.5, 32.0, 0.0, 0.0, 0.0, 1.7074747499655867E9, 0.0, 2024-02-09 11:32:29.965
182.0, -6942.921214451935, -13309.457994634868, 22201.58543605631, 1481.9430091313136, 47728.77517089548, 21097.073983797312, 37536.17853357536, 12458.303565776774, 35516.92193948292, 8257.360250635178, 39897.95325970093, 29188.87486325203, 41923.55774921868, 37065.92018198016, 31370.516880812276, 24713.049794799066, 0.078, 1.024, 0.10400000000000001, 192.0, 0.0, 0.0, 0.0, 0.0, 0.0, 0.0, 0.0, 0.0, 0.0, 1.7074747499748616E9, 0.0, 2024-02-09 11:32:29.974
184.0, -7052.82474193868, -13383.464620526389, 22126.483574686477, 1480.4901457417186, 47590.50727969495, 21036.701922023527, 37466.93282925282, 12409.040320997277, 35700.18389227198, 8274.414631654578, 40193.80094931137, 29223.184790990927, 42369.87738250224, 37210.379506394806, 31490.456341559453, 24845.93091558587, 0.078, 1.024, 0.10400000000000001, 192.0, 0.0, 0.0, 0.0, 0.0, 0.0, 0.0, 0.0, 0.0, 0.0, 1.707474749981841E9, 0.0, 2024-02-09 11:32:29.981
186.0, -7014.826776364658, -13350.87577711055, 22164.660354216143, 1489.184974334833, 47517.97586893748, 21049.151843685133, 37429.627767756916, 12379.69248052746, 35399.374115392464, 8214.91428791455, 39779.73488327681, 29139.477508005803, 41832.80966673013, 36991.89120434418, 31309.76483938275, 24671.16262568982, 0.078, 1.024, 0.10400000000000001, 192.0, 0.0, 0.0, 0.0, 0.0, 0.0, 0.0, 0.0, 0.0, 0.0, 1.7074747499896183E9, 0.0, 2024-02-09 11:32:29.989
188.0, -6955.058211691166, -13329.64161987801, 22186.185084126602, 1474.835154394526, 47779.11129940883, 21088.759134859938, 37540.38066153296, 12468.674775204037, 35712.2761860223, 8303.762472124396, 40158.97693145, 29249.381035492544, 42270.23330572049, 37202.623451068815, 31471.859690172638, 24812.693871580825, 0.078, 1.024, 0.10400000000000001, 192.0, 0.0, 0.0, 0.0, 0.0, 0.0, 0.0, 0.0, 0.0, 0.0, 1.7074747499976003E9, 0.0, 2024-02-09 11:32:29.997
190.0, -7081.949064963945, -13399.312007345201, 22112.446679168545, 1477.4950119847074, 47441.28703371132, 20992.53487497984, 37373.547240918546, 12321.53324145475, 35517.57014007213, 8232.661573012063, 39967.042501812284, 29157.023627403218, 42111.35710613216, 37080.694685065115, 31376.037761692736, 24739.64837070088, 0.076, 1.026, 0.10200000000000001, 192.0, 1.0, 48.0, 16.0, 8.0, 1.5, 24.0, 0.0, 0.0, 0.0, 1.7074747500066297E9, 0.0, 2024-02-09 11:32:30.006
192.0, -6942.407124329463, -13318.331637183624, 22202.121877923237, 1473.2928840271097, 47712.79367360994, 21088.80383834885, 37514.4526379648, 12456.694240175992, 35516.832532505105, 8253.202826166491, 39894.667553266, 29182.90694748246, 41928.58689172112, 37055.37015859725, 31349.282723579734, 24687.233529953188, 0.076, 1.026, 0.10200000000000001, 192.0, 0.0, 0.0, 0.0, 0.0, 0.0, 0.0, 0.0, 0.0, 0.0, 1.7074747500136712E9, 0.0, 2024-02-09 11:32:30.013
194.0, -7040.911262144001, -13379.463658268889, 22137.68179865859, 1484.312294043576, 47588.65208490516, 21035.74079701195, 37445.9892446982, 12419.478585657906, 35717.17121805802, 8274.392279910122, 40207.34610645129, 29224.347081702603, 42376.605257583295, 37216.392125653285, 31477.581736753196, 24833.257476479706, 0.076, 1.026, 0.10200000000000001, 192.0, 0.0, 0.0, 0.0, 0.0, 0.0, 0.0, 0.0, 0.0, 0.0, 1.70747475002168E9, 0.0, 2024-02-09 11:32:30.021
196.0, -7007.070721038666, -13346.919518341962, 22164.39213328268, 1491.934238902836, 47509.07987464427, 21046.961372728514, 37419.770648452126, 12380.966529961412, 35410.92996727586, 8220.256354839368, 39793.70472356138, 29142.91967665192, 41844.05259419115, 36994.640468912185, 31303.975737568828, 24666.222890165198, 0.076, 1.026, 0.10200000000000001, 192.0, 0.0, 0.0, 0.0, 0.0, 0.0, 0.0, 0.0, 0.0, 0.0, 1.7074747500296872E9, 0.0, 2024-02-09 11:32:30.029
198.0, -6941.334240595608, -13321.706750596375, 22187.727354494018, 1482.345340531509, 47765.38732831327, 21088.93794881558, 37533.38456551845, 12472.295757805796, 35721.239235548885, 8299.269771488878, 40163.827259996804, 29245.31301800168, 42272.289666210374, 37187.670134028216, 31467.32228604821, 24803.350842398508, 0.076, 1.026, 0.10200000000000001, 192.0, 0.0, 0.0, 0.0, 0.0, 0.0, 0.0, 0.0, 0.0, 0.0, 1.7074747500376801E9, 0.0, 2024-02-09 11:32:30.037
200.0, -7069.834419469169, -13392.94176017544, 22121.297969972846, 1490.995465635713, 47442.73989710092, 21007.890523420636, 37379.60456366594, 12351.596337747138, 35547.63323636451, 8235.656706769074, 39982.44285374199, 29166.47841530781, 42131.25015869739, 37088.54014736893, 31385.98428797535, 24752.27710631813, 0.07, 1.024, 0.10200000000000001, 192.0, 1.0, 24.0, 16.0, 0.0, 1.5, 24.0, 0.0, 0.0, 0.0, 1.7074747500456676E9, 0.0, 2024-02-09 11:32:30.045
202.0, -6926.269164832732, -13307.625151589531, 22214.750613540487, 1489.2967330571096, 47728.663412173206, 21089.586149404782, 37528.02014684917, 12463.46681874595, 35526.57789308762, 8259.260148913878, 39903.89882372604, 29190.14891268598, 41941.95323490539, 37066.27780989144, 31368.594630789117, 24707.059527285044, 0.07, 1.024, 0.10200000000000001, 192.0, 0.0, 0.0, 0.0, 0.0, 0.0, 0.0, 0.0, 0.0, 0.0, 1.707474750053908E9, 0.0, 2024-02-09 11:32:30.053
204.0, -7032.48465448435, -13374.613329722088, 22145.013170839928, 1498.416244794875, 47622.80555043287, 21049.420064618596, 37470.3973496434, 12425.357094449651, 35718.7805436588, 8286.216352726979, 40217.180874011625, 29235.567657419168, 42394.79957756992, 37232.30656770546, 31508.1365714236, 24849.887174354455, 0.07, 1.024, 0.10200000000000001, 192.0, 0.0, 0.0, 0.0, 0.0, 0.0, 0.0, 0.0, 0.0, 0.0, 1.7074747500617106E9, 0.0, 2024-02-09 11:32:30.061
206.0, -7016.5702124321715, -13353.98266958984, 22166.761418194943, 1493.767081948171, 47521.19452013904, 21042.02163720389, 37432.44408755828, 12383.939311973967, 35405.67730732886, 8223.095026385192, 39792.43067412743, 29141.66797896242, 41848.0759081931, 37005.72693416201, 31325.58987445711, 24680.393896149864, 0.07, 1.024, 0.10200000000000001, 192.0, 0.0, 0.0, 0.0, 0.0, 0.0, 0.0, 0.0, 0.0, 0.0, 1.7074747500697312E9, 0.0, 2024-02-09 11:32:30.069
208.0, -6953.940624468401, -13329.038122777716, 22186.945043438085, 1474.8798578834364, 47777.9266569527, 21084.60171039125, 37552.54001051665, 12481.03528988782, 35712.700869166954, 8310.780919883362, 40152.36081509123, 29243.16725053397, 42264.891238795666, 37208.30079416047, 31478.85578618715, 24812.939740769834, 0.07, 1.024, 0.10200000000000001, 192.0, 0.0, 0.0, 0.0, 0.0, 0.0, 0.0, 0.0, 0.0, 0.0, 1.7074747500777268E9, 0.0, 2024-02-09 11:32:30.077
210.0, -7095.181297681487, -13402.553010291222, 22107.216370966, 1474.5892852055176, 47435.69909759749, 20994.702994192005, 37382.8232148675, 12345.136683599554, 35517.8830644945, 8230.538157288809, 39971.7363681479, 29152.7320924678, 42117.749705046386, 37092.63051660425, 31389.26999441028, 24748.589068483005, 0.07200000000000001, 1.026, 0.10200000000000001, 192.0, 1.0, 32.0, 16.0, 8.0, 1.5, 24.0, 0.0, 0.0, 0.0, 1.7074747500857804E9, 0.0, 2024-02-09 11:32:30.085
212.0, -6944.150560396977, -13320.477404651334, 22198.277377876926, 1469.2919217696099, 47713.620688154784, 21078.209111477034, 37511.09987629651, 12439.572803923227, 35508.584738801095, 8246.698468529996, 39882.88818393805, 29177.184900901902, 41925.03296435272, 37051.7938794844, 31353.887182937528, 24683.99252700717, 0.07200000000000001, 1.026, 0.10200000000000001, 192.0, 0.0, 0.0, 0.0, 0.0, 0.0, 0.0, 0.0, 0.0, 0.0, 1.7074747500927577E9, 0.0, 2024-02-09 11:32:30.092
214.0, -7047.281509313764, -13391.488896785844, 22132.540897433868, 1472.4211659933528, 47607.24873629198, 21024.900200951124, 37462.41777687285, 12396.098660957654, 35712.857331378145, 8268.670233329563, 40206.74260935099, 29233.287779484726, 42388.38462691124, 37223.455276901164, 31480.219242598923, 24818.728842583758, 0.07200000000000001, 1.026, 0.10200000000000001, 192.0, 0.0, 0.0, 0.0, 0.0, 0.0, 0.0, 0.0, 0.0, 0.0, 1.7074747501017685E9, 0.0, 2024-02-09 11:32:30.101
216.0, -7029.1318928160545, -13379.530713502254, 22152.590412210277, 1472.5552764600845, 47501.949668163026, 21012.360872311696, 37417.49077051768, 12343.63911672105, 35392.19920542231, 8201.81616566374, 39786.97684848033, 29144.86427841953, 41847.27124539271, 36980.55886990534, 31302.165246267945, 24648.252087623132, 0.07200000000000001, 1.026, 0.10200000000000001, 192.0, 0.0, 0.0, 0.0, 0.0, 0.0, 0.0, 0.0, 0.0, 0.0, 1.7074747501097784E9, 0.0, 2024-02-09 11:32:30.109
218.0, -6956.444019847396, -13353.02154457826, 22183.30170909187, 1470.253046781188, 47771.04231966047, 21077.806780076837, 37552.40590004992, 12467.691298448002, 35708.20816853144, 8287.155125994102, 40145.76705047692, 29245.82710812415, 42266.902895796644, 37189.79354975147, 31463.254268557343, 24788.844560247013, 0.07200000000000001, 1.026, 0.10200000000000001, 192.0, 0.0, 0.0, 0.0, 0.0, 0.0, 0.0, 0.0, 0.0, 0.0, 1.7074747501180367E9, 0.0, 2024-02-09 11:32:30.118
220.0, -7087.201724910942, -13420.546164577743, 22114.05600476933, 1485.608695221984, 47438.805990076784, 21004.20248558551, 37396.480130729695, 12342.052142864723, 35526.24261692078, 8219.742264716895, 39982.46520548644, 29173.92154621143, 42139.14032449011, 37082.39341764372, 31390.968726988882, 24753.394693540897, 0.07200000000000001, 1.024, 0.10400000000000001, 192.0, 1.0, 32.0, 16.0, 0.0, 1.5, 32.0, 0.0, 0.0, 0.0, 1.7074747501257992E9, 0.0, 2024-02-09 11:32:30.125
222.0, -6936.7968364711805, -13333.64258213551, 22201.093697678294, 1486.2345440667325, 47708.56919390788, 21081.427762678595, 37526.70139392631, 12426.36292295014, 35513.189198158885, 8250.274747642845, 39889.75016948583, 29205.146933215492, 41932.63255746753, 37058.499402821, 31354.244810848813, 24693.134390489387, 0.07200000000000001, 1.024, 0.10400000000000001, 192.0, 0.0, 0.0, 0.0, 0.0, 0.0, 0.0, 0.0, 0.0, 0.0, 1.7074747501337976E9, 0.0, 2024-02-09 11:32:30.133
224.0, -7036.060933597199, -13396.786260221752, 22127.936438076074, 1489.7214162017603, 47606.64523919168, 21035.91961096759, 37479.248640447695, 12411.186088464987, 35718.62408144761, 8281.880114302649, 40213.87281583224, 29249.671608170465, 42398.7558363385, 37215.52040761953, 31484.734294978894, 24836.96786605929, 0.07200000000000001, 1.024, 0.10400000000000001, 192.0, 0.0, 0.0, 0.0, 0.0, 0.0, 0.0, 0.0, 0.0, 0.0, 1.7074747501418383E9, 0.0, 2024-02-09 11:32:30.141
226.0, -7017.017247321278, -13369.248911052813, 22152.545708721365, 1491.6213144804615, 47498.73101696146, 21034.846727233737, 37431.572369524525, 12365.812047220714, 35411.91344403189, 8227.788892720806, 39793.41415088346, 29165.67375250742, 41861.375196144014, 36991.488872943984, 31304.690993391396, 24676.080009469988, 0.07200000000000001, 1.024, 0.10400000000000001, 192.0, 0.0, 0.0, 0.0, 0.0, 0.0, 0.0, 0.0, 0.0, 0.0, 1.707474750148786E9, 0.0, 2024-02-09 11:32:30.148
228.0, -6945.715182508849, -13343.030314806738, 22182.49704629148, 1485.4522330107968, 47765.990825413566, 21090.010832549433, 37562.46418505481, 12469.32297579324, 35704.63188941859, 8302.667236646084, 40150.349158090256, 29263.55204147721, 42265.382977173686, 37187.64778228376, 31456.66050394303, 24807.463563378285, 0.07200000000000001, 1.024, 0.10400000000000001, 192.0, 0.0, 0.0, 0.0, 0.0, 0.0, 0.0, 0.0, 0.0, 0.0, 1.707474750157826E9, 0.0, 2024-02-09 11:32:30.157
230.0, -7086.933503977479, -13414.332379619167, 22106.724632587986, 1489.9225819018582, 47434.603862119184, 21003.420174529576, 37404.75027617816, 12337.268869551286, 35534.95979725836, 8237.131921903125, 39992.05410385777, 29189.835988263607, 42147.924560061045, 37091.66939159267, 31387.88418625405, 24767.766865225658, 0.066, 1.014, 0.112, 192.0, 1.0, 8.0, 15.5, 88.0, 1.5, 64.0, 0.0, 0.0, 0.0, 1.7074747501658273E9, 0.0, 2024-02-09 11:32:30.165
232.0, -6936.528615537717, -13322.801986074684, 22197.71858426554, 1480.7136631862716, 47713.79950211042, 21074.632832364183, 37543.979292390264, 12434.27544048732, 35516.07257319362, 8262.881131515638, 39891.00186717533, 29207.337404172114, 41927.69282194291, 37031.90082691918, 31351.763767214274, 24694.69901260126, 0.066, 1.014, 0.112, 192.0, 0.0, 0.0, 0.0, 0.0, 0.0, 0.0, 0.0, 0.0, 0.0, 1.7074747501738572E9, 0.0, 2024-02-09 11:32:30.173
234.0, -7031.4788259838615, -13391.153620619014, 22136.38539748018, 1493.7447302037158, 47622.89495741069, 21041.328733125774, 37501.17570175835, 12415.544678633772, 35734.7843926888, 8296.989893554437, 40218.41021995666, 29264.066131599684, 42399.739313094535, 37208.345497649374, 31499.86642597514, 24848.76958713169, 0.066, 1.014, 0.112, 192.0, 0.0, 0.0, 0.0, 0.0, 0.0, 0.0, 0.0, 0.0, 0.0, 1.7074747501809092E9, 0.0, 2024-02-09 11:32:30.180
236.0, -7018.62657292206, -13375.283882055746, 22161.017019869927, 1494.571744748562, 47513.57257527979, 21039.65235229163, 37466.91047750837, 12377.233788637375, 35405.63260383995, 8223.29619208529, 39795.09053171761, 29172.088703166093, 41867.41016714695, 36992.65116365566, 31323.332348267122, 24680.818579294515, 0.066, 1.014, 0.112, 192.0, 0.0, 0.0, 0.0, 0.0, 0.0, 0.0, 0.0, 0.0, 0.0, 1.7074747501898596E9, 0.0, 2024-02-09 11:32:30.189
238.0, -6945.715182508849, -13339.4987391828, 22198.43384008811, 1485.4298812663415, 47789.01312220253, 21084.04291677987, 37594.69540055936, 12474.508580506872, 35719.09346808118, 8301.013207556392, 40154.70774825904, 29274.482044515855, 42273.60841913324, 37189.748846262555, 31483.929632178504, 24811.173952957866, 0.066, 1.014, 0.112, 192.0, 0.0, 0.0, 0.0, 0.0, 0.0, 0.0, 0.0, 0.0, 0.0, 1.7074747501978729E9, 0.0, 2024-02-09 11:32:30.197
240.0, -7082.284341130775, -13411.449004584432, 22123.08610952927, 1495.7116837157828, 47453.558141417285, 21006.214142586487, 37440.33425335101, 12350.366991802097, 35542.000596761776, 8239.948241704493, 40003.43114178552, 29199.380183146022, 42161.82734511225, 37072.98333322803, 31413.096953999637, 24768.951507681788, 0.064, 1.016, 0.114, 192.0, 1.0, 0.0, 15.5, 96.0, 1.5, 72.0, 0.0, 0.0, 0.0, 1.7074747502048907E9, 0.0, 2024-02-09 11:32:30.204
242.0, -6935.2098626148545, -13329.663971622465, 22200.53490406691, 1491.576610991551, 47712.368990465286, 21090.189646505078, 37569.25911536922, 12454.36965875264, 35511.713983024834, 8263.752849549395, 39899.11555041261, 29219.005014777784, 41934.10777260158, 37048.73169049402, 31368.438168577934, 24712.066318043035, 0.064, 1.016, 0.114, 192.0, 0.0, 0.0, 0.0, 0.0, 0.0, 0.0, 0.0, 0.0, 0.0, 1.7074747502139385E9, 0.0, 2024-02-09 11:32:30.213
244.0, -7031.523529472773, -13387.756155461808, 22128.80815610983, 1498.5503552616067, 47605.52765196892, 21046.78255877287, 37522.36515550198, 12431.302658474764, 35723.69792743897, 8300.186193011546, 40228.513208450466, 29270.70459970291, 42404.232013730056, 37222.29298618949, 31492.870329960628, 24855.83273837957, 0.064, 1.016, 0.114, 192.0, 0.0, 0.0, 0.0, 0.0, 0.0, 0.0, 0.0, 0.0, 0.0, 1.7074747502219667E9, 0.0, 2024-02-09 11:32:30.221
246.0, -7021.420540978974, -13373.02635586576, 22144.499080717454, 1497.186898849833, 47493.45600527001, 21046.02259946139, 37466.46344261926, 12385.615692808116, 35400.40229563741, 8235.276727113334, 39797.21394744086, 29173.139235155493, 41857.24012341978, 36992.51705318893, 31301.315879978643, 24684.305451429544, 0.064, 1.016, 0.114, 192.0, 0.0, 0.0, 0.0, 0.0, 0.0, 0.0, 0.0, 0.0, 0.0, 1.7074747502289429E9, 0.0, 2024-02-09 11:32:30.228
248.0, -6945.782237742214, -13336.727122870341, 22181.982956169006, 1493.2082883367884, 47772.04814816095, 21103.17601003361, 37605.44658964236, 12501.598894786704, 35708.90107260956, 8320.50392872142, 40143.42011730911, 29275.487873016344, 42254.832953790785, 37179.35528509084, 31458.80627141074, 24822.126307740964, 0.064, 1.016, 0.114, 192.0, 0.0, 0.0, 0.0, 0.0, 0.0, 0.0, 0.0, 0.0, 0.0, 1.7074747502369292E9, 0.0, 2024-02-09 11:32:30.236
250.0, -7082.172582408498, -13405.771661492785, 22114.748908847443, 1505.8146722095814, 47443.72337385695, 21012.763203711893, 37442.055337674065, 12374.149247902544, 35531.1376489565, 8257.024974468348, 39993.86459515865, 29203.627014592534, 42150.74087986242, 37101.504159153, 31394.16502644599, 24785.804723001092, 0.06, 1.018, 0.114, 192.0, 0.5, 112.0, 15.5, 104.0, 1.5, 72.0, 0.0, 0.0, 0.0, 1.7074747502459445E9, 0.0, 2024-02-09 11:32:30.245
252.0, -6939.27788010572, -13326.601782632088, 22197.651529032177, 1487.9779801342465, 47705.7081706176, 21091.64250989467, 37562.06185365461, 12460.963423366955, 35499.80050323016, 8275.263997943879, 39881.480024037366, 29218.222703721847, 41914.661754925466, 37044.28369334742, 31351.67436023645, 24714.927341333314, 0.06, 1.018, 0.114, 192.0, 0.0, 0.0, 0.0, 0.0, 0.0, 0.0, 0.0, 0.0, 0.0, 1.7074747502539637E9, 0.0, 2024-02-09 11:32:30.253
254.0, -7023.4321979799515, -13380.894169914029, 22134.485499201477, 1492.1130528584783, 47613.8872043952, 21042.289858137352, 37513.73738214224, 12440.198652767975, 35728.41414551904, 8318.089940320247, 40217.35968796727, 29268.737646190842, 42394.44194965863, 37216.77210530903, 31490.79161772628, 24856.950325602334, 0.06, 1.018, 0.114, 192.0, 0.0, 0.0, 0.0, 0.0, 0.0, 0.0, 0.0, 0.0, 0.0, 1.70747475026124E9, 0.0, 2024-02-09 11:32:30.261
0.0, -7010.021151306767, -13359.5035504703, 22152.366894765724, 1487.5980004785063, 47497.90400241662, 21031.516317309895, 37456.33810238101, 12383.157000918032, 35412.58399636555, 8247.704297030485, 39790.374313637534, 29172.178110143916, 41855.34022514108, 36997.41208522464, 31309.183694026913, 24679.87980602739, 0.06, 1.018, 0.114, 192.0, 0.0, 0.0, 0.0, 0.0, 0.0, 0.0, 0.0, 0.0, 0.0, 1.7074747502690396E9, 0.0, 2024-02-09 11:32:30.269
2.0, -6933.622888758528, -13323.15961398597, 22189.359031839256, 1481.4289190088416, 47787.02381694601, 21077.382096932186, 37585.91116498842, 12486.37735681264, 35710.264529021326, 8324.79546365684, 40141.72138473051, 29276.337239305645, 42253.69301482356, 37192.85573874185, 31457.08518708768, 24799.774563285657, 0.06, 1.018, 0.114, 192.0, 0.0, 0.0, 0.0, 0.0, 0.0, 0.0, 0.0, 0.0, 0.0, 1.7074747502780068E9, 0.0, 2024-02-09 11:32:30.278
4.0, -7073.142477648554, -13402.553010291222, 22111.597312879243, 1491.509555758185, 47451.948815816504, 20988.355098766697, 37419.323613563014, 12347.662430723005, 35543.00642526227, 8260.802419281295, 39998.40199928308, 29203.716421570352, 42162.20732476799, 37086.88611827924, 31385.06786645268, 24756.94862090929, 0.064, 1.024, 0.114, 192.0, 1.0, 0.0, 16.0, 0.0, 1.5, 72.0, 0.0, 0.0, 0.0, 1.7074747502849963E9, 0.0, 2024-02-09 11:32:30.284
6.0, -6924.771597954225, -13317.72814008333, 22201.719546523043, 1493.767081948171, 47711.96665906509, 21079.952547544544, 37553.00939715021, 12451.50863546236, 35508.584738801095, 8283.310625947788, 39877.479061779864, 29216.859247310073, 41919.37797300553, 37045.33422533682, 31344.2982845662, 24690.876864299404, 0.064, 1.024, 0.114, 192.0, 0.0, 0.0, 0.0, 0.0, 0.0, 0.0, 0.0, 0.0, 0.0, 1.7074747502935088E9, 0.0, 2024-02-09 11:32:30.293
8.0, -7017.687799654937, -13376.826152423162, 22137.950019592052, 1500.24908784021, 47624.280765566924, 21035.3161138673, 37504.88609133793, 12420.59617288067, 35733.622101977126, 8320.79450139934, 40219.57251066834, 29273.65502997101, 42408.568252154386, 37230.47372466013, 31485.114274634634, 24840.14181377194, 0.064, 1.024, 0.114, 192.0, 0.0, 0.0, 0.0, 0.0, 0.0, 0.0, 0.0, 0.0, 0.0, 1.707474750302037E9, 0.0, 2024-02-09 11:32:30.302
10.0, -7019.520642700272, -13365.963204617883, 22155.026752355905, 1503.3559803194978, 47504.72128447548, 21037.104253423724, 37457.589800070506, 12387.247370153353, 35407.53250211865, 8248.196035408502, 39794.68820031741, 29176.693162523887, 41871.299370682165, 37006.106913817755, 31303.506350935266, 24674.35892514693, 0.064, 1.024, 0.114, 192.0, 0.0, 0.0, 0.0, 0.0, 0.0, 0.0, 0.0, 0.0, 0.0, 1.7074747503100655E9, 0.0, 2024-02-09 11:32:30.310
12.0, -6935.925118437424, -13320.745625584797, 22194.72345050853, 1499.5338320176402, 47781.12295640981, 21095.442306452074, 37584.23478415427, 12484.499810278394, 35701.86027310613, 8334.339658539255, 40139.28504458488, 29278.773579451274, 42252.21779968951, 37204.143369691774, 31460.505003989343, 24808.379984900952, 0.064, 1.024, 0.114, 192.0, 0.0, 0.0, 0.0, 0.0, 0.0, 0.0, 0.0, 0.0, 0.0, 1.707474750317083E9, 0.0, 2024-02-09 11:32:30.317
14.0, -7072.673091014993, -13390.706585729908, 22115.307702458824, 1509.2344891112434, 47446.696155869504, 21021.68154974956, 37419.614186240935, 12372.741088001858, 35548.1920299759, 8279.041442756825, 40003.16292085206, 29204.051697737184, 42156.06059504278, 37115.161075015196, 31390.74520954433, 24771.454903060785, 0.066, 1.022, 0.116, 192.0, 1.0, 8.0, 15.5, 120.0, 1.5, 80.0, 0.0, 0.0, 0.0, 1.7074747503250875E9, 0.0, 2024-02-09 11:32:30.325
16.0, -6926.671496232927, -13307.759262056265, 22203.39592735719, 1504.2053466087993, 47700.99195253754, 21104.22654202301, 37555.5127925292, 12472.60868222817, 35512.22807314731, 8304.433024458054, 39881.01063740381, 29224.749413102796, 41914.46058922537, 37068.8482605038, 31343.4489182769, 24707.953597063257, 0.066, 1.022, 0.116, 192.0, 0.0, 0.0, 0.0, 0.0, 0.0, 0.0, 0.0, 0.0, 0.0, 1.7074747503340693E9, 0.0, 2024-02-09 11:32:30.334
18.0, -7017.53133744375, -13371.46173375389, 22134.79842362385, 1500.3384948180312, 47626.024201634435, 21052.54930884234, 37505.04255354912, 12438.544623678283, 35733.42093627703, 8327.164748569101, 40221.53946418041, 29273.02918112626, 42398.264097960484, 37230.18315198221, 31483.303783333755, 24861.57713670458, 0.066, 1.022, 0.116, 192.0, 0.0, 0.0, 0.0, 0.0, 0.0, 0.0, 0.0, 0.0, 0.0, 1.70747475034109E9, 0.0, 2024-02-09 11:32:30.341
20.0, -7014.670314153471, -13361.06817258217, 22151.070493587315, 1499.6902942288273, 47493.0089703809, 21031.941000454546, 37436.64621551588, 12371.668204268004, 35407.37603990746, 8252.711087788473, 39792.22950842733, 29173.29569736668, 41860.79405078817, 36987.66672464213, 31292.71045836335, 24681.93616651728, 0.066, 1.022, 0.116, 192.0, 0.0, 0.0, 0.0, 0.0, 0.0, 0.0, 0.0, 0.0, 0.0, 1.7074747503493092E9, 0.0, 2024-02-09 11:32:30.349
22.0, -6931.499473035273, -13321.259715707269, 22193.941139452596, 1489.0955673570118, 47784.27455237801, 21088.893245326668, 37576.43402533937, 12476.453182274483, 35710.5774534437, 8332.305649793821, 40136.40166955014, 29274.347934049125, 42240.05845070582, 37189.43592184018, 31443.36121599212, 24802.613234831482, 0.066, 1.022, 0.116, 192.0, 0.0, 0.0, 0.0, 0.0, 0.0, 0.0, 0.0, 0.0, 0.0, 1.7074747503581984E9, 0.0, 2024-02-09 11:32:30.358
24.0, -7073.656567771026, -13396.339225332646, 22123.04140604036, 1491.3307418025424, 47450.36184196018, 20991.327880779252, 37409.35473553595, 12342.230956820364, 35563.36886446105, 8280.516657890876, 40017.91507219256, 29203.939939014905, 42174.47843247395, 37095.782112572444, 31384.643183308028, 24764.95054542429, 0.062, 1.024, 0.116, 192.0, 0.5, 120.0, 16.0, 0.0, 1.5, 80.0, 0.0, 0.0, 0.0, 1.7074747503652148E9, 0.0, 2024-02-09 11:32:30.365
26.0, -6932.70646723586, -13317.884602294518, 22209.520305337945, 1487.1733173338555, 47700.07553101487, 21066.005059004434, 37538.54781848763, 12424.999466538367, 35513.45741909235, 8278.795573567817, 39890.59953577513, 29212.835933308117, 41915.846397381596, 37032.81724844185, 31336.274008306744, 24680.59506184996, 0.062, 1.024, 0.116, 192.0, 0.0, 0.0, 0.0, 0.0, 0.0, 0.0, 0.0, 0.0, 0.0, 1.7074747503731987E9, 0.0, 2024-02-09 11:32:30.373
28.0, -7018.157186288498, -13369.763001175286, 22149.23765054198, 1497.8798029279476, 47633.13205637122, 21031.44926207653, 37505.08725703803, 12425.759425849847, 35749.894171940585, 8319.252231031924, 40241.924255123646, 29276.180777094458, 42404.65669687471, 37232.21716072764, 31484.153149623056, 24837.30314222612, 0.062, 1.024, 0.116, 192.0, 0.0, 0.0, 0.0, 0.0, 0.0, 0.0, 0.0, 0.0, 0.0, 1.7074747503811796E9, 0.0, 2024-02-09 11:32:30.381
30.0, -7011.876346096557, -13352.082771311138, 22166.604955983756, 1500.1373291179334, 47497.881650672156, 21021.569791027283, 37443.374090596924, 12368.382497833074, 35429.52661866267, 8249.403029609088, 39818.6492703735, 29179.844758492087, 41869.28771368119, 37000.027239325915, 31300.19829275588, 24669.12861694439, 0.062, 1.024, 0.116, 192.0, 0.0, 0.0, 0.0, 0.0, 0.0, 0.0, 0.0, 0.0, 0.0, 1.707474750390256E9, 0.0, 2024-02-09 11:32:30.390
32.0, -6931.231252101809, -13321.840861063107, 22205.787564013906, 1493.3200470590648, 47780.385348842785, 21093.676518640106, 37584.68181904338, 12481.079993376732, 35722.11095358264, 8338.899414408137, 40153.88073371419, 29276.158425350004, 42244.26057866342, 37197.19197716618, 31456.526393476295, 24793.583130071536, 0.062, 1.024, 0.116, 192.0, 0.0, 0.0, 0.0, 0.0, 0.0, 0.0, 0.0, 0.0, 0.0, 1.7074747503971934E9, 0.0, 2024-02-09 11:32:30.397
34.0, -7067.196913623442, -13390.706585729908, 22126.461222942024, 1506.9546111768022, 47452.32879547224, 21012.092651378232, 37412.349869292964, 12348.15416910102, 35569.269724997255, 8284.74113759293, 40030.454400831986, 29209.50552338428, 42171.03626382784, 37126.24754026503, 31396.847235780628, 24762.938888423312, 0.066, 1.02, 0.116, 192.0, 1.0, 24.0, 15.5, 96.0, 1.5, 80.0, 0.0, 0.0, 0.0, 1.707474750405238E9, 0.0, 2024-02-09 11:32:30.405
36.0, -6923.899879920469, -13310.285009179714, 22211.77783152793, 1501.1431576184223, 47700.45551067061, 21100.829076865804, 37554.417557050896, 12455.777818653325, 35519.15711392845, 8289.658521373096, 39889.50430029682, 29219.608511878076, 41911.286641512714, 37063.95322846809, 31349.126261368547, 24691.100381743956, 0.066, 1.02, 0.116, 192.0, 0.0, 0.0, 0.0, 0.0, 0.0, 0.0, 0.0, 0.0, 0.0, 1.707474750413237E9, 0.0, 2024-02-09 11:32:30.413
38.0, -7010.803462362703, -13362.297518527213, 22152.277487787902, 1508.1392536329333, 47634.070829638345, 21071.70475384054, 37523.795667147126, 12445.965402837444, 35754.92331444303, 8329.802254414828, 40243.42182200216, 29278.728875962363, 42406.51189166449, 37233.55826539496, 31500.201702141967, 24853.888136611957, 0.066, 1.02, 0.116, 192.0, 0.0, 0.0, 0.0, 0.0, 0.0, 0.0, 0.0, 0.0, 0.0, 1.7074747504212708E9, 0.0, 2024-02-09 11:32:30.421
40.0, -7012.81511936368, -13358.363611503079, 22161.396999525667, 1506.6640384988832, 47498.61925823918, 21048.54834658484, 37458.88620124891, 12383.089945684666, 35433.862857087, 8255.81798026776, 39814.849473816095, 29175.97790670132, 41869.980617759305, 37011.136056320196, 31314.23518827381, 24694.520198645616, 0.066, 1.02, 0.116, 192.0, 0.0, 0.0, 0.0, 0.0, 0.0, 0.0, 0.0, 0.0, 0.0, 1.7074747504292252E9, 0.0, 2024-02-09 11:32:30.429
42.0, -6935.858063204058, -13326.422968676445, 22199.52907556642, 1492.3365703030313, 47789.326046624905, 21091.866027339223, 37590.96265923532, 12478.017804386354, 35722.51328498284, 8325.398960757133, 40140.24616959646, 29276.09137011664, 42233.59879655824, 37204.65745981425, 31458.56040222173, 24812.358595413996, 0.066, 1.02, 0.116, 192.0, 0.0, 0.0, 0.0, 0.0, 0.0, 0.0, 0.0, 0.0, 0.0, 1.7074747504372852E9, 0.0, 2024-02-09 11:32:30.437
44.0, -7087.581704566683, -13408.833850483163, 22116.447641426046, 1490.414320279875, 47463.32585374425, 20998.569845982773, 37428.80075321207, 12348.198872589932, 35567.928620329934, 8263.909311760583, 40016.68572624752, 29193.479322609823, 42176.62419994166, 37106.93563305565, 31399.954128259913, 24775.165292640366, 0.068, 1.0190000000000001, 0.117, 192.0, 1.0, 24.0, 15.5, 104.0, 1.5, 88.0, 0.0, 0.0, 0.0, 1.707474750446308E9, 0.0, 2024-02-09 11:32:30.446
46.0, -6946.56454879815, -13333.419064690956, 22200.11022092226, 1480.534849230629, 47707.20573749611, 21074.945756786557, 37547.77908894767, 12440.89155684609, 35504.74023875478, 8265.58569259473, 39861.966951127884, 29193.63578482101, 41907.53154844422, 37056.28658011992, 31342.130165354036, 24686.74179157517, 0.068, 1.0190000000000001, 0.117, 192.0, 0.0, 0.0, 0.0, 0.0, 0.0, 0.0, 0.0, 0.0, 0.0, 1.7074747504522517E9, 0.0, 2024-02-09 11:32:30.452
48.0, -7025.443854980928, -13383.732841459852, 22134.75372013494, 1480.2666282971654, 47637.982384918025, 21022.97795092797, 37504.93079482685, 12401.284265671286, 35738.33832005719, 8303.449547702021, 40219.50545543498, 29250.07393957066, 42408.769417854484, 37230.96546303815, 31481.627402499606, 24833.682159624357, 0.068, 1.0190000000000001, 0.117, 192.0, 0.0, 0.0, 0.0, 0.0, 0.0, 0.0, 0.0, 0.0, 0.0, 1.7074747504612975E9, 0.0, 2024-02-09 11:32:30.461
50.0, -7027.030828837255, -13375.663861711486, 22144.320266761813, 1481.5630294755733, 47490.66203721309, 21012.96436941199, 37440.82599172902, 12343.974392887878, 35418.28369120165, 8230.471102055442, 39798.93503176392, 29151.882726178497, 41874.27215269472, 36988.40433220915, 31291.302298462666, 24656.566936560506, 0.068, 1.0190000000000001, 0.117, 192.0, 0.0, 0.0, 0.0, 0.0, 0.0, 0.0, 0.0, 0.0, 0.0, 1.7074747504692779E9, 0.0, 2024-02-09 11:32:30.469
52.0, -6949.559682555161, -13337.330619970635, 22183.949909681072, 1473.9410846163137, 47792.56704957093, 21079.37140218871, 37588.19104292286, 12467.534836236817, 35708.47638946491, 8305.528259936364, 40123.281195554875, 29240.395634221513, 42240.3713751282, 37171.53217453149, 31441.908352602524, 24779.38977234242, 0.068, 1.0190000000000001, 0.117, 192.0, 0.0, 0.0, 0.0, 0.0, 0.0, 0.0, 0.0, 0.0, 0.0, 1.7074747504772887E9, 0.0, 2024-02-09 11:32:30.477
54.0, -7089.5263063342945, -13423.206022167924, 22104.57886512028, 1487.86622141197, 47460.1519060316, 21014.95367466851, 37438.702576005766, 12372.539922301761, 35567.97332381884, 8244.373887106643, 40010.606051755676, 29172.893365966484, 42184.49201398993, 37097.123217239765, 31393.874453768072, 24764.302344835087, 0.069, 1.0185, 0.1185, 192.0, 1.0, 24.0, 15.5, 104.0, 1.5, 96.0, 0.0, 0.0, 0.0, 1.7074747504854164E9, 0.0, 2024-02-09 11:32:30.485
56.0, -6945.491665064295, -13333.106140268583, 22195.952796453574, 1483.9993696212018, 47698.53326064745, 21092.98361456199, 37560.25136235373, 12460.918719878046, 35511.66927953593, 8262.702317559995, 39859.57531447116, 29189.34424988559, 41896.132158772016, 37047.61410327126, 31338.017444374258, 24689.89338754337, 0.069, 1.0185, 0.1185, 192.0, 0.0, 0.0, 0.0, 0.0, 0.0, 0.0, 0.0, 0.0, 0.0, 1.7074747504935107E9, 0.0, 2024-02-09 11:32:30.493
58.0, -7029.556575960705, -13386.727975216863, 22136.743025391464, 1487.3074278005872, 47639.47995179653, 21050.69411405255, 37527.39429800443, 12437.382332966607, 35749.5365440293, 8299.917972078083, 40224.91457759316, 29249.26927677027, 42398.15233923821, 37231.72542234963, 31491.462170059942, 24848.948401087335, 0.069, 1.0185, 0.1185, 192.0, 0.0, 0.0, 0.0, 0.0, 0.0, 0.0, 0.0, 0.0, 0.0, 1.7074747505013466E9, 0.0, 2024-02-09 11:32:30.501
60.0, -7023.722770657871, -13363.236291794336, 22161.084075103292, 1509.4133030668859, 47499.15570010611, 21048.07895995128, 37469.9950182432, 12382.419393351007, 35429.12428726248, 8235.567299791253, 39803.96417426636, 29157.29184833668, 41867.34311191358, 37004.139960305685, 31310.72596439433, 24680.282137427588, 0.069, 1.0185, 0.1185, 192.0, 0.0, 0.0, 0.0, 0.0, 0.0, 0.0, 0.0, 0.0, 0.0, 1.7074747505083697E9, 0.0, 2024-02-09 11:32:30.508
62.0, -6929.309002078653, -13312.520183625244, 22213.47656410653, 1516.3646955924864, 47795.8304042614, 21122.376158520718, 37619.99757528277, 12508.259714634385, 35717.64060469158, 8330.629268959674, 40138.90506492914, 29271.218689825382, 42226.379183099176, 37195.51559633203, 31468.84220467117, 24812.984444258745, 0.069, 1.0185, 0.1185, 192.0, 0.0, 0.0, 0.0, 0.0, 0.0, 0.0, 0.0, 0.0, 0.0, 1.7074747505173929E9, 0.0, 2024-02-09 11:32:30.517
64.0, -7075.914093961012, -13394.88636194305, 22143.403845239147, 1523.4278468403634, 47470.07608056976, 21027.671817263585, 37461.501355350185, 12376.45147758144, 35577.94220184591, 8268.82669554075, 40045.43006961705, 29208.07501173914, 42194.86322341719, 37135.724679914085, 31427.02209079529, 24802.076792964555, 0.0695, 1.01925, 0.11725, 192.0, 1.0, 24.0, 15.5, 112.0, 1.5, 80.0, 0.0, 0.0, 0.0, 1.707474750525447E9, 0.0, 2024-02-09 11:32:30.525
66.0, -6941.334240595608, -13323.696055852897, 22221.67965432163, 1505.8593756984922, 47706.915164818194, 21095.487009940985, 37577.328095117584, 12463.511522234861, 35506.126046911006, 8276.06866074427, 39882.12822462657, 29201.68241282492, 41907.240975766304, 37059.460527832576, 31362.179680130444, 24707.998300552168, 0.0695, 1.01925, 0.11725, 192.0, 0.0, 0.0, 0.0, 0.0, 0.0, 0.0, 0.0, 0.0, 0.0, 1.7074747505334055E9, 0.0, 2024-02-09 11:32:30.533
68.0, -7025.086227069643, -13377.831980923651, 22155.13851107818, 1494.3929307929195, 47655.997890949, 21044.077997693777, 37533.25045505172, 12431.906155575056, 35755.571515032236, 8311.74204489494, 40238.86206613327, 29257.673532685465, 42414.06678129039, 37241.9401695657, 31505.253196388865, 24852.524680200182, 0.0695, 1.01925, 0.11725, 192.0, 0.0, 0.0, 0.0, 0.0, 0.0, 0.0, 0.0, 0.0, 0.0, 1.707474750541416E9, 0.0, 2024-02-09 11:32:30.541
70.0, -7036.507968486306, -13377.295539056724, 22155.652601200654, 1490.414320279875, 47494.0595023703, 21028.185907386054, 37454.68407329131, 12367.220207121398, 35432.56645590859, 8228.526500287831, 39807.13812197901, 29155.749577969265, 41883.95045804387, 37005.72693416201, 31310.658909160964, 24669.150968688842, 0.0695, 1.01925, 0.11725, 192.0, 0.0, 0.0, 0.0, 0.0, 0.0, 0.0, 0.0, 0.0, 0.0, 1.7074747505496635E9, 0.0, 2024-02-09 11:32:30.549
72.0, -6941.557758040161, -13329.485157666822, 22192.488276063, 1482.8147271650705, 47787.448500090664, 21092.08954478378, 37587.63224931148, 12491.13827838162, 35711.516226710824, 8311.429120472565, 40121.694221698555, 29255.617172195576, 42227.25090113293, 37185.83729098288, 31445.685797415474, 24788.486932335727, 0.0695, 1.01925, 0.11725, 192.0, 0.0, 0.0, 0.0, 0.0, 0.0, 0.0, 0.0, 0.0, 0.0, 1.7074747505574207E9, 0.0, 2024-02-09 11:32:30.557
74.0, -7089.369844123107, -13406.397510337534, 22108.065737255307, 1493.4318057813414, 47453.848714095206, 21003.86720941868, 37419.2342065852, 12371.534093801272, 35569.56029767517, 8251.839369754716, 40018.227996614936, 29180.515310825744, 42196.20432808451, 37118.379726216765, 31391.16989268898, 24770.180853626833, 0.07075000000000001, 1.017625, 0.114625, 192.0, 1.0, 32.0, 15.5, 96.0, 1.5, 64.0, 0.0, 0.0, 0.0, 1.707474750564463E9, 0.0, 2024-02-09 11:32:30.564
76.0, -6947.27980462072, -13323.830166319629, 22198.411488343656, 1487.9779801342465, 47680.09307147182, 21091.530751172395, 37537.3631760315, 12457.878882632123, 35508.07064867862, 8273.654672343097, 39855.28377953575, 29186.997316717785, 41894.00874304876, 37044.10487939178, 31331.401328015487, 24685.825370052502, 0.07075000000000001, 1.017625, 0.114625, 192.0, 0.0, 0.0, 0.0, 0.0, 0.0, 0.0, 0.0, 0.0, 0.0, 1.7074747505735645E9, 0.0, 2024-02-09 11:32:30.573
78.0, -7032.462302739895, -13384.403393793511, 22148.701208675055, 1492.8730121699587, 47655.97553920455, 21070.944794529056, 37525.96378635929, 12461.142237322598, 35747.8378114507, 8306.265867503389, 40215.95152806658, 29241.893201100018, 42398.264097960484, 37223.522332134526, 31486.85771070215, 24839.515964927195, 0.07075000000000001, 1.017625, 0.114625, 192.0, 0.0, 0.0, 0.0, 0.0, 0.0, 0.0, 0.0, 0.0, 0.0, 1.7074747505814548E9, 0.0, 2024-02-09 11:32:30.581
80.0, -7040.933613888456, -13372.3558035321, 22157.753665179454, 1496.896326171914, 47499.87095592868, 21050.0682652078, 37456.673378547835, 12388.02968120929, 35414.01450801069, 8235.544948046798, 39801.37137190955, 29146.875935420507, 41881.938801042896, 37012.85714064326, 31319.77842089873, 24679.477474627194, 0.07075000000000001, 1.017625, 0.114625, 192.0, 0.0, 0.0, 0.0, 0.0, 0.0, 0.0, 0.0, 0.0, 0.0, 1.707474750588518E9, 0.0, 2024-02-09 11:32:30.588
82.0, -6947.32450810963, -13331.362704201068, 22194.544636552888, 1486.703930700294, 47808.41443638974, 21109.14392580318, 37603.144359963466, 12512.931229225545, 35695.802950358746, 8320.101597321225, 40117.17916931858, 29240.06035805468, 42219.56190104031, 37184.227965382095, 31457.576925465695, 24789.224539902752, 0.07075000000000001, 1.017625, 0.114625, 192.0, 0.0, 0.0, 0.0, 0.0, 0.0, 0.0, 0.0, 0.0, 0.0, 1.7074747505965104E9, 0.0, 2024-02-09 11:32:30.596
84.0, -7086.844096999657, -13402.865934713594, 22118.638112382665, 1498.4609482837855, 47476.1557550616, 21018.373491570175, 37440.75893649566, 12385.235713152375, 35570.32025698665, 8260.020108225359, 40031.61669154366, 29179.26361313625, 42196.58430774025, 37130.67318566718, 31412.69462259944, 24778.741571753213, 0.07037500000000001, 1.0148125000000001, 0.11531250000000001, 192.0, 1.0, 24.0, 15.5, 80.0, 1.5, 80.0, 0.0, 0.0, 0.0, 1.7074747506055105E9, 0.0, 2024-02-09 11:32:30.605
86.0, -6948.8891302215025, -13317.258753449769, 22210.68259604962, 1496.2928290716206, 47717.264022500996, 21105.45588796805, 37560.34076933155, 12468.98769962641, 35494.86076770553, 8280.539009635331, 39866.01261687429, 29185.298584139182, 41898.72496112883, 37054.81136498587, 31351.29438058071, 24692.106210244445, 0.07037500000000001, 1.0148125000000001, 0.11531250000000001, 192.0, 0.0, 0.0, 0.0, 0.0, 0.0, 0.0, 0.0, 0.0, 0.0, 1.707474750612498E9, 0.0, 2024-02-09 11:32:30.612
88.0, -7017.5089856992945, -13362.632794694042, 22157.261926801435, 1501.7690064631709, 47677.67908307065, 21075.21397772002, 37533.1610480739, 12458.817655899245, 35743.52392477082, 8318.335809509255, 40244.58411271383, 29254.74545416182, 42420.95111858263, 37240.80023059848, 31507.62248130113, 24859.453720981328, 0.07037500000000001, 1.0148125000000001, 0.11531250000000001, 192.0, 0.0, 0.0, 0.0, 0.0, 0.0, 0.0, 0.0, 0.0, 0.0, 1.7074747506206317E9, 0.0, 2024-02-09 11:32:30.620
90.0, -7020.414712478485, -13354.40735273449, 22168.638964729187, 1512.0061054237015, 47500.22858383997, 21051.87875650868, 37451.711291278756, 12382.30763462873, 35427.067926772586, 8240.77525624934, 39830.76391586827, 29161.33751408309, 41902.30124024168, 37004.54229170588, 31323.935845367414, 24689.759277076635, 0.07037500000000001, 1.0148125000000001, 0.11531250000000001, 192.0, 0.0, 0.0, 0.0, 0.0, 0.0, 0.0, 0.0, 0.0, 0.0, 1.7074747506295617E9, 0.0, 2024-02-09 11:32:30.629
92.0, -6928.683153233905, -13316.141166227004, 22214.951779240582, 1503.2889250861317, 47805.911041010746, 21114.70951017255, 37597.623479083, 12494.71455749447, 35708.521092953815, 8330.942193382049, 40146.012919665925, 29265.831919411652, 42233.218816902496, 37183.602116537346, 31457.84514639916, 24796.57826382855, 0.07037500000000001, 1.0148125000000001, 0.11531250000000001, 192.0, 0.0, 0.0, 0.0, 0.0, 0.0, 0.0, 0.0, 0.0, 0.0, 1.7074747506375463E9, 0.0, 2024-02-09 11:32:30.637
94.0, -7077.523419561794, -13395.735728232352, 22130.439833455068, 1511.670829256872, 47475.75342366141, 21032.365683599197, 37442.21179988525, 12380.005404949834, 35585.16181530498, 8271.173628708557, 40060.45044189101, 29194.462799365858, 42222.98171794197, 37135.05412758042, 31418.282558713265, 24791.81734225957, 0.0751875, 1.01440625, 0.11865625, 192.0, 1.0, 64.0, 15.5, 88.0, 1.5, 104.0, 0.0, 0.0, 0.0, 1.707474750644578E9, 0.0, 2024-02-09 11:32:30.644
96.0, -6945.178740641921, -13315.224744704336, 22214.795317029395, 1501.478433785252, 47700.38845543724, 21104.56181818984, 37557.256228596714, 12469.121810093142, 35504.98610794379, 8281.83541081374, 39870.68413146545, 29184.270403894236, 41906.21279552136, 37045.267170103456, 31341.459613020375, 24697.336518446988, 0.0751875, 1.01440625, 0.11865625, 192.0, 0.0, 0.0, 0.0, 0.0, 0.0, 0.0, 0.0, 0.0, 0.0, 1.707474750652626E9, 0.0, 2024-02-09 11:32:30.652
98.0, -7019.654753167004, -13360.419971992967, 22158.20070006856, 1503.6465529974166, 47666.212638165074, 21069.46957939501, 37526.56728345958, 12446.211272026452, 35746.630817250116, 8328.93053638107, 40240.672557434154, 29246.02827382425, 42422.80631337241, 37246.65638764577, 31501.27458587582, 24859.47607272578, 0.0751875, 1.01440625, 0.11865625, 192.0, 0.0, 0.0, 0.0, 0.0, 0.0, 0.0, 0.0, 0.0, 0.0, 1.7074747506616192E9, 0.0, 2024-02-09 11:32:30.661
100.0, -7035.613898708093, -13366.700812184909, 22162.179310581603, 1507.7816257216484, 47497.032284382854, 21053.063398964812, 37458.84149776, 12386.68857654197, 35415.26620570019, 8247.458427841477, 39817.53168315073, 29147.56883949862, 41895.12633027152, 37011.359573764756, 31310.860074861062, 24683.947823518258, 0.0751875, 1.01440625, 0.11865625, 192.0, 0.0, 0.0, 0.0, 0.0, 0.0, 0.0, 0.0, 0.0, 0.0, 1.7074747506686096E9, 0.0, 2024-02-09 11:32:30.668
102.0, -6931.119493379533, -13320.700922095886, 22209.87793324923, 1499.891459928925, 47810.739017813095, 21119.42572825262, 37616.35424093655, 12503.610551787682, 35695.802950358746, 8321.040370588347, 40129.31616655781, 29252.89025937203, 42217.95257543952, 37198.30956438894, 31450.156146306534, 24802.52382785366, 0.0751875, 1.01440625, 0.11865625, 192.0, 0.0, 0.0, 0.0, 0.0, 0.0, 0.0, 0.0, 0.0, 0.0, 1.7074747506766305E9, 0.0, 2024-02-09 11:32:30.676
104.0, -7065.453477555929, -13392.360614819601, 22134.507850945934, 1511.1120356454892, 47485.208211566, 21017.904104936613, 37451.353663367474, 12371.802314734736, 35593.320202031166, 8270.25720718589, 40056.69534882252, 29193.054639465172, 42216.14208413864, 37139.74799391603, 31411.554683632217, 24792.063211448578, 0.07359375000000001, 1.0142031249999999, 0.12232812500000001, 192.0, 1.0, 32.0, 15.5, 88.0, 1.5, 120.0, 0.0, 0.0, 0.0, 1.7074747506846497E9, 0.0, 2024-02-09 11:32:30.684
106.0, -6929.510167778751, -13303.668892820942, 22231.335607926325, 1514.576556036062, 47699.40497868121, 21114.106013072254, 37562.933571688365, 12467.870112403645, 35502.9297474539, 8288.786803339339, 39873.500451266824, 29198.799037790184, 41901.18365301891, 37054.56549579686, 31344.38769154402, 24700.666928370825, 0.07359375000000001, 1.0142031249999999, 0.12232812500000001, 192.0, 0.0, 0.0, 0.0, 0.0, 0.0, 0.0, 0.0, 0.0, 0.0, 1.7074747506938524E9, 0.0, 2024-02-09 11:32:30.693
108.0, -7005.506098926795, -13354.83203587914, 22179.59131951229, 1520.9468032058244, 47678.37198714876, 21071.50358814044, 37531.417612006386, 12446.188920281998, 35766.70268377098, 8338.02769637438, 40254.84356341881, 29273.16329159299, 42420.32526973788, 37258.07812906243, 31507.84599874568, 24871.88129089848, 0.07359375000000001, 1.0142031249999999, 0.12232812500000001, 192.0, 0.0, 0.0, 0.0, 0.0, 0.0, 0.0, 0.0, 0.0, 0.0, 1.7074747507006192E9, 0.0, 2024-02-09 11:32:30.700
110.0, -7021.040561323233, -13352.73097190034, 22184.642813759187, 1526.3559253640087, 47504.3636565642, 21052.817529775803, 37451.2419046452, 12382.97818696239, 35437.77441236668, 8254.163951178069, 39831.36741296857, 29166.634877518998, 41900.15547277397, 37017.95333837907, 31324.829915145627, 24701.78451559359, 0.07359375000000001, 1.0142031249999999, 0.12232812500000001, 192.0, 0.0, 0.0, 0.0, 0.0, 0.0, 0.0, 0.0, 0.0, 0.0, 1.7074747507089293E9, 0.0, 2024-02-09 11:32:30.708
112.0, -6918.691923462382, -13304.25003817678, 22232.855526549283, 1517.5269863041624, 47813.35417191436, 21128.209963823552, 37600.7750750512, 12509.198487901509, 35713.125552311605, 8343.481522021475, 40138.547437017856, 29269.251736313312, 42221.752371996925, 37207.876111015816, 31459.588582466673, 24808.96113025679, 0.07359375000000001, 1.0142031249999999, 0.12232812500000001, 192.0, 0.0, 0.0, 0.0, 0.0, 0.0, 0.0, 0.0, 0.0, 0.0, 1.70747475071768E9, 0.0, 2024-02-09 11:32:30.717
114.0, -7060.044355397744, -13379.776582691264, 22148.00830459694, 1517.7505037487156, 47489.25387731241, 21035.047892933835, 37440.378956839915, 12380.340681116662, 35601.679754457444, 8286.283407960345, 40064.11612798168, 29205.839837293606, 42223.62991853117, 37144.33010152938, 31423.892846571547, 24800.355708641495, 0.07079687500000001, 1.0161015624999998, 0.1221640625, 192.0, 1.0, 16.0, 15.5, 104.0, 1.5, 104.0, 0.0, 0.0, 0.0, 1.7074747507247145E9, 0.0, 2024-02-09 11:32:30.724
116.0, -6922.55877525315, -13300.360834641557, 22226.35116891279, 1502.5960210080173, 47702.578926393864, 21090.61432964973, 37547.53321975866, 12439.148120778576, 35504.20379688785, 8290.731405106952, 39873.142823355534, 29199.223720934835, 41893.606411648565, 37056.174821397646, 31347.829860190137, 24693.804942823048, 0.07079687500000001, 1.0161015624999998, 0.1221640625, 192.0, 0.0, 0.0, 0.0, 0.0, 0.0, 0.0, 0.0, 0.0, 0.0, 1.7074747507326725E9, 0.0, 2024-02-09 11:32:30.732
118.0, -6999.113500012577, -13350.339335243623, 22172.416409542133, 1502.9536489193022, 47683.62464709576, 21065.73683807097, 37532.64695795142, 12448.245280771886, 35768.13319541612, 8334.876100406182, 40253.79303142941, 29264.714332188887, 42426.47199946309, 37241.5378381655, 31502.57098705423, 24853.06112206711, 0.07079687500000001, 1.0161015624999998, 0.1221640625, 192.0, 0.0, 0.0, 0.0, 0.0, 0.0, 0.0, 0.0, 0.0, 0.0, 1.7074747507406993E9, 0.0, 2024-02-09 11:32:30.740
120.0, -7018.134834544044, -13349.557024187689, 22167.744894950974, 1508.8768611999585, 47501.27911582936, 21036.523108067886, 37445.922189464836, 12369.947119944945, 35448.950284594335, 8257.91904424656, 39836.798886871205, 29164.086778651093, 41913.521815958244, 37020.23321631351, 31318.10204006458, 24684.50661712964, 0.07079687500000001, 1.0161015624999998, 0.1221640625, 192.0, 0.0, 0.0, 0.0, 0.0, 0.0, 0.0, 0.0, 0.0, 0.0, 1.7074747507497015E9, 0.0, 2024-02-09 11:32:30.749
122.0, -6918.4237025289185, -13302.752471298274, 22213.63302631772, 1505.7476169762156, 47811.05194223546, 21113.681329927604, 37595.90239475994, 12498.916685452066, 35709.81749413222, 8345.180254600078, 40124.979928133485, 29260.69101818693, 42213.32576433728, 37189.972363707115, 31446.89279161606, 24791.079734692543, 0.07079687500000001, 1.0161015624999998, 0.1221640625, 192.0, 0.0, 0.0, 0.0, 0.0, 0.0, 0.0, 0.0, 0.0, 0.0, 1.7074747507571256E9, 0.0, 2024-02-09 11:32:30.757
124.0, -7072.807201481724, -13387.778507206263, 22133.837298612274, 1516.7893787371372, 47486.415205766585, 21025.63780851815, 37430.253616601665, 12378.552541560239, 35595.555376476696, 8289.904390562104, 40064.2055349595, 29202.35296515858, 42229.240206389455, 37149.85098240984, 31420.36127094761, 24799.05930746309, 0.0683984375, 1.01605078125, 0.12208203125, 192.0, 1.0, 8.0, 15.5, 96.0, 1.5, 104.0, 0.0, 0.0, 0.0, 1.70747475076473E9, 0.0, 2024-02-09 11:32:30.764
126.0, -6935.880414948513, -13307.312227167158, 22221.322026410347, 1507.8486809550145, 47694.84522281233, 21094.88351284069, 37547.7120337143, 12452.089780818198, 35495.46426480583, 8290.97727429596, 39863.19629707293, 29187.66786905144, 41888.75608310176, 37055.593676041804, 31338.91151415247, 24692.530893389096, 0.0683984375, 1.01605078125, 0.12208203125, 192.0, 0.0, 0.0, 0.0, 0.0, 0.0, 0.0, 0.0, 0.0, 0.0, 1.707474750773744E9, 0.0, 2024-02-09 11:32:30.773
128.0, -7003.740311114826, -13354.40735273449, 22171.499988019466, 1504.764140220182, 47679.087242971334, 21067.03323924938, 37536.782030675655, 12451.016897084344, 35773.60937280767, 8328.304687536322, 40245.81345865887, 29261.629791454056, 42409.7081911216, 37254.27833250503, 31502.19100739849, 24856.547994202137, 0.0683984375, 1.01605078125, 0.12208203125, 192.0, 0.0, 0.0, 0.0, 0.0, 0.0, 0.0, 0.0, 0.0, 0.0, 1.7074747507807455E9, 0.0, 2024-02-09 11:32:30.780
130.0, -7029.109541071599, -13362.40927724949, 22173.80221769836, 1502.6854279858385, 47505.995333909435, 21046.20141341703, 37452.203029656775, 12384.408698607529, 35437.39443271094, 8253.091067444215, 39824.1030960206, 29150.072234877618, 41905.25167050978, 37021.30610004736, 31320.560731954665, 24683.9254717738, 0.0683984375, 1.01605078125, 0.12208203125, 192.0, 0.0, 0.0, 0.0, 0.0, 0.0, 0.0, 0.0, 0.0, 0.0, 1.7074747507887836E9, 0.0, 2024-02-09 11:32:30.788
132.0, -6916.456749016852, -13301.210200930858, 22231.40266315969, 1506.6640384988832, 47823.255994708066, 21130.959228391555, 37612.50974089024, 12534.612421347192, 35707.02352607531, 8338.02769637438, 40123.012974621415, 29257.137090818538, 42214.2645376044, 37193.7274567756, 31460.594410967162, 24797.271167906663, 0.0683984375, 1.01605078125, 0.12208203125, 192.0, 0.0, 0.0, 0.0, 0.0, 0.0, 0.0, 0.0, 0.0, 0.0, 1.7074747507967832E9, 0.0, 2024-02-09 11:32:30.796
134.0, -7063.73239323287, -13385.520981016278, 22145.05787432884, 1510.1285588894557, 47492.696045958524, 21030.309323109308, 37450.79486975609, 12403.072405227711, 35603.69141145842, 8288.049195772313, 40064.138479726134, 29199.491941868302, 42237.57740707129, 37146.65468295273, 31435.0687187992, 24804.602540088006, 0.0683984375, 1.01605078125, 0.12208203125, 192.0, 0.0, 0.0, 0.0, 0.0, 0.0, 0.0, 0.0, 0.0, 0.0, 1.70747475080581E9, 0.0, 2024-02-09 11:32:30.805
136.0, -6932.505301535762, -13306.127584711026, 22221.25497117698, 1500.3161430735759, 47692.76651057798, 21099.242103009477, 37555.445737295835, 12466.305490291774, 35507.22128238932, 8291.044329529324, 39854.36735801308, 29187.44435160689, 41895.14868201598, 37052.889114962716, 31349.57329625765, 24690.78745732158, 0.07200000000000001, 1.012, 0.126, 192.0, 1.0, 32.0, 15.5, 80.0, 1.5, 120.0, 0.0, 0.0, 0.0, 1.7074747508128383E9, 0.0, 2024-02-09 11:32:30.812
138.0, -7000.633418635538, -13350.40639047699, 22164.14626409367, 1500.830233196048, 47691.82773731086, 21075.236329464475, 37551.93651341635, 12468.51831299285, 35770.70364602848, 8341.872196420694, 40242.37129001276, 29254.097253572614, 42424.97443258458, 37246.164649267754, 31513.500990092874, 24855.050427323633, 0.07200000000000001, 1.012, 0.126, 192.0, 0.0, 0.0, 0.0, 0.0, 0.0, 0.0, 0.0, 0.0, 0.0, 1.707474750820794E9, 0.0, 2024-02-09 11:32:30.820
140.0, -7028.4836922268505, -13361.246986537813, 22166.157921094647, 1499.7126459732826, 47502.37435130768, 21040.568773814295, 37457.232172159216, 12385.9733207194, 35440.72484263478, 8253.336936633223, 39825.69006987692, 29141.95855164034, 41914.30412701418, 37012.119533076235, 31331.11075533757, 24686.808846808537, 0.07200000000000001, 1.012, 0.126, 192.0, 0.0, 0.0, 0.0, 0.0, 0.0, 0.0, 0.0, 0.0, 0.0, 1.707474750829822E9, 0.0, 2024-02-09 11:32:30.829
142.0, -6937.825016716125, -13323.271372708246, 22220.092680465303, 1494.862317426481, 47820.08204699541, 21120.677425942114, 37609.78282806669, 12510.33842686873, 35701.21207251693, 8317.665257175597, 40108.260823280914, 29237.132279531037, 42207.1119793787, 37173.29796234345, 31458.403940010543, 24790.47623759225, 0.07200000000000001, 1.012, 0.126, 192.0, 0.0, 0.0, 0.0, 0.0, 0.0, 0.0, 0.0, 0.0, 0.0, 1.7074747508368316E9, 0.0, 2024-02-09 11:32:30.836
144.0, -7085.838268499168, -13402.240085868847, 22130.752757877442, 1504.8088437090928, 47498.59690649473, 21033.773843499883, 37448.22441914373, 12381.54767531725, 35593.163739819975, 8267.77616355135, 40057.76823255637, 29178.727171269322, 42237.57740707129, 37146.25235155253, 31430.97834956388, 24795.460676605784, 0.07200000000000001, 1.012, 0.126, 192.0, 0.0, 0.0, 0.0, 0.0, 0.0, 0.0, 0.0, 0.0, 0.0, 1.7074747508450012E9, 0.0, 2024-02-09 11:32:30.845
146.0, -6953.538293068206, -13324.746587842297, 22210.01204371596, 1493.0965296145118, 47703.562403149896, 21112.094356071277, 37550.23778083775, 12465.500827491383, 35481.650886732445, 8272.514733375876, 39839.16817178347, 29164.57851702911, 41887.303219712165, 37040.68506249011, 31342.06311012067, 24684.1266374739, 0.07200000000000001, 1.016, 0.122, 192.0, 1.0, 32.0, 15.5, 96.0, 1.5, 104.0, 0.0, 0.0, 0.0, 1.7074747508529124E9, 0.0, 2024-02-09 11:32:30.852
148.0, -7021.778168890259, -13371.439382009434, 22155.250269800457, 1489.6767127128498, 47690.91131578819, 21087.3286232148, 37541.744117944734, 12473.23453107292, 35752.93400918651, 8321.487405477454, 40231.62010092975, 29234.181849262935, 42424.30388025092, 37251.39495747029, 31512.20458891447, 24861.420674493394, 0.07200000000000001, 1.016, 0.122, 192.0, 0.0, 0.0, 0.0, 0.0, 0.0, 0.0, 0.0, 0.0, 0.0, 1.7074747508610015E9, 0.0, 2024-02-09 11:32:30.861
150.0, -7044.2193203233865, -13371.26056805379, 22156.077284345305, 1486.9721516337577, 47490.52792674636, 21044.34621862724, 37445.922189464836, 12371.847018223647, 35424.3633656935, 8240.350573104688, 39811.764933081264, 29120.791449641165, 41916.181673548424, 37011.337222020295, 31318.884351120516, 24679.298660671553, 0.07200000000000001, 1.016, 0.122, 192.0, 0.0, 0.0, 0.0, 0.0, 0.0, 0.0, 0.0, 0.0, 0.0, 1.7074747508688731E9, 0.0, 2024-02-09 11:32:30.868
152.0, -6927.0514758886675, -13307.960427756361, 22227.424052646646, 1486.346302789009, 47815.32112542643, 21125.818327166835, 37605.20072045335, 12509.556115812793, 35693.97010731341, 8330.115178837203, 40099.94597434354, 29230.516163172266, 42208.54249102384, 37186.08316017189, 31446.870439871604, 24772.974821683743, 0.07200000000000001, 1.016, 0.122, 192.0, 0.0, 0.0, 0.0, 0.0, 0.0, 0.0, 0.0, 0.0, 0.0, 1.7074747508768723E9, 0.0, 2024-02-09 11:32:30.876
154.0, -7077.031681183777, -13393.679367742465, 22145.124929562204, 1501.187861107333, 47506.97881066547, 21035.3161138673, 37448.51499182165, 12385.436878852473, 35614.1073243746, 8280.717823590974, 40063.087947736734, 29188.405476618467, 42255.83878229127, 37146.63233120827, 31437.46035545592, 24787.972842213258, 0.07200000000000001, 1.016, 0.122, 192.0, 0.0, 0.0, 0.0, 0.0, 0.0, 0.0, 0.0, 0.0, 0.0, 1.7074747508848958E9, 0.0, 2024-02-09 11:32:30.884
156.0, -6952.577168056628, -13318.756320328275, 22217.03049147493, 1497.1421953609224, 47693.4594146561, 21102.661919911137, 37542.54878074513, 12460.158760566565, 35490.122197881006, 8276.672157844563, 39834.18373276994, 29169.026514175715, 41901.76479837475, 37036.795858954894, 31341.549019998198, 24675.945899003258, 0.074, 1.016, 0.128, 192.0, 1.0, 40.0, 15.5, 96.0, 2.0, 0.0, 0.0, 0.0, 0.0, 1.7074747508929317E9, 0.0, 2024-02-09 11:32:30.892
158.0, -7005.751968115803, -13349.042934065215, 22173.131665364705, 1508.988619922235, 47694.35348443431, 21075.50455039794, 37536.3126440421, 12459.823484399734, 35760.13127090112, 8337.357144040721, 40232.424763730145, 29250.54332620422, 42437.89374087974, 37252.601951670884, 31506.99663245638, 24845.416825463395, 0.074, 1.016, 0.128, 192.0, 0.0, 0.0, 0.0, 0.0, 0.0, 0.0, 0.0, 0.0, 0.0, 1.7074747509009304E9, 0.0, 2024-02-09 11:32:30.900
160.0, -7029.757741660803, -13359.056515581193, 22170.896490919175, 1515.7164950032825, 47496.45113902702, 21051.40936987512, 37448.71615752175, 12387.82851550919, 35434.73457512076, 8253.58280582223, 39825.08657277663, 29147.680598220897, 41937.28172031423, 37018.556835479365, 31329.344967525598, 24688.529931131594, 0.074, 1.016, 0.128, 192.0, 0.0, 0.0, 0.0, 0.0, 0.0, 0.0, 0.0, 0.0, 0.0, 1.7074747509091403E9, 0.0, 2024-02-09 11:32:30.909
162.0, -6923.475196775818, -13302.685416064909, 22228.4969363805, 1508.9439164333246, 47813.77885505901, 21124.343112032784, 37596.88587151597, 12509.28789487933, 35695.28886023627, 8343.995612143948, 40108.953727359025, 29252.309114016192, 42218.15374113962, 37186.463139827625, 31451.296085273756, 24791.05738294809, 0.074, 1.016, 0.128, 192.0, 0.0, 0.0, 0.0, 0.0, 0.0, 0.0, 0.0, 0.0, 0.0, 1.7074747509169636E9, 0.0, 2024-02-09 11:32:30.916
164.0, -7065.833457211668, -13377.004966378805, 22149.841147642273, 1522.9137567178914, 47495.69117971554, 21045.77673027238, 37441.22832312922, 12392.097698700154, 35604.42901902545, 8287.78097483885, 40080.94699155653, 29207.605625105578, 42265.807660318336, 37151.370901032795, 31431.40303270853, 24803.86493252098, 0.074, 1.016, 0.128, 192.0, 0.0, 0.0, 0.0, 0.0, 0.0, 0.0, 0.0, 0.0, 0.0, 1.7074747509250076E9, 0.0, 2024-02-09 11:32:30.925
166.0, -6935.723952737326, -13299.332654396612, 22233.21315446057, 1507.3345908325423, 47680.204830194096, 21101.164353032633, 37536.98319637575, 12453.341478507697, 35493.81023571613, 8290.239666728934, 39858.0106923593, 29191.937052242407, 41902.14477803049, 37045.78126022593, 31344.097118866102, 24690.832160810492, 0.07200000000000001, 1.016, 0.13, 192.0, 1.0, 32.0, 15.5, 96.0, 2.0, 8.0, 0.0, 0.0, 0.0, 1.707474750932922E9, 0.0, 2024-02-09 11:32:30.932
168.0, -6997.839450578625, -13357.469541724866, 22186.877988204717, 1501.2772680851542, 47690.620743110274, 21078.41027717713, 37532.19992306232, 12456.694240175992, 35770.70364602848, 8330.003420114925, 40249.43444126063, 29261.02629435376, 42437.64787169074, 37239.70499512017, 31509.72354527993, 24852.92701160038, 0.07200000000000001, 1.016, 0.13, 192.0, 0.0, 0.0, 0.0, 0.0, 0.0, 0.0, 0.0, 0.0, 0.0, 1.7074747509409568E9, 0.0, 2024-02-09 11:32:30.940
170.0, -7028.0590090822, -13367.505474985299, 22176.842054944285, 1497.8798029279476, 47480.44728999702, 21033.2150498885, 37437.584988783005, 12369.455381566928, 35444.904618847926, 8249.626547053642, 39832.59675891361, 29154.430825046402, 41929.190388821415, 37012.052477842866, 31331.15545882648, 24686.495922386162, 0.07200000000000001, 1.016, 0.13, 192.0, 0.0, 0.0, 0.0, 0.0, 0.0, 0.0, 0.0, 0.0, 0.0, 1.707474750947925E9, 0.0, 2024-02-09 11:32:30.947
172.0, -6918.669571717927, -13314.196564459393, 22226.552334612887, 1485.832212666537, 47791.27064839252, 21105.61235017924, 37593.95779299233, 12499.073147663254, 35691.28789797877, 8333.825568416783, 40101.22002377749, 29242.11671854457, 42199.42297928607, 37169.87814544179, 31451.430195740486, 24778.29453686411, 0.07200000000000001, 1.016, 0.13, 192.0, 0.0, 0.0, 0.0, 0.0, 0.0, 0.0, 0.0, 0.0, 0.0, 1.7074747509569533E9, 0.0, 2024-02-09 11:32:30.956
174.0, -7065.453477555929, -13396.31687358819, 22132.920877089608, 1496.9186779163692, 47488.650380212115, 21027.850631219226, 37437.80850622756, 12377.390250848563, 35602.730286446844, 8282.170686980568, 40073.59326763073, 29192.048810964683, 42253.290683423365, 37140.59736020534, 31432.74413737585, 24787.77167651316, 0.07200000000000001, 1.016, 0.13, 192.0, 0.0, 0.0, 0.0, 0.0, 0.0, 0.0, 0.0, 0.0, 0.0, 1.7074747509650412E9, 0.0, 2024-02-09 11:32:30.965
176.0, -6930.270127090232, -13317.504622638777, 22204.088831435303, 1494.2364685817324, 47678.461394126585, 21102.12547804421, 37553.210562850305, 12463.55622572377, 35484.22133734481, 8280.315492190777, 39844.06320381918, 29182.48226433781, 41892.93585931491, 37030.24679782949, 31339.626769975042, 24680.796227550058, 0.07, 1.016, 0.124, 192.0, 1.0, 24.0, 15.5, 96.0, 1.5, 112.0, 0.0, 0.0, 0.0, 1.7074747509719892E9, 0.0, 2024-02-09 11:32:30.971
178.0, -6981.969712015357, -13354.027373078748, 22153.260964543937, 1497.2092505942883, 47681.747100561515, 21071.3247741848, 37543.24168482324, 12453.207368040965, 35770.61423905066, 8342.296879565345, 40240.69490917861, 29269.296439802223, 42427.25431051902, 37252.84782085989, 31498.27945211881, 24852.47997671127, 0.07, 1.016, 0.124, 192.0, 0.0, 0.0, 0.0, 0.0, 0.0, 0.0, 0.0, 0.0, 0.0, 1.7074747509800403E9, 0.0, 2024-02-09 11:32:30.980
180.0, -7015.184404275943, -13361.78342840474, 22146.689551674077, 1504.96530592028, 47473.38413874914, 21045.217936661, 37454.438204102305, 12387.917922487011, 35441.887133346456, 8271.01716649737, 39833.401421714, 29174.212118889347, 41925.16707481946, 37014.80174241087, 31320.560731954665, 24692.083858499987, 0.07, 1.016, 0.124, 192.0, 0.0, 0.0, 0.0, 0.0, 0.0, 0.0, 0.0, 0.0, 0.0, 1.7074747509890192E9, 0.0, 2024-02-09 11:32:30.989
182.0, -6900.944638364868, -13302.953636998373, 22216.739918797008, 1506.6193350099725, 47805.64282007728, 21119.269266041432, 37619.0811537601, 12520.799043273813, 35695.28886023627, 8351.282280836378, 40104.43867497906, 29276.22548058337, 42197.09839786273, 37181.16577639172, 31444.814079381715, 24793.069039949067, 0.07, 1.016, 0.124, 192.0, 0.0, 0.0, 0.0, 0.0, 0.0, 0.0, 0.0, 0.0, 0.0, 1.7074747509970095E9, 0.0, 2024-02-09 11:32:30.997
184.0, -7055.641061740049, -13386.79503045023, 22131.266847999912, 1516.2305851257545, 47487.73395868945, 21038.467709835495, 37461.210782672264, 12401.552486604749, 35612.07331562917, 8311.205603028013, 40081.57284040128, 29225.777593347742, 42262.49960213895, 37150.186258576665, 31437.259189755823, 24817.14186872743, 0.07, 1.016, 0.124, 192.0, 0.0, 0.0, 0.0, 0.0, 0.0, 0.0, 0.0, 0.0, 0.0, 1.7074747510041463E9, 0.0, 2024-02-09 11:32:31.004
186.0, -6928.593746256083, -13305.546439355188, 22221.009101987973, 1513.637782768939, 47673.54401034642, 21108.763946147435, 37563.492365299746, 12471.960481638967, 35477.38170354148, 8306.377626225665, 39850.52285796677, 29212.388898419013, 41892.22060349234, 37034.560684509364, 31351.048511391702, 24706.32191971802, 0.066, 1.016, 0.128, 192.0, 1.0, 8.0, 15.5, 96.0, 2.0, 0.0, 0.0, 0.0, 0.0, 1.7074747510130773E9, 0.0, 2024-02-09 11:32:31.013
188.0, -6982.19322945991, -13348.998230576306, 22179.680726490107, 1512.3413815905312, 47686.48567038604, 21075.9739370315, 37562.82181296609, 12472.251054316886, 35770.77070126185, 8353.36099307072, 40255.96115064158, 29289.59182376764, 42429.75770589802, 37251.03732955901, 31525.99561524339, 24877.938613645867, 0.066, 1.016, 0.128, 192.0, 0.0, 0.0, 0.0, 0.0, 0.0, 0.0, 0.0, 0.0, 0.0, 1.7074747510210764E9, 0.0, 2024-02-09 11:32:31.021
190.0, -7021.644058423527, -13363.21394004988, 22171.76820895293, 1513.1460443909223, 47478.368577762674, 21038.333599368765, 37453.857058746464, 12371.332928101174, 35450.15727879492, 8279.68964334603, 39841.202180528904, 29185.25388065027, 41934.17482783495, 37028.391603039694, 31341.146688598, 24699.54934114806, 0.066, 1.016, 0.128, 192.0, 0.0, 0.0, 0.0, 0.0, 0.0, 0.0, 0.0, 0.0, 0.0, 1.7074747510281172E9, 0.0, 2024-02-09 11:32:31.028
192.0, -6908.70069369086, -13310.866154535552, 22233.749596327496, 1501.9478204188133, 47802.200651431165, 21113.21194329404, 37615.5272263917, 12506.583333800238, 35687.71161886593, 8355.283243093878, 40101.823520877784, 29280.628774241064, 42195.39966528412, 37182.93156420369, 31454.827660897692, 24786.631737545937, 0.066, 1.016, 0.128, 192.0, 0.0, 0.0, 0.0, 0.0, 0.0, 0.0, 0.0, 0.0, 0.0, 1.707474751036125E9, 0.0, 2024-02-09 11:32:31.036
194.0, -7059.574968764183, -13384.783373449252, 22146.935420863083, 1511.827291468059, 47482.30248478681, 21022.10623289421, 37453.56648606855, 12383.805201507235, 35616.18603660894, 8310.132719294157, 40087.920735826585, 29235.254732996793, 42267.23817196348, 37147.816973664405, 31438.60029442314, 24801.361537141984, 0.066, 1.016, 0.128, 192.0, 0.0, 0.0, 0.0, 0.0, 0.0, 0.0, 0.0, 0.0, 0.0, 1.7074747510451367E9, 0.0, 2024-02-09 11:32:31.045
196.0, -6940.395467328485, -13318.264581950258, 22220.11503220976, 1498.5503552616067, 47656.28846362692, 21077.717373099014, 37557.50209778573, 12454.526120963827, 35482.18732859938, 8310.088015805248, 39846.49954396481, 29211.852456552086, 41891.12536801402, 37037.66757698865, 31337.43629901842, 24675.0741809695, 0.07200000000000001, 1.014, 0.134, 192.0, 1.0, 32.0, 15.5, 88.0, 2.0, 24.0, 0.0, 0.0, 0.0, 1.7074747510533683E9, 0.0, 2024-02-09 11:32:31.053
198.0, -6992.273866209253, -13360.419971992967, 22167.67783971761, 1498.05861688359, 47678.79667029341, 21059.679515323583, 37557.92678093038, 12467.020746114344, 35771.284791384314, 8355.864388449716, 40242.86302839077, 29281.813416697198, 42428.17073204169, 37244.46591668915, 31506.41548710054, 24847.20496501982, 0.07200000000000001, 1.014, 0.134, 192.0, 0.0, 0.0, 0.0, 0.0, 0.0, 0.0, 0.0, 0.0, 0.0, 1.7074747510601509E9, 0.0, 2024-02-09 11:32:31.060
200.0, -7030.696514927926, -13371.282919798246, 22147.15893830764, 1504.026532653157, 47461.15773453209, 21022.083881149756, 37448.135012165905, 12369.991823433857, 35441.64126415745, 8276.694509589019, 39838.967006083374, 29178.77187475823, 41935.135952846525, 37015.5840534668, 31318.95140635388, 24680.68446882778, 0.07200000000000001, 1.014, 0.134, 192.0, 0.0, 0.0, 0.0, 0.0, 0.0, 0.0, 0.0, 0.0, 0.0, 1.7074747510691416E9, 0.0, 2024-02-09 11:32:31.069
202.0, -6912.925173392913, -13310.30736092417, 22204.133534924214, 1506.1052448875005, 47787.26968613502, 21111.84848688227, 37608.41937165491, 12511.545421069315, 35685.789368842765, 8355.439705305065, 40102.40466623362, 29277.90186141752, 42182.77092966687, 37181.59045953637, 31436.476878699887, 24774.13711239542, 0.07200000000000001, 1.014, 0.134, 192.0, 0.0, 0.0, 0.0, 0.0, 0.0, 0.0, 0.0, 0.0, 0.0, 1.7074747510771573E9, 0.0, 2024-02-09 11:32:31.077
204.0, -7056.579835007172, -13387.398527550522, 22121.23091473948, 1517.6834485153495, 47483.196554565024, 21026.0624916628, 37456.65102680338, 12394.31052140123, 35613.19090285193, 8317.017056586392, 40094.15687252962, 29234.53947717422, 42265.83001206279, 37151.34854928834, 31429.3690239631, 24797.964071984778, 0.07200000000000001, 1.014, 0.134, 192.0, 0.0, 0.0, 0.0, 0.0, 0.0, 0.0, 0.0, 0.0, 0.0, 1.707474751084221E9, 0.0, 2024-02-09 11:32:31.084
206.0, -6931.834749202103, -13312.229610947325, 22201.76425001195, 1510.5532420341067, 47656.44492583811, 21093.385945962185, 37549.45546978182, 12454.950804108477, 35475.21358432932, 8306.39997797012, 39845.85134337561, 29211.204255962883, 41879.256591708254, 37025.21765532704, 31330.551961726185, 24676.92937575929, 0.07200000000000001, 1.018, 0.136, 192.0, 1.0, 32.0, 15.5, 104.0, 2.0, 32.0, 0.0, 0.0, 0.0, 1.7074747510921965E9, 0.0, 2024-02-09 11:32:31.092
208.0, -6989.681063852438, -13353.155655044993, 22161.352296036755, 1508.3851228219419, 47688.09499598682, 21063.054628736332, 37555.378682062474, 12468.250092059387, 35766.1438901596, 8358.3230803398, 40248.070984848855, 29288.541291778245, 42426.49435120754, 37245.31528297845, 31500.916957964535, 24847.987276075757, 0.07200000000000001, 1.018, 0.136, 192.0, 0.0, 0.0, 0.0, 0.0, 0.0, 0.0, 0.0, 0.0, 0.0, 1.7074747511012363E9, 0.0, 2024-02-09 11:32:31.101
210.0, -7036.887948142046, -13368.64541395252, 22158.44656925757, 1513.0789891575564, 47470.746632903414, 21027.582410285762, 37452.60536105697, 12378.30667237123, 35439.227275756275, 8278.214428211979, 39844.08555556364, 29173.07217992213, 41945.97654890735, 37011.359573764756, 31322.706499422373, 24683.031401995588, 0.07200000000000001, 1.018, 0.136, 192.0, 0.0, 0.0, 0.0, 0.0, 0.0, 0.0, 0.0, 0.0, 0.0, 1.7074747511093698E9, 0.0, 2024-02-09 11:32:31.109
212.0, -6913.238097815287, -13306.373453900034, 22226.150003212693, 1510.7097042452938, 47800.61367757484, 21115.022434594925, 37614.20847346884, 12515.076996693255, 35681.65429611853, 8359.552426284841, 40098.26959350939, 29268.02239036827, 42190.48228150395, 37174.48260479958, 31437.147431033547, 24767.9456791813, 0.07200000000000001, 1.018, 0.136, 192.0, 0.0, 0.0, 0.0, 0.0, 0.0, 0.0, 0.0, 0.0, 0.0, 1.707474751116233E9, 0.0, 2024-02-09 11:32:31.116
214.0, -7064.090021144155, -13394.394623565035, 22137.547688191855, 1514.1742246358663, 47492.58428723625, 21018.775822970372, 37450.169020911344, 12389.817820765713, 35629.99941468232, 8316.16769029709, 40092.97223007348, 29225.621131136555, 42281.096253525764, 37157.517630758004, 31429.88311408557, 24793.314909138073, 0.07200000000000001, 1.018, 0.136, 192.0, 0.0, 0.0, 0.0, 0.0, 0.0, 0.0, 0.0, 0.0, 0.0, 1.7074747511243336E9, 0.0, 2024-02-09 11:32:31.124
216.0, -6941.825978973625, -13320.075073251139, 22220.025625231938, 1507.602811766006, 47662.97163521906, 21083.41706793512, 37542.43702202285, 12454.280251774819, 35478.45458727534, 8305.640018658642, 39841.98449158484, 29202.956462258873, 41888.89019356849, 37027.85516117277, 31326.550999468687, 24673.55426234654, 0.07, 1.02, 0.132, 192.0, 1.0, 24.0, 15.5, 112.0, 2.0, 16.0, 0.0, 0.0, 0.0, 1.7074747511332924E9, 0.0, 2024-02-09 11:32:31.133
218.0, -6989.636360363527, -13351.635736422031, 22173.86927293173, 1502.9089454303917, 47687.8044233089, 21061.132378713177, 37550.95303666032, 12467.37837402563, 35766.5909250487, 8353.495103537452, 40250.61908371676, 29284.115646376093, 42434.16099955571, 37245.31528297845, 31498.212396885443, 24849.663656909903, 0.07, 1.02, 0.132, 192.0, 0.0, 0.0, 0.0, 0.0, 0.0, 0.0, 0.0, 0.0, 0.0, 1.7074747511402507E9, 0.0, 2024-02-09 11:32:31.140
220.0, -7028.908375371501, -13367.281957540747, 22161.419351270124, 1509.6591722558944, 47459.25783625339, 21024.654331762118, 37452.7394715237, 12375.423297336496, 35445.374005481484, 8281.276617202357, 39844.82316313066, 29179.4871305808, 41953.933769933436, 37017.6851174456, 31317.96792959785, 24685.065410741023, 0.07, 1.02, 0.132, 192.0, 0.0, 0.0, 0.0, 0.0, 0.0, 0.0, 0.0, 0.0, 0.0, 1.7074747511482773E9, 0.0, 2024-02-09 11:32:31.148
222.0, -6912.098158848066, -13298.751509040774, 22215.644683318696, 1500.383198306942, 47791.60592455935, 21109.79212639238, 37606.430066398396, 12493.596970271705, 35672.15480472503, 8355.015022160414, 40089.64182014964, 29265.18371882245, 42186.28015354635, 37166.190107606664, 31422.439983181954, 24765.15171112439, 0.07, 1.02, 0.132, 192.0, 0.0, 0.0, 0.0, 0.0, 0.0, 0.0, 0.0, 0.0, 0.0, 1.7074747511572883E9, 0.0, 2024-02-09 11:32:31.157
224.0, -7058.166808863499, -13390.907751430006, 22122.259094984423, 1511.2684978566765, 47486.973999377966, 21019.960465426502, 37461.009616972166, 12388.610826565127, 35627.4066123255, 8320.258059532413, 40097.152006286626, 29224.21297123587, 42286.348913472764, 37150.745052188046, 31421.92589305948, 24794.588958572025, 0.07, 1.02, 0.132, 192.0, 0.0, 0.0, 0.0, 0.0, 0.0, 0.0, 0.0, 0.0, 0.0, 1.7074747511642935E9, 0.0, 2024-02-09 11:32:31.164
226.0, -6935.835711459603, -13310.843802791096, 22204.938197724605, 1515.4035705809083, 47656.44492583811, 21093.251835495455, 37552.38354830546, 12454.123789563631, 35471.21262207182, 8302.39901571262, 39839.659910161485, 29206.53274137172, 41883.72694059932, 37028.45865827306, 31316.33625225261, 24676.50469261464, 0.074, 1.016, 0.128, 192.0, 1.0, 40.0, 15.5, 96.0, 2.0, 0.0, 0.0, 0.0, 0.0, 1.7074747511723962E9, 0.0, 2024-02-09 11:32:31.172
228.0, -6984.920142283457, -13345.556061930189, 22168.81777868483, 1523.4278468403634, 47701.23782172654, 21083.64058537967, 37571.67310377039, 12482.555208510783, 35760.4888988124, 8365.140362398668, 40249.99323487202, 29287.781332466762, 42424.39328722874, 37248.01984405754, 31498.078286418713, 24864.482863483772, 0.074, 1.016, 0.128, 192.0, 0.0, 0.0, 0.0, 0.0, 0.0, 0.0, 0.0, 0.0, 0.0, 1.7074747511803558E9, 0.0, 2024-02-09 11:32:31.180
230.0, -7036.865596397591, -13360.822303393163, 22156.300801789857, 1529.1275416764668, 47467.14800204611, 21055.611497832717, 37478.66749509186, 12405.061710484233, 35439.987235067754, 8291.804288840805, 39845.49371546432, 29174.189767144893, 41954.17963912245, 37018.556835479365, 31330.931941381925, 24712.848629098968, 0.074, 1.016, 0.128, 192.0, 0.0, 0.0, 0.0, 0.0, 0.0, 0.0, 0.0, 0.0, 0.0, 1.7074747511893709E9, 0.0, 2024-02-09 11:32:31.189
232.0, -6916.389693783485, -13311.380244658023, 22221.232619432525, 1519.6727537718718, 47797.68559905119, 21137.84356568379, 37636.15788652395, 12533.807758546802, 35668.109138978616, 8353.204530859533, 40078.86827932218, 29258.657009441496, 42175.953647608, 37186.9772299501, 31438.80146012324, 24795.32656613905, 0.074, 1.016, 0.128, 192.0, 0.0, 0.0, 0.0, 0.0, 0.0, 0.0, 0.0, 0.0, 0.0, 1.7074747511963964E9, 0.0, 2024-02-09 11:32:31.196
234.0, -7065.855808956124, -13392.159449119503, 22130.819813110807, 1518.0187246821793, 47481.16254581959, 21036.947791212537, 37466.530497852626, 12399.004387736844, 35620.16464712199, 8317.240574030946, 40095.90030859713, 29222.73775610182, 42288.94171582958, 37169.006427408036, 31434.398166465544, 24818.684139094847, 0.074, 1.016, 0.128, 192.0, 0.0, 0.0, 0.0, 0.0, 0.0, 0.0, 0.0, 0.0, 0.0, 1.707474751204411E9, 0.0, 2024-02-09 11:32:31.204
236.0, -6952.487761078806, -13321.282067451724, 22211.151982683183, 1508.8768611999585, 47649.29236761241, 21102.0807745553, 37554.86459194, 12458.907062877068, 35457.55570620963, 8303.248382001922, 39822.98550879783, 29188.003145218274, 41868.2818851807, 37033.84542868679, 31321.074822077135, 24679.745695560658, 0.074, 1.016, 0.13, 192.0, 1.0, 40.0, 15.5, 96.0, 2.0, 16.0, 0.0, 0.0, 0.0, 1.7074747512124546E9, 0.0, 2024-02-09 11:32:31.212
238.0, -7001.594543647117, -13366.209073806891, 22173.556348509355, 1502.3278000745536, 47693.63822861174, 21079.70667835554, 37571.315475859104, 12477.727231708435, 35760.15362264557, 8359.75359198494, 40227.90971135017, 29265.049608355715, 42415.340830724344, 37252.35608248187, 31496.670126518027, 24857.10678781352, 0.074, 1.016, 0.13, 192.0, 0.0, 0.0, 0.0, 0.0, 0.0, 0.0, 0.0, 0.0, 0.0, 1.7074747512204547E9, 0.0, 2024-02-09 11:32:31.220
240.0, -7047.527378502772, -13382.257626325802, 22158.267755301924, 1501.6348959964391, 47456.843847852215, 21028.476480063975, 37460.56258208306, 12379.223093893897, 35434.04167104264, 8268.4020123961, 39825.93593906593, 29147.43472903189, 41945.21658959587, 37005.481064973006, 31313.363470240056, 24694.497846901162, 0.074, 1.016, 0.13, 192.0, 0.0, 0.0, 0.0, 0.0, 0.0, 0.0, 0.0, 0.0, 0.0, 1.7074747512284422E9, 0.0, 2024-02-09 11:32:31.228
242.0, -6926.492682277284, -13321.147956984993, 22218.81863103135, 1488.3579597899866, 47789.0801774359, 21113.949550861067, 37616.51070314774, 12509.109080923687, 35665.42692964398, 8334.719638194996, 40061.18804945803, 29237.087576042126, 42166.811784125784, 37153.20374407813, 31420.02599478078, 24770.0467431601, 0.074, 1.016, 0.13, 192.0, 0.0, 0.0, 0.0, 0.0, 0.0, 0.0, 0.0, 0.0, 0.0, 1.707474751236684E9, 0.0, 2024-02-09 11:32:31.236
244.0, -7073.254236370831, -13403.983521936361, 22128.09290028726, 1493.409454036886, 47493.09837735872, 21027.15772714111, 37455.51108783616, 12387.40383236454, 35634.24624612883, 8296.811079598794, 40080.2093839895, 29198.97785174583, 42286.41596870613, 37148.68869169816, 31419.377794191576, 24795.214807416774, 0.074, 1.016, 0.13, 192.0, 0.0, 0.0, 0.0, 0.0, 0.0, 0.0, 0.0, 0.0, 0.0, 1.7074747512454712E9, 0.0, 2024-02-09 11:32:31.245
246.0, -6950.990194200301, -13323.517241897254, 22211.86723850575, 1496.9410296608246, 47653.82977173683, 21093.8776843402, 37550.483650026756, 12461.566920467249, 35463.38951151246, 8289.2561899729, 39813.55307263769, 29176.3355346126, 41874.96505677284, 37019.249739557476, 31314.034022573713, 24669.687410555773, 0.076, 1.016, 0.129, 192.0, 1.0, 56.0, 15.5, 96.0, 2.0, 0.0, 0.0, 0.0, 0.0, 1.707474751252464E9, 0.0, 2024-02-09 11:32:31.252
248.0, -6993.056177265189, -13350.048762565704, 22182.094714891282, 1510.7320559897491, 47708.97152530808, 21093.832980851294, 37583.58658356507, 12492.412327815573, 35758.32077960024, 8362.189932130568, 40229.36257473977, 29261.249811798312, 42416.30195573592, 37241.42607944323, 31501.22988238691, 24858.49259596975, 0.076, 1.016, 0.129, 192.0, 0.0, 0.0, 0.0, 0.0, 0.0, 0.0, 0.0, 0.0, 0.0, 1.707474751260503E9, 0.0, 2024-02-09 11:32:31.260
250.0, -7038.027887109267, -13363.772733661262, 22165.62147922772, 1530.155721921411, 47470.612522436684, 21057.35493390023, 37471.15730895488, 12394.466983612418, 35439.24962750073, 8280.181381724045, 39835.346023481616, 29166.210194374347, 41941.32738606064, 37031.16321935216, 31329.322615781144, 24711.284006987098, 0.076, 1.016, 0.129, 192.0, 0.0, 0.0, 0.0, 0.0, 0.0, 0.0, 0.0, 0.0, 0.0, 1.7074747512685037E9, 0.0, 2024-02-09 11:32:31.268
252.0, -6919.049551373667, -13305.792308544196, 22231.82734630434, 1525.126579418967, 47803.877032265314, 21138.737635462003, 37630.480543432306, 12528.309229410796, 35659.72723480788, 8351.014059902915, 40056.06949997777, 29259.662837941985, 42145.62233038215, 37175.64489551126, 31433.63820715406, 24788.084600935534, 0.076, 1.016, 0.129, 192.0, 0.0, 0.0, 0.0, 0.0, 0.0, 0.0, 0.0, 0.0, 0.0, 1.707474751276535E9, 0.0, 2024-02-09 11:32:31.276
254.0, -7067.06280315671, -13385.208056593903, 22150.779920909397, 1535.5871958240505, 47513.192595624045, 21043.206279660022, 37485.551832384095, 12417.109300745644, 35626.46783905838, 8322.403827000122, 40096.25793650841, 29226.649311381498, 42278.235230235485, 37168.26881984101, 31444.92583810399, 24828.85418282201, 0.076, 1.016, 0.129, 192.0, 0.0, 0.0, 0.0, 0.0, 0.0, 0.0, 0.0, 0.0, 0.0, 1.7074747512844925E9, 0.0, 2024-02-09 11:32:31.284
0.0, -6941.580109784617, -13307.982779500817, 22237.3482271848, 1534.6707743013828, 47666.61496956527, 21118.822231152324, 37559.46905129779, 12468.473609503939, 35465.669389446906, 8310.3115332498, 39821.93497680843, 29199.648404079486, 41858.87180076502, 37039.38866131171, 31330.931941381925, 24694.922530045813, 0.07300000000000001, 1.017, 0.1285, 192.0, 1.0, 24.0, 15.5, 104.0, 2.0, 0.0, 0.0, 0.0, 0.0, 1.70747475129251E9, 0.0, 2024-02-09 11:32:31.292
2.0, -6977.90169452449, -13342.40446596199, 22197.584473798808, 1529.7533905212154, 47719.11921729079, 21105.634701923693, 37579.31740037411, 12501.911819209077, 35773.69877978549, 8373.23169389149, 40243.13124932424, 29285.613213254597, 42413.48563593455, 37254.077166804935, 31509.65649004656, 24871.367200776007, 0.07300000000000001, 1.017, 0.1285, 192.0, 0.0, 0.0, 0.0, 0.0, 0.0, 0.0, 0.0, 0.0, 0.0, 1.707474751301548E9, 0.0, 2024-02-09 11:32:31.301
4.0, -7031.948212617423, -13363.348050516612, 22169.600089740765, 1524.63484104095, 47469.360824747186, 21055.186814688066, 37464.96587574075, 12401.351320904652, 35449.41967122789, 8296.811079598794, 39850.79107890023, 29173.87684272252, 41950.022214653756, 37044.26134160296, 31334.463517005865, 24717.006053567657, 0.07300000000000001, 1.017, 0.1285, 192.0, 0.0, 0.0, 0.0, 0.0, 0.0, 0.0, 0.0, 0.0, 0.0, 1.7074747513075716E9, 0.0, 2024-02-09 11:32:31.307
6.0, -6908.879507646502, -13302.39484338699, 22224.987712501017, 1502.3725035634643, 47797.48443335109, 21122.46556549854, 37614.029659513195, 12524.062397964288, 35667.684455833965, 8360.93823444107, 40062.12682272516, 29252.64439018302, 42147.25400772739, 37158.67992146968, 31422.84231458215, 24780.037972931623, 0.07300000000000001, 1.017, 0.1285, 192.0, 0.0, 0.0, 0.0, 0.0, 0.0, 0.0, 0.0, 0.0, 0.0, 1.7074747513165717E9, 0.0, 2024-02-09 11:32:31.316
8.0, -7063.307710088219, -13389.544295018231, 22138.017074825417, 1505.3005820871094, 47506.285906587356, 21025.101366651223, 37457.45568960377, 12394.69050105697, 35640.88471423205, 8309.17159428258, 40098.1131312982, 29214.22174146435, 42285.454843694555, 37150.186258576665, 31423.93755006046, 24804.37902264345, 0.07300000000000001, 1.017, 0.1285, 192.0, 0.0, 0.0, 0.0, 0.0, 0.0, 0.0, 0.0, 0.0, 0.0, 1.7074747513245833E9, 0.0, 2024-02-09 11:32:31.324
