%OpenBCI Raw EXG Data
%Number of channels = 16
%Sample Rate = 125 Hz
%Board = OpenBCI_GUI$BoardCytonSerialDaisy
Sample Index, EXG Channel 0, EXG Channel 1, EXG Channel 2, EXG Channel 3, EXG Channel 4, EXG Channel 5, EXG Channel 6, EXG Channel 7, EXG Channel 8, EXG Channel 9, EXG Channel 10, EXG Channel 11, EXG Channel 12, EXG Channel 13, EXG Channel 14, EXG Channel 15, Accel Channel 0, Accel Channel 1, Accel Channel 2, Other, Other, Other, Other, Other, Other, Other, Analog Channel 0, Analog Channel 1, Analog Channel 2, Timestamp, Other, Timestamp (Formatted)
52.0, -16363.488598285747, -11220.888640986519, 16133.24327865163, -2316.668905814756, 46655.46675389609, 17548.131054417023, 34475.174185654425, 9251.342326562683, 30275.393161224507, 6490.767775865528, 39340.12077332983, 28782.31898335445, 40127.25980606792, 34318.68962272282, 28899.598586511445, 24927.335968892097, 0.0, 0.0, 0.0, 192.0, 0.0, 0.0, 0.0, 0.0, 0.0, 0.0, 0.0, 0.0, 0.0, 1.7074743216740708E9, 0.0, 2024-02-09 11:25:21.674
54.0, -16393.931674233874, -11234.277335915249, 16096.653472978292, -2309.2704784000493, 46341.04476464329, 17461.78626558617, 34310.397125529904, 9094.723653164347, 30027.89229487089, 6434.530786815976, 39052.52087742339, 28691.570900865903, 39849.22645678836, 34141.39558570333, 28765.577526757424, 24816.560723371593, 0.0, 0.0, 0.0, 192.0, 0.0, 0.0, 0.0, 0.0, 0.0, 0.0, 0.0, 0.0, 0.0, 1.7074743216741147E9, 0.0, 2024-02-09 11:25:21.674
0.0, -7699.907743919819, -5904.6379810140115, 8168.914397825528, -1082.629094437253, 23379.76823804, 8804.910934556834, 17267.370792313908, 4780.658159334441, 15004.837811569907, 3225.6696493231834, 19469.978746173234, 14357.866568311045, 19808.92059909351, 17047.228461173592, 14356.994850277288, 12358.503026783828, 0.064, 0.499, 0.08, 192.0, 2.0, 0.0, 15.5, 24.0, 2.5, 0.0, 0.0, 0.0, 0.0, 1.7074743217761228E9, 0.0, 2024-02-09 11:25:21.776
2.0, -15437.187604568911, -11826.91148840326, 16293.237065462718, -2161.704261506112, 46443.08047808176, 17521.778347704214, 34364.24247792274, 9423.763683290921, 30313.122905865064, 6915.026237371712, 39152.3437681608, 28870.407208252815, 40070.35226468471, 34245.08532823149, 28749.126642838317, 24854.692799412347, 0.064, 0.499, 0.08, 192.0, 0.0, 0.0, 0.0, 0.0, 0.0, 0.0, 0.0, 0.0, 0.0, 1.7074743217830846E9, 0.0, 2024-02-09 11:25:21.783
4.0, -15364.276214155701, -11777.715298857129, 16382.934615961865, -2173.617741300791, 46719.48215001609, 17587.134848491532, 34521.531703654735, 9528.97334444205, 30295.889710890024, 6929.018429400734, 39034.0136330144, 28888.176845094782, 39817.866959317565, 34186.3672955474, 28696.8235608129, 24745.1916033258, 0.064, 0.499, 0.08, 192.0, 0.0, 0.0, 0.0, 0.0, 0.0, 0.0, 0.0, 0.0, 0.0, 1.7074743217900345E9, 0.0, 2024-02-09 11:25:21.790
6.0, -15421.116700305547, -11812.29344752949, 16323.344865244017, -2167.3369011088494, 46636.534826342446, 17525.779309961716, 34479.91275547895, 9492.182373068616, 30504.543245380315, 6946.698659264882, 39393.11675943336, 28935.026101473108, 40330.303052699936, 34366.23178317926, 28864.61810643889, 24942.579858610614, 0.064, 0.499, 0.08, 192.0, 0.0, 0.0, 0.0, 0.0, 0.0, 0.0, 0.0, 0.0, 0.0, 1.707474321799085E9, 0.0, 2024-02-09 11:25:21.799
8.0, -15400.821316340127, -11792.132174030803, 16346.724789944266, -2164.207656885106, 46508.168757935615, 17503.8298969066, 34415.45032446984, 9421.349694889748, 30184.10863686903, 6886.416004468919, 38940.292768513296, 28840.52292591607, 39751.6834439854, 34113.83588478993, 28660.993714451044, 24714.435602955295, 0.122, 1.006, 0.162, 192.0, 1.5, 104.0, 15.5, 56.0, 2.5, 8.0, 0.0, 0.0, 0.0, 1.7074743218061075E9, 0.0, 2024-02-09 11:25:21.806
10.0, -15367.293699657166, -11772.440287165677, 16384.00749969572, -2162.575979539869, 46809.067941792964, 17565.833636025625, 34555.59576220462, 9559.863455279286, 30488.159416694572, 6953.448886090385, 39312.87399683881, 28941.329293409504, 40157.255847126944, 34331.13954438443, 28840.858202082898, 24882.386610792473, 0.122, 1.006, 0.162, 192.0, 0.0, 0.0, 0.0, 0.0, 0.0, 0.0, 0.0, 0.0, 0.0, 1.7074743218142836E9, 0.0, 2024-02-09 11:25:21.814
12.0, -15412.198354267879, -11794.970845576627, 16319.27684775315, -2133.7422291925227, 46448.48960023995, 17483.1768850299, 34354.76533827369, 9408.519793572403, 30322.175362369464, 6908.834804157592, 39164.27959969993, 28878.923222890287, 40063.244409947925, 34230.62374956891, 28771.50073903808, 24853.798729634134, 0.122, 1.006, 0.162, 192.0, 0.0, 0.0, 0.0, 0.0, 0.0, 0.0, 0.0, 0.0, 0.0, 1.707474321823139E9, 0.0, 2024-02-09 11:25:21.823
14.0, -15332.000295162237, -11741.684286795175, 16404.302883661137, -2133.585766981336, 46725.651231485754, 17583.37975542304, 34500.901043522485, 9508.320332565349, 30306.529141250747, 6945.268147619742, 39054.73370012447, 28910.930920950286, 39798.80092129719, 34200.00185966514, 28720.24818900206, 24763.72119947925, 0.122, 1.006, 0.162, 192.0, 0.0, 0.0, 0.0, 0.0, 0.0, 0.0, 0.0, 0.0, 0.0, 1.707474321830165E9, 0.0, 2024-02-09 11:25:21.830
16.0, -15389.734851090296, -11785.180781505202, 16332.03969383713, -2131.618813469269, 46624.53193956995, 17544.08538867061, 34411.33760349007, 9464.555616921856, 30518.356623453692, 6960.690851293904, 39418.48598939014, 28953.131014481907, 40307.66073556671, 34389.3658386905, 28870.42955999727, 24968.686696134413, 0.122, 1.006, 0.162, 192.0, 0.0, 0.0, 0.0, 0.0, 0.0, 0.0, 0.0, 0.0, 0.0, 1.7074743218381505E9, 0.0, 2024-02-09 11:25:21.838
18.0, -15372.99339449327, -11773.468467410621, 16350.345772546027, -2126.8578919002885, 46496.16587116312, 17558.9940022223, 34366.56705934609, 9425.730636802988, 30201.386535332986, 6900.631713942495, 38964.4997077584, 28857.666713913288, 39727.185932062384, 34144.12249852687, 28665.419359853193, 24760.301382577585, 0.108, 1.044, 0.166, 192.0, 1.5, 48.0, 16.0, 80.0, 2.5, 24.0, 0.0, 0.0, 0.0, 1.7074743218461876E9, 0.0, 2024-02-09 11:25:21.846
20.0, -15346.216004635813, -11758.202225947647, 16383.202836895329, -2130.8365024133327, 46796.81918583145, 17641.53899449575, 34510.467590149354, 9544.373696371758, 30503.649175602102, 6969.095107209099, 39338.131468073305, 28960.14946224087, 40136.155800361135, 34373.47374838278, 28844.970923062676, 24924.36318687954, 0.108, 1.044, 0.166, 192.0, 0.0, 0.0, 0.0, 0.0, 0.0, 0.0, 0.0, 0.0, 0.0, 1.7074743218551679E9, 0.0, 2024-02-09 11:25:21.855
22.0, -15409.71731063334, -11795.61904616583, 16312.839545350022, -2121.225252297551, 46432.262233765396, 17551.349705618584, 34304.943299882805, 9368.957205886509, 30333.284179363753, 6919.094254862578, 39179.858765585275, 28890.322612562493, 40053.40964238759, 34270.141633765896, 28777.826282718932, 24878.989145635267, 0.108, 1.044, 0.166, 192.0, 0.0, 0.0, 0.0, 0.0, 0.0, 0.0, 0.0, 0.0, 0.0, 1.7074743218621595E9, 0.0, 2024-02-09 11:25:21.862
24.0, -15345.433693579876, -11753.776580545495, 16392.076479444084, -2145.320432820372, 46699.11971081731, 17621.891811119534, 34430.44834499936, 9442.650907355655, 30308.04905987371, 6931.812397457647, 39046.217685487, 28903.733659235677, 39788.76498803675, 34207.44499056876, 28722.170439025216, 24761.128397122433, 0.108, 1.044, 0.166, 192.0, 0.0, 0.0, 0.0, 0.0, 0.0, 0.0, 0.0, 0.0, 0.0, 1.7074743218702106E9, 0.0, 2024-02-09 11:25:21.870
26.0, -15398.899066316972, -11790.165220518735, 16331.212679292285, -2144.2251973420616, 46621.290936623926, 17563.151426690987, 34388.58352763457, 9379.61898799169, 30526.738527624435, 6939.367287083542, 39411.73576256463, 28940.01054048664, 40317.27198568249, 34381.45332115333, 28887.461589272214, 24948.436015657906, 0.108, 1.044, 0.166, 192.0, 0.0, 0.0, 0.0, 0.0, 0.0, 0.0, 0.0, 0.0, 0.0, 1.707474321879218E9, 0.0, 2024-02-09 11:25:21.879
28.0, -15387.097345244569, -11777.938816301683, 16344.131987587452, -2153.3000055909165, 46487.426339081096, 17541.42553108043, 34336.25809386469, 9291.97779798243, 30219.55850357515, 6880.984530566279, 38962.577457735235, 28851.028245810063, 39745.782583449196, 34133.97480654417, 28684.44069438466, 24711.50752443165, 0.1, 1.036, 0.176, 192.0, 1.5, 16.0, 16.0, 48.0, 2.5, 64.0, 0.0, 0.0, 0.0, 1.707474321886222E9, 0.0, 2024-02-09 11:25:21.886
30.0, -15360.342307131566, -11764.505417884044, 16364.315612830595, -2169.3262063653715, 46793.28761020752, 17597.77427885226, 34482.97494446933, 9393.544124787346, 30515.339137952225, 6928.437284044896, 39331.11302031434, 28941.172831198317, 40151.22087612401, 34340.99666368922, 28852.548164433025, 24853.39639823394, 0.1, 1.036, 0.176, 192.0, 0.0, 0.0, 0.0, 0.0, 0.0, 0.0, 0.0, 0.0, 0.0, 1.7074743218942451E9, 0.0, 2024-02-09 11:25:21.894
32.0, -15421.608438683563, -11797.831868866906, 16291.13600148392, -2158.306796348905, 46440.62178619168, 17515.653969723462, 34304.22804406024, 9236.389009522081, 30342.00135970132, 6871.1721147503995, 39175.92485856114, 28868.84258614094, 40057.18708720054, 34243.073671230515, 28775.50170129558, 24810.77162155767, 0.1, 1.036, 0.176, 192.0, 0.0, 0.0, 0.0, 0.0, 0.0, 0.0, 0.0, 0.0, 0.0, 1.7074743219023807E9, 0.0, 2024-02-09 11:25:21.902
34.0, -15347.445350580854, -11754.4247811347, 16371.62463326748, -2168.8791714762656, 46721.136179105786, 17599.025976541758, 34456.35401682306, 9337.84357760472, 30312.698222720413, 6904.766786666726, 39051.850325089734, 28890.65788872932, 39787.088607202604, 34198.50429278664, 28729.367700739826, 24718.816544868536, 0.1, 1.036, 0.176, 192.0, 0.0, 0.0, 0.0, 0.0, 0.0, 0.0, 0.0, 0.0, 0.0, 1.7074743219112744E9, 0.0, 2024-02-09 11:25:21.911
36.0, -15406.252790242766, -11793.3838717203, 16309.12915577044, -2165.4370028301482, 46638.32296589887, 17545.38178984902, 34399.35706846203, 9299.152707952584, 30517.50725716439, 6924.503377020762, 39412.22750094265, 28931.15924968234, 40309.381819889764, 34385.700152599835, 28884.53351074857, 24908.672262271913, 0.1, 1.036, 0.176, 192.0, 0.0, 0.0, 0.0, 0.0, 0.0, 0.0, 0.0, 0.0, 0.0, 1.7074743219182675E9, 0.0, 2024-02-09 11:25:21.918
38.0, -15386.247978955267, -11774.518999400021, 16342.433255008847, -2148.829656699855, 46518.249394684964, 17563.66551681346, 34358.766300531184, 9290.860210759665, 30203.956985945344, 6873.183771751377, 38963.0468443688, 28847.51902193058, 39740.5299235022, 34149.37515847387, 28674.762389035513, 24695.615434123927, 0.1, 1.01, 0.17400000000000002, 192.0, 1.5, 16.0, 15.5, 72.0, 2.5, 56.0, 0.0, 0.0, 0.0, 1.707474321926302E9, 0.0, 2024-02-09 11:25:21.926
40.0, -15360.118789687014, -11769.646319108764, 16377.972528692786, -2162.7100900066007, 46832.26905253757, 17617.935552350948, 34513.1945029729, 9414.957095975531, 30502.665698846067, 6944.061153419156, 39346.736889688604, 28957.847232561977, 40161.34621636227, 34364.309533156105, 28867.389722751348, 24872.708305443324, 0.1, 1.01, 0.17400000000000002, 192.0, 0.0, 0.0, 0.0, 0.0, 0.0, 0.0, 0.0, 0.0, 0.0, 1.707474321936275E9, 0.0, 2024-02-09 11:25:21.936
42.0, -15456.097180378101, -11844.323497333944, 16304.725862112746, -2162.955959195609, 46469.41083305012, 17514.625789478516, 34319.918968667866, 9243.139236347584, 30328.076222905664, 6875.865981086014, 39190.74406513501, 28868.328496018472, 40083.875070080176, 34248.4827933887, 28785.805855489478, 24819.980540273256, 0.1, 1.01, 0.17400000000000002, 192.0, 0.0, 0.0, 0.0, 0.0, 0.0, 0.0, 0.0, 0.0, 0.0, 1.7074743219423347E9, 0.0, 2024-02-09 11:25:21.942
44.0, -15444.474273261343, -11839.182596109224, 16389.796601509643, -2178.222200658584, 46747.80181024096, 17611.29708424772, 34468.44631057338, 9379.641339736145, 30278.0977223036, 6880.202219510344, 39041.166191240096, 28866.47330122868, 39815.07299126065, 34184.04271412405, 28737.16845955473, 24715.106155288955, 0.1, 1.01, 0.17400000000000002, 192.0, 0.0, 0.0, 0.0, 0.0, 0.0, 0.0, 0.0, 0.0, 0.0, 1.707474321950304E9, 0.0, 2024-02-09 11:25:21.950
46.0, -15548.78986463426, -11942.134731070368, 16323.858955366488, -2182.2455146605394, 46680.72422513059, 17568.292327915708, 34433.91286538993, 9373.829886177766, 30460.107977403164, 6884.337292234575, 39390.434550098726, 28900.135028378372, 40345.189314507166, 34373.451396638324, 28912.562598295524, 24920.876314744513, 0.1, 1.01, 0.17400000000000002, 192.0, 0.0, 0.0, 0.0, 0.0, 0.0, 0.0, 0.0, 0.0, 0.0, 1.7074743219583275E9, 0.0, 2024-02-09 11:25:21.958
48.0, -15641.214327956955, -12019.337656418998, 16315.320588984561, -2208.955849284631, 46523.12207497622, 17521.37601630402, 34370.90329777042, 9268.709632004457, 30118.81919131508, 6785.184953830833, 38909.08973325369, 28770.539614026504, 39754.76798472023, 34108.09148646492, 28689.49218863156, 24675.588271091972, 0.09, 1.016, 0.17200000000000001, 192.0, 1.0, 104.0, 15.5, 96.0, 2.5, 48.0, 0.0, 0.0, 0.0, 1.7074743219674137E9, 0.0, 2024-02-09 11:25:21.967
50.0, -15715.623285248672, -12038.783674095115, 16331.592658948024, -2236.515550198025, 46823.037782077525, 17563.330240646632, 34507.6959738369, 9383.99992990493, 30381.362781687116, 6795.109128368989, 39245.32702509487, 28838.690082870733, 40148.40455632265, 34292.6945439213, 28843.249838739615, 24794.365441127473, 0.09, 1.016, 0.17200000000000001, 192.0, 0.0, 0.0, 0.0, 0.0, 0.0, 0.0, 0.0, 0.0, 0.0, 1.7074743219733353E9, 0.0, 2024-02-09 11:25:21.973
52.0, -15914.844383578824, -12026.37845592242, 16252.847463231978, -2239.10835255484, 46445.7626874164, 17464.64728887645, 34294.460331733266, 9229.772893163312, 30194.904529440944, 6677.874228700904, 39093.804549432345, 28745.17038406973, 40076.07431126527, 34183.461568768216, 28759.810776687955, 24748.343199293995, 0.09, 1.016, 0.17200000000000001, 192.0, 0.0, 0.0, 0.0, 0.0, 0.0, 0.0, 0.0, 0.0, 0.0, 1.7074743219823449E9, 0.0, 2024-02-09 11:25:21.982
54.0, -16035.32028619293, -11933.2163850327, 16330.743292658723, -2255.6262917073122, 46710.832024911884, 17552.355534119073, 34443.97115039482, 9339.922289839065, 30127.82694433057, 6627.694562398739, 38923.75247761637, 28740.54357296748, 39787.46858685835, 34120.116724981875, 28687.704049075135, 24622.771098944082, 0.09, 1.016, 0.17200000000000001, 192.0, 0.0, 0.0, 0.0, 0.0, 0.0, 0.0, 0.0, 0.0, 0.0, 1.707474321990456E9, 0.0, 2024-02-09 11:25:21.990
56.0, -16341.114502085986, -11986.391185091876, 16267.867835505944, -2251.7817916609993, 46621.17917790165, 17506.3332922856, 34376.737103073254, 9279.952559465475, 30321.99654841382, 6567.3001488805, 39273.82549927539, 28789.248024135595, 40319.84243629485, 34318.82373318955, 28856.95145809072, 24815.130211726453, 0.09, 1.016, 0.17200000000000001, 192.0, 0.0, 0.0, 0.0, 0.0, 0.0, 0.0, 0.0, 0.0, 0.0, 1.7074743219983823E9, 0.0, 2024-02-09 11:25:21.998
58.0, -16623.417034556514, -12012.855650526959, 16291.31481543956, -2244.025736335008, 46479.20089712154, 17520.861926181547, 34323.02586114715, 9253.242224841384, 29980.797169303558, 6358.758373112485, 38812.843121629136, 28701.15979923723, 39756.71258648784, 34085.94090770971, 28644.922810187676, 24588.77409562756, 0.09, 1.018, 0.166, 192.0, 1.0, 104.0, 15.5, 104.0, 2.5, 24.0, 0.0, 0.0, 0.0, 1.7074743220064394E9, 0.0, 2024-02-09 11:25:22.006
60.0, -16831.444720202056, -12168.714364613816, 16321.355559987494, -2262.667091210734, 46795.16515674176, 17591.0017002823, 34487.691162549396, 9423.070779212807, 30257.891745316, 6171.4284028325565, 39172.34857944829, 28802.90493999779, 40161.79325125137, 34296.85196838999, 28841.484050927647, 24757.485062776217, 0.09, 1.018, 0.166, 192.0, 0.0, 0.0, 0.0, 0.0, 0.0, 0.0, 0.0, 0.0, 0.0, 1.7074743220144389E9, 0.0, 2024-02-09 11:25:22.014
62.0, -17075.592824887375, -12353.607994748116, 16255.194396399786, -2254.1734283177175, 46433.53628319935, 17498.71134742634, 34300.91998588085, 9280.444297843493, 30064.057417399577, 5808.681942067378, 39024.08945847624, 28733.100442063864, 40095.31916324129, 34208.8755022139, 28778.116855396853, 24720.850553613967, 0.09, 1.018, 0.166, 192.0, 0.0, 0.0, 0.0, 0.0, 0.0, 0.0, 0.0, 0.0, 0.0, 1.7074743220234468E9, 0.0, 2024-02-09 11:25:22.023
64.0, -17105.454755479666, -12420.752635091858, 16346.52362424417, -2267.986806391097, 46724.779513452, 17587.358365936085, 34460.57849652511, 9427.96581124852, 29998.633861378894, 5443.968527790133, 38877.64082880507, 28746.623247459323, 39817.62109012855, 34147.11763228389, 28729.658273417746, 24608.376575514863, 0.09, 1.018, 0.166, 192.0, 0.0, 0.0, 0.0, 0.0, 0.0, 0.0, 0.0, 0.0, 0.0, 1.7074743220296423E9, 0.0, 2024-02-09 11:25:22.029
66.0, -17282.748792499162, -12546.10121799722, 16270.661803562858, -2284.281228099016, 46658.39483241973, 17534.60824902156, 34411.89639710145, 9417.348732632248, 30172.06104660762, 5038.507883370863, 39238.57679826937, 28792.489027081614, 40353.95119833365, 34331.18424787334, 28906.929958692785, 24811.86685703598, 0.09, 1.018, 0.166, 192.0, 0.0, 0.0, 0.0, 0.0, 0.0, 0.0, 0.0, 0.0, 0.0, 1.707474322038472E9, 0.0, 2024-02-09 11:25:22.038
68.0, -17331.654409367373, -12518.653275806104, 16282.396469401894, -2283.5212687875355, 46507.609964324234, 17526.02517915072, 34334.872285708465, 9391.264246852905, 29773.104759824844, 4607.096863638981, 38753.52159184475, 28687.5699386084, 39770.54831630568, 34088.153730410784, 28693.6719648447, 24585.890720592826, 0.094, 1.01, 0.164, 192.0, 1.0, 120.0, 15.5, 72.0, 2.5, 16.0, 0.0, 0.0, 0.0, 1.707474322046468E9, 0.0, 2024-02-09 11:25:22.046
70.0, -17354.542595689607, -12483.829257944735, 16306.961036558276, -2298.40753059477, 46816.73459014113, 17587.827752569647, 34486.88649974901, 9548.732286540542, 30015.42002146483, 4374.661073048243, 39102.63348849219, 28780.93317519822, 40156.18296339309, 34304.20569231578, 28864.215775038694, 24740.94477187929, 0.094, 1.01, 0.164, 192.0, 0.0, 0.0, 0.0, 0.0, 0.0, 0.0, 0.0, 0.0, 0.0, 1.707474322053485E9, 0.0, 2024-02-09 11:25:22.053
72.0, -17409.796107983126, -12476.56494099676, 16232.30621007755, -2284.705911243667, 46449.20485606252, 17495.515047969227, 34277.56241292506, 9413.10190118574, 29803.10080088387, 4088.804613209321, 38963.203306579984, 28711.35219470885, 40089.68652363855, 34218.15147616285, 28786.36464910086, 24710.27817848661, 0.094, 1.01, 0.164, 192.0, 0.0, 0.0, 0.0, 0.0, 0.0, 0.0, 0.0, 0.0, 0.0, 1.7074743220624783E9, 0.0, 2024-02-09 11:25:22.062
74.0, -17374.502703488197, -12395.0257772238, 16322.920182099366, -2281.8448879533876, 46732.66967924472, 17590.085278759634, 34482.103226435574, 9567.12777222726, 29703.032040957456, 3896.043169026753, 38805.04236281423, 28716.40368895575, 39788.9438019924, 34169.737597672654, 28729.390052484283, 24603.839171390435, 0.094, 1.01, 0.164, 192.0, 0.0, 0.0, 0.0, 0.0, 0.0, 0.0, 0.0, 0.0, 0.0, 1.7074743220705242E9, 0.0, 2024-02-09 11:25:22.070
76.0, -17403.604674769005, -12369.58949203366, 16253.138035909897, -2271.5630855039462, 46652.113992227794, 17560.692734800905, 34418.37840299349, 9578.795382832932, 29872.994705795612, 3765.017243029743, 39181.71396037507, 28774.11589313935, 40321.205892706625, 34381.81094906461, 28908.405173826835, 24836.319665470084, 0.094, 1.01, 0.164, 192.0, 0.0, 0.0, 0.0, 0.0, 0.0, 0.0, 0.0, 0.0, 0.0, 1.7074743220775285E9, 0.0, 2024-02-09 11:25:22.077
78.0, -17376.38025002244, -12317.44287221943, 16265.699716293779, -2271.2278093371165, 46508.794606780364, 17536.105815900068, 34392.02569628068, 9510.734320966521, 29490.69046863204, 3569.506534279172, 38711.56736750214, 28670.04617095544, 39734.67376645491, 34139.36157695789, 28693.940185778167, 24620.91590415429, 0.099, 1.008, 0.162, 192.0, 1.5, 32.0, 15.5, 56.0, 2.5, 0.0, 0.0, 0.0, 0.0, 1.7074743220854876E9, 0.0, 2024-02-09 11:25:22.085
80.0, -17360.24229052571, -12280.651900845993, 16278.619024588947, -2296.6864462717112, 46816.332258740935, 17573.835560540625, 34526.38203220154, 9609.193755292148, 29738.1689832412, 3480.054852969033, 39062.64621766165, 28750.49009925009, 40115.949823373536, 34343.120079412474, 28863.90285061632, 24763.207109356776, 0.099, 1.008, 0.162, 192.0, 0.0, 0.0, 0.0, 0.0, 0.0, 0.0, 0.0, 0.0, 0.0, 1.707474322094686E9, 0.0, 2024-02-09 11:25:22.094
82.0, -17359.303517258588, -12209.103966844556, 16218.716349448723, -2262.4882772550914, 46467.354472560226, 17512.32355979962, 34351.25611439421, 9512.142480867205, 29535.88569592067, 3340.714078034649, 38931.28501549781, 28681.043229227453, 40054.10254646571, 34253.86956380243, 28790.969108458652, 24732.339350263996, 0.099, 1.008, 0.162, 192.0, 0.0, 0.0, 0.0, 0.0, 0.0, 0.0, 0.0, 0.0, 0.0, 1.7074743221025057E9, 0.0, 2024-02-09 11:25:22.102
84.0, -17334.962467546757, -12131.297544395631, 16296.27690270864, -2268.2326755801055, 46744.15847589475, 17600.836467842637, 34506.846607547595, 9635.188834093671, 29454.994732736915, 3302.8949264162693, 38782.645914870016, 28695.907139290233, 39757.383138821504, 34209.00961268063, 28740.811793900943, 24637.88087819587, 0.099, 1.008, 0.162, 192.0, 0.0, 0.0, 0.0, 0.0, 0.0, 0.0, 0.0, 0.0, 0.0, 1.7074743221095376E9, 0.0, 2024-02-09 11:25:22.109
86.0, -17353.089732300014, -12079.441497259319, 16247.281878862606, -2249.1666375597283, 46693.39766423675, 17567.37590639304, 34476.850566488574, 9615.541650717456, 29641.72120591655, 3272.094222556856, 39160.502154886984, 28743.561058468946, 40296.99895346152, 34407.18017902138, 28917.323519864505, 24847.38377897546, 0.099, 1.008, 0.162, 192.0, 0.0, 0.0, 0.0, 0.0, 0.0, 0.0, 0.0, 0.0, 0.0, 1.707474322117574E9, 0.0, 2024-02-09 11:25:22.117
88.0, -17374.34624127701, -12020.656409341862, 16264.64918430438, -2244.0927915683737, 46546.12202002073, 17551.75203701878, 34444.351130050556, 9544.79837951641, 29293.391620325045, 3256.716222371605, 38712.05910588016, 28661.463101084602, 39729.66697569692, 34179.125330343886, 28716.090764533375, 24639.937238685758, 0.10250000000000001, 1.005, 0.159, 192.0, 1.5, 40.0, 15.5, 40.0, 2.0, 112.0, 0.0, 0.0, 0.0, 1.7074743221266067E9, 0.0, 2024-02-09 11:25:22.126
90.0, -17370.837017397527, -11958.160931844823, 16307.765699358666, -2241.388230489282, 46863.740308730645, 17632.30772403571, 34625.84729502765, 9718.963172312162, 29553.56592578482, 3321.7150952476377, 39061.39451997215, 28742.130546823806, 40108.70785817002, 34386.16953923339, 28891.66371722981, 24803.306138909596, 0.10250000000000001, 1.005, 0.159, 192.0, 0.0, 0.0, 0.0, 0.0, 0.0, 0.0, 0.0, 0.0, 0.0, 1.707474322133613E9, 0.0, 2024-02-09 11:25:22.133
92.0, -17377.743706434216, -11889.474021133665, 16239.235250858696, -2219.4388174341702, 46500.30094388735, 17554.23308065332, 34437.62325496951, 9579.309472955403, 29372.270926507823, 3326.6101272833503, 38940.628044680125, 28691.01210725452, 40053.230828431944, 34311.581767986034, 28830.889324055832, 24801.89797900891, 0.10250000000000001, 1.005, 0.159, 192.0, 0.0, 0.0, 0.0, 0.0, 0.0, 0.0, 0.0, 0.0, 0.0, 1.7074743221416326E9, 0.0, 2024-02-09 11:25:22.141
94.0, -17365.003212094693, -11827.224412825635, 16317.354597729995, -2226.6807826376894, 46748.5841212969, 17633.894697892036, 34564.581163475654, 9673.209151412148, 29315.69866129144, 3347.9560432381686, 38782.24358346982, 28700.019860270007, 39751.4822782853, 34258.54107839359, 28759.855480176866, 24700.152838248356, 0.10250000000000001, 1.005, 0.159, 192.0, 0.0, 0.0, 0.0, 0.0, 0.0, 0.0, 0.0, 0.0, 0.0, 1.7074743221506164E9, 0.0, 2024-02-09 11:25:22.150
96.0, -17392.115878118977, -11793.00389206456, 16248.511224807648, -2224.9373465701756, 46681.01479780851, 17590.800534582202, 34518.78243908673, 9655.171293636715, 29505.755544394917, 3386.5575059124835, 39143.715994801045, 28735.87205837632, 40279.22931661956, 34449.044996386176, 28914.86482797442, 24892.064916141622, 0.10250000000000001, 1.005, 0.159, 192.0, 0.0, 0.0, 0.0, 0.0, 0.0, 0.0, 0.0, 0.0, 0.0, 1.7074743221587248E9, 0.0, 2024-02-09 11:25:22.158
98.0, -17356.218976523756, -11697.472536262578, 16261.385829613904, -2220.7128668681225, 46516.10362721725, 17582.128057733546, 34452.95655166585, 9605.595124434843, 29180.984697459306, 3381.126032009844, 38697.95515512886, 28655.629295781768, 39702.68842013936, 34215.49161857267, 28699.639880614268, 24682.226739195197, 0.10425000000000001, 1.0125, 0.15150000000000002, 192.0, 1.5, 40.0, 15.5, 112.0, 2.0, 64.0, 0.0, 0.0, 0.0, 1.7074743221657531E9, 0.0, 2024-02-09 11:25:22.165
100.0, -17386.39383153842, -11674.07025981787, 16298.042690520608, -2233.855692607843, 46831.59850020391, 17646.25521257582, 34619.409992624525, 9744.779437158042, 29456.045264726316, 3428.712895955193, 39042.8649238187, 28740.811793900943, 40073.526212397366, 34411.65052791245, 28860.013647081098, 24828.138926999443, 0.10425000000000001, 1.0125, 0.15150000000000002, 192.0, 0.0, 0.0, 0.0, 0.0, 0.0, 0.0, 0.0, 0.0, 0.0, 1.7074743221736715E9, 0.0, 2024-02-09 11:25:22.173
102.0, -17353.536767189118, -11601.136517660203, 16232.574431011015, -2217.4942156665584, 46478.329179087785, 17552.735513774816, 34436.19274332437, 9601.23653426606, 29284.22740509837, 3400.706160152693, 38917.04695427978, 28671.990772723053, 40034.298900878304, 34325.19398035932, 28801.765001030566, 24807.418859889374, 0.10425000000000001, 1.0125, 0.15150000000000002, 192.0, 0.0, 0.0, 0.0, 0.0, 0.0, 0.0, 0.0, 0.0, 0.0, 1.7074743221826923E9, 0.0, 2024-02-09 11:25:22.182
104.0, -17359.19175853631, -11545.860653622229, 16306.871629580455, -2233.989803074575, 46726.791170452976, 17630.743101923836, 34566.950448387914, 9701.819384314942, 29236.528782430745, 3434.837273935947, 38769.92777227495, 28693.984889267074, 39735.657243210946, 34260.50803190566, 28730.887619362788, 24693.492018400673, 0.10425000000000001, 1.0125, 0.15150000000000002, 192.0, 0.0, 0.0, 0.0, 0.0, 0.0, 0.0, 0.0, 0.0, 0.0, 1.7074743221897497E9, 0.0, 2024-02-09 11:25:22.189
106.0, -17402.68825324634, -11531.890813337663, 16237.581221769004, -2237.0072885760414, 46664.38509993376, 17587.49247640282, 34537.200276517906, 9675.019642713029, 29433.78292724883, 3463.2910446275528, 39129.90261672767, 28729.12183155082, 40264.298351323414, 34443.94879865036, 28895.351755064938, 24890.36618356302, 0.10425000000000001, 1.0125, 0.15150000000000002, 192.0, 0.0, 0.0, 0.0, 0.0, 0.0, 0.0, 0.0, 0.0, 0.0, 1.7074743221977022E9, 0.0, 2024-02-09 11:25:22.197
108.0, -17381.275282058155, -11476.503190577412, 16253.987402199198, -2231.151131528751, 46508.794606780364, 17575.489589630317, 34482.97494446933, 9609.394920992247, 29104.25115874424, 3475.3386348889635, 38674.46347170633, 28645.325141587873, 39695.602917147036, 34204.986298678676, 28684.91008101822, 24674.35892514693, 0.097125, 1.01725, 0.14675000000000002, 192.0, 1.0, 104.0, 15.5, 120.0, 2.0, 56.0, 0.0, 0.0, 0.0, 1.7074743222057362E9, 0.0, 2024-02-09 11:25:22.205
110.0, -17396.16154386539, -11435.398332524102, 16292.968844529254, -2244.2269020351055, 46817.382790730335, 17624.618723943084, 34635.056213743235, 9730.049637561993, 29392.923938384527, 3570.1100313794655, 39026.8610747887, 28740.297703778473, 40068.18414547254, 34397.367763205504, 28852.592867921936, 24821.947493785323, 0.097125, 1.01725, 0.14675000000000002, 192.0, 0.0, 0.0, 0.0, 0.0, 0.0, 0.0, 0.0, 0.0, 0.0, 1.7074743222151425E9, 0.0, 2024-02-09 11:25:22.215
112.0, -17402.710604990792, -11410.587896178711, 16225.01954138512, -2228.334811727382, 46450.1659810741, 17531.1884321199, 34432.86233340053, 9586.37262420328, 29232.93015157344, 3555.5366939946052, 38906.60868961915, 28672.370752378793, 40023.9947466844, 34312.65465171989, 28780.374381586837, 24795.281862650143, 0.097125, 1.01725, 0.14675000000000002, 192.0, 0.0, 0.0, 0.0, 0.0, 0.0, 0.0, 0.0, 0.0, 0.0, 1.7074743222217495E9, 0.0, 2024-02-09 11:25:22.221
114.0, -17396.29565433212, -11346.10311342515, 16303.921199312354, -2239.1977595326616, 46700.19259455116, 17619.924857607468, 34571.26433506779, 9682.663939316742, 29193.21110167636, 3612.757159800191, 38749.9453127319, 28689.313374675916, 39709.706867898334, 34250.04741550057, 28709.653462130245, 24681.08680022798, 0.097125, 1.01725, 0.14675000000000002, 192.0, 0.0, 0.0, 0.0, 0.0, 0.0, 0.0, 0.0, 0.0, 0.0, 1.7074743222297077E9, 0.0, 2024-02-09 11:25:22.229
116.0, -17419.11678542099, -11318.968095656408, 16237.223593857718, -2239.4883322105807, 46644.13441945725, 17587.805400825193, 34540.64244516402, 9663.799066996464, 29417.935540430015, 3670.4470122393386, 39117.31858459933, 28731.73698565209, 40237.319795765856, 34445.69223471788, 28883.05829561452, 24884.510026515727, 0.097125, 1.01725, 0.14675000000000002, 192.0, 0.0, 0.0, 0.0, 0.0, 0.0, 0.0, 0.0, 0.0, 0.0, 1.707474322238747E9, 0.0, 2024-02-09 11:25:22.238
118.0, -17440.55210835363, -11298.5162494798, 16239.972858425721, -2245.344489257871, 46483.60419077924, 17567.62177558205, 34476.5376420662, 9580.449411922624, 29109.99555706925, 3675.6102652085146, 38664.002855301245, 28640.877144441267, 39674.27935293667, 34203.309917844526, 28674.44946461314, 24674.001297235645, 0.08356250000000001, 1.0186250000000001, 0.14537500000000003, 192.0, 1.0, 24.0, 15.5, 112.0, 2.0, 64.0, 0.0, 0.0, 0.0, 1.707474322245761E9, 0.0, 2024-02-09 11:25:22.245
120.0, -17459.84166381856, -11261.010022283795, 16272.494646608193, -2254.151076573262, 46802.898860323294, 17630.29606703473, 34624.66265257152, 9703.875744804829, 29394.91324364105, 3800.4000545024937, 39001.178920409555, 28720.091726790874, 40037.89753173561, 34396.116065516006, 28836.119632258375, 24815.71135708229, 0.08356250000000001, 1.0186250000000001, 0.14537500000000003, 192.0, 0.0, 0.0, 0.0, 0.0, 0.0, 0.0, 0.0, 0.0, 0.0, 1.707474322253814E9, 0.0, 2024-02-09 11:25:22.253
122.0, -17498.443126492875, -11248.627155855556, 16195.984625337676, -2241.2988235114603, 46454.09988809823, 17539.81620547965, 34453.62710399951, 9548.575824329357, 29268.84940491312, 3887.258933455817, 38891.74477955637, 28656.97040044909, 40003.878176674625, 34321.88592217993, 28776.462826307157, 24802.456772620295, 0.08356250000000001, 1.0186250000000001, 0.14537500000000003, 192.0, 0.0, 0.0, 0.0, 0.0, 0.0, 0.0, 0.0, 0.0, 0.0, 1.7074743222617536E9, 0.0, 2024-02-09 11:25:22.261
124.0, -17508.769632431227, -11208.84105072511, 16270.237120418207, -2257.9732248751193, 46707.546318476954, 17615.521563949773, 34598.30994585871, 9647.616404010821, 29257.852346641106, 3993.876754507632, 38723.23497810781, 28658.62442953878, 39686.639867620455, 34244.52653462011, 28714.12381102131, 24687.63586135338, 0.08356250000000001, 1.0186250000000001, 0.14537500000000003, 192.0, 0.0, 0.0, 0.0, 0.0, 0.0, 0.0, 0.0, 0.0, 0.0, 1.7074743222707958E9, 0.0, 2024-02-09 11:25:22.270
126.0, -17562.86085401307, -11215.390111850515, 16217.73287269269, -2243.1763700457063, 46659.110088242305, 17584.296176945707, 34561.92130588547, 9638.183967850682, 29552.18011762859, 3945.820503928722, 39107.081485638795, 28702.277386459995, 40219.72897287953, 34427.16263856443, 28888.981507895176, 24896.87054119951, 0.08356250000000001, 1.0186250000000001, 0.14537500000000003, 192.0, 0.0, 0.0, 0.0, 0.0, 0.0, 0.0, 0.0, 0.0, 0.0, 1.707474322277975E9, 0.0, 2024-02-09 11:25:22.277
128.0, -17592.0522322717, -11180.811963178154, 16244.510262550148, -2228.7818466164886, 46514.740170805475, 17576.56247336417, 34527.969006057865, 9591.938208572652, 29327.768603297307, 3812.246479063807, 38672.83179436109, 28628.42722277966, 39664.958675498805, 34183.90860365732, 28701.29390970396, 24714.2344372552, 0.07478125000000001, 1.0093125, 0.14668750000000003, 192.0, 1.0, 8.0, 15.5, 32.0, 2.0, 80.0, 0.0, 0.0, 0.0, 1.707474322285826E9, 0.0, 2024-02-09 11:25:22.285
130.0, -17611.788822625735, -11153.386372731493, 16277.12145771044, -2244.8527508798543, 46838.05815435149, 17621.64594193053, 34676.40694098556, 9690.419994642734, 29698.20406415511, 3838.621537521069, 39019.99908924092, 28722.036328558486, 40035.26002588988, 34366.56705934609, 28872.798844909532, 24868.1709013189, 0.07478125000000001, 1.0093125, 0.14668750000000003, 192.0, 0.0, 0.0, 0.0, 0.0, 0.0, 0.0, 0.0, 0.0, 0.0, 1.7074743222938612E9, 0.0, 2024-02-09 11:25:22.293
132.0, -17625.71395942139, -11141.808169103644, 16216.771747681112, -2218.4329889336814, 46487.47104257, 17526.248696595278, 34494.08376146362, 9510.376693055236, 29624.845638852792, 3994.033216718819, 38931.821457364735, 28674.784740779967, 40005.59926099769, 34276.847157102486, 28818.9534925167, 24858.604354692026, 0.07478125000000001, 1.0093125, 0.14668750000000003, 192.0, 0.0, 0.0, 0.0, 0.0, 0.0, 0.0, 0.0, 0.0, 0.0, 1.7074743223018548E9, 0.0, 2024-02-09 11:25:22.301
134.0, -17544.80064449318, -11056.245691328728, 16311.163164515874, -2217.4271604331925, 46730.032173399, 17602.892828332526, 34612.30213788774, 9580.360004944803, 29648.851412397795, 4269.4737636415675, 38799.834406356145, 28709.34053770787, 39689.67970486638, 34212.98822319367, 28761.867137177844, 24753.61821098545, 0.07478125000000001, 1.0093125, 0.14668750000000003, 192.0, 0.0, 0.0, 0.0, 0.0, 0.0, 0.0, 0.0, 0.0, 0.0, 1.707474322309894E9, 0.0, 2024-02-09 11:25:22.309
136.0, -17498.063146837136, -11077.971586939286, 16265.900881993877, -2210.408712674226, 46676.5668006619, 17554.65776379797, 34545.67158766647, 9493.367015524747, 29950.0188171886, 4573.748060911663, 39202.009344340484, 28770.763131471056, 40237.11863006576, 34393.83618758156, 28938.222400930215, 24952.481681404315, 0.07478125000000001, 1.0093125, 0.14668750000000003, 192.0, 0.0, 0.0, 0.0, 0.0, 0.0, 0.0, 0.0, 0.0, 0.0, 1.7074743223178923E9, 0.0, 2024-02-09 11:25:22.317
138.0, -17399.11197413349, -11098.177563926884, 16276.137980954407, -2201.043331747452, 46510.627449825704, 17539.503281057274, 34449.40262429746, 9373.829886177766, 29689.106904161803, 4811.481214938309, 38766.82087979566, 28689.648650842748, 39683.60003037453, 34146.02239680557, 28743.941038124685, 24741.414158512853, 0.074390625, 1.01465625, 0.14734375, 192.0, 1.0, 40.0, 15.5, 112.0, 2.0, 80.0, 0.0, 0.0, 0.0, 1.7074743223270376E9, 0.0, 2024-02-09 11:25:22.327
140.0, -17278.412554074832, -11106.470061119802, 16309.553838915092, -2211.146320241251, 46832.917253126776, 17610.53712493624, 34617.37598387909, 9476.469096716535, 30022.349062245976, 5046.6439183525945, 39117.6315090217, 28781.64843102079, 40051.129764453144, 34332.39124207392, 28923.11262167843, 24882.632479981483, 0.074390625, 1.01465625, 0.14734375, 192.0, 0.0, 0.0, 0.0, 0.0, 0.0, 0.0, 0.0, 0.0, 0.0, 1.707474322334087E9, 0.0, 2024-02-09 11:25:22.334
142.0, -17211.446727686733, -11151.195901774872, 16240.486948548192, -2198.249363690539, 46476.56339127581, 17516.458632523852, 34427.45321124235, 9306.282914433827, 29923.152020353322, 5203.93314408459, 39026.63755734415, 28722.10338379185, 40027.43691533052, 34247.767537566135, 28882.365391536405, 24870.58488972007, 0.074390625, 1.01465625, 0.14734375, 192.0, 0.0, 0.0, 0.0, 0.0, 0.0, 0.0, 0.0, 0.0, 0.0, 1.707474322341907E9, 0.0, 2024-02-09 11:25:22.341
144.0, -17076.218673732124, -11105.15130819694, 16325.42357747836, -2200.573945113891, 46718.16339709323, 17585.212598468377, 34563.37416927507, 9365.47033375148, 29905.292976533532, 5374.1193263672985, 38872.23170664689, 28734.106270564353, 39709.55040568714, 34170.34109477295, 28817.143001215816, 24742.12941433542, 0.074390625, 1.01465625, 0.14734375, 192.0, 0.0, 0.0, 0.0, 0.0, 0.0, 0.0, 0.0, 0.0, 0.0, 1.707474322350926E9, 0.0, 2024-02-09 11:25:22.350
146.0, -17014.304341590923, -11114.96372401282, 16284.944568269799, -2178.0433867029415, 46673.14698376024, 17566.124208703543, 34534.76393637228, 9345.286708508338, 30179.548881000148, 5514.041246657521, 39279.05580747793, 28800.781524274535, 40269.461604292585, 34373.585507105054, 29002.237797050217, 24942.98219001081, 0.074390625, 1.01465625, 0.14734375, 192.0, 0.0, 0.0, 0.0, 0.0, 0.0, 0.0, 0.0, 0.0, 0.0, 1.7074743223579428E9, 0.0, 2024-02-09 11:25:22.357
148.0, -16912.402738619177, -11081.972549196786, 16306.379891202438, -2159.7149562495897, 46498.08812118627, 17562.883205757524, 34464.51240354925, 9278.790268753799, 29902.364898009888, 5590.3053987390285, 38858.32892159568, 28732.005206585553, 39728.795257663165, 34149.62102766288, 28802.7484777866, 24748.432606271817, 0.0811953125, 1.0173281250000001, 0.148671875, 192.0, 1.0, 96.0, 15.5, 112.0, 2.0, 88.0, 0.0, 0.0, 0.0, 1.7074743223659303E9, 0.0, 2024-02-09 11:25:22.365
150.0, -16813.831545571273, -11077.301034605627, 16347.708266700301, -2170.354386610316, 46812.82303486145, 17621.15420355251, 34603.07086742769, 9387.375043317681, 30216.295148884674, 5738.788037155633, 39211.35237352281, 28840.589981149435, 40100.929451099575, 34349.825602749064, 28962.54109889759, 24890.0756108851, 0.0811953125, 1.0173281250000001, 0.148671875, 192.0, 0.0, 0.0, 0.0, 0.0, 0.0, 0.0, 0.0, 0.0, 0.0, 1.7074743223740416E9, 0.0, 2024-02-09 11:25:22.374
152.0, -16765.596481036722, -11090.130935922973, 16287.582074115524, -2156.0045666700084, 46458.190257333554, 17522.158327359954, 34412.47754245729, 9236.120788588618, 30106.704545820303, 5778.037700419152, 39127.46627658204, 28787.28107062353, 40100.080084810266, 34273.896726834384, 28898.458647544227, 24873.758837432724, 0.0811953125, 1.0173281250000001, 0.148671875, 192.0, 0.0, 0.0, 0.0, 0.0, 0.0, 0.0, 0.0, 0.0, 0.0, 1.7074743223820887E9, 0.0, 2024-02-09 11:25:22.382
154.0, -16644.20415689995, -11050.121313347974, 16377.458438570315, -2165.258188874506, 46701.24312654056, 17586.978386280345, 34529.69009038092, 9317.45878666148, 30079.167196651364, 5855.330032745604, 38972.792204951314, 28809.632815078836, 39785.836909513106, 34187.46253102571, 28819.93696927273, 24746.957391137767, 0.0811953125, 1.0173281250000001, 0.148671875, 192.0, 0.0, 0.0, 0.0, 0.0, 0.0, 0.0, 0.0, 0.0, 0.0, 1.7074743223899693E9, 0.0, 2024-02-09 11:25:22.389
156.0, -16611.592961739654, -11070.059069402108, 16332.442025237326, -2156.988043426042, 46658.14896323073, 17544.95710670437, 34480.11392117905, 9293.721234049945, 30342.44839459043, 5919.45718758788, 39372.50845104557, 28876.28571704456, 40340.02606153799, 34377.25119319573, 28997.99096560371, 24949.911230791957, 0.0811953125, 1.0173281250000001, 0.148671875, 192.0, 0.0, 0.0, 0.0, 0.0, 0.0, 0.0, 0.0, 0.0, 0.0, 1.707474322398235E9, 0.0, 2024-02-09 11:25:22.398
158.0, -16543.688362084435, -11045.47215050127, 16343.66260095389, -2153.2553021020058, 46485.83936522477, 17524.32644657212, 34402.4192574524, 9206.281209740784, 30052.255696327175, 5921.670010288955, 38940.628044680125, 28798.300480639995, 39786.52981359122, 34136.813478089985, 28794.88066373833, 24739.938943378802, 0.09159765625, 1.0186640625, 0.15033593750000002, 192.0, 1.5, 24.0, 15.5, 112.0, 2.0, 96.0, 0.0, 0.0, 0.0, 1.7074743224060235E9, 0.0, 2024-02-09 11:25:22.406
160.0, -16487.20550384587, -11031.792882894622, 16381.95113920583, -2166.1075551638073, 46816.10874129638, 17599.0036247973, 34572.38192229056, 9338.737647382934, 30348.237496404352, 6012.57455498869, 39280.26280167852, 28891.23903408516, 40140.626149252195, 34320.32130006806, 28961.35645644146, 24868.93086063038, 0.09159765625, 1.0186640625, 0.15033593750000002, 192.0, 0.0, 0.0, 0.0, 0.0, 0.0, 0.0, 0.0, 0.0, 0.0, 1.7074743224129963E9, 0.0, 2024-02-09 11:25:22.412
162.0, -16489.06069863566, -11061.610109998002, 16316.639341907425, -2146.9744619100647, 46463.6664347251, 17519.90080116997, 34401.54753941864, 9214.931334844987, 30221.100773942566, 6013.848604422642, 39190.22997501254, 28839.382986948847, 40127.5727304903, 34252.506107390655, 28915.20010414125, 24872.68595369887, 0.09159765625, 1.0186640625, 0.15033593750000002, 192.0, 0.0, 0.0, 0.0, 0.0, 0.0, 0.0, 0.0, 0.0, 0.0, 1.707474322422182E9, 0.0, 2024-02-09 11:25:22.422
164.0, -16413.802375054645, -11025.288525258127, 16397.19502892435, -2152.09301139033, 46708.06040859943, 17611.14062203653, 34537.35673872909, 9337.776522371356, 30171.077569851586, 6067.336328904192, 39012.7571240374, 28846.870821341377, 39800.7455230648, 34185.607336235924, 28844.456832940203, 24760.81547270006, 0.09159765625, 1.0186640625, 0.15033593750000002, 192.0, 0.0, 0.0, 0.0, 0.0, 0.0, 0.0, 0.0, 0.0, 0.0, 1.707474322430025E9, 0.0, 2024-02-09 11:25:22.430
166.0, -16452.761465640244, -11065.164037366396, 16332.173804303862, -2158.418555071182, 46672.83405933787, 17568.225272682343, 34521.75522109929, 9316.609420372179, 30403.49100869787, 6117.515995206356, 39397.72121879116, 28892.848359685944, 40356.007558823534, 34386.79538807814, 29024.79070720562, 24968.46317868986, 0.09159765625, 1.0186640625, 0.15033593750000002, 192.0, 0.0, 0.0, 0.0, 0.0, 0.0, 0.0, 0.0, 0.0, 0.0, 1.7074743224380279E9, 0.0, 2024-02-09 11:25:22.438
168.0, -16417.937447778877, -11018.784167621634, 16341.270964297173, -2159.8267149718663, 46492.83546123928, 17550.835615496115, 34431.543580477664, 9241.64166946908, 30073.445150070806, 6090.224515226426, 38945.590131949204, 28799.17219867375, 39803.58419461062, 34142.24495199263, 28808.358765644884, 24753.86408017446, 0.098798828125, 1.02233203125, 0.15316796875, 192.0, 1.5, 40.0, 16.0, 8.0, 2.0, 112.0, 0.0, 0.0, 0.0, 1.7074743224460416E9, 0.0, 2024-02-09 11:25:22.446
170.0, -16420.306732691137, -10968.515094341648, 16379.067764171097, -2181.8878867492544, 46817.82982561944, 17627.0103605998, 34583.42368405148, 9381.049499636829, 30357.111138953107, 6159.31375733778, 39276.39594988775, 28886.701629960735, 40154.886562214684, 34325.283387337135, 28957.981343028707, 24870.78605542017, 0.098798828125, 1.02233203125, 0.15316796875, 192.0, 0.0, 0.0, 0.0, 0.0, 0.0, 0.0, 0.0, 0.0, 0.0, 1.7074743224540849E9, 0.0, 2024-02-09 11:25:22.454
172.0, -16539.553289360203, -10963.150675672374, 16296.254550964184, -2182.379625127271, 46460.00074863443, 17533.17773737642, 34388.22589972328, 9228.029457095798, 30189.92009042741, 6090.11275650415, 39171.72273060355, 28810.213960434674, 40146.61641676622, 34250.7850230676, 28898.68216498878, 24849.596601676538, 0.098798828125, 1.02233203125, 0.15316796875, 192.0, 0.0, 0.0, 0.0, 0.0, 0.0, 0.0, 0.0, 0.0, 0.0, 1.707474322462083E9, 0.0, 2024-02-09 11:25:22.462
174.0, -16591.878723130074, -10899.179983041286, 16367.780133221166, -2206.8100818169214, 46693.084739814374, 17600.43413644244, 34505.21493020236, 9303.421891143547, 30071.835824470025, 6005.444348507446, 38948.27234128384, 28775.16642512875, 39801.147854464994, 34157.39943473333, 28797.78639051752, 24696.17422773531, 0.098798828125, 1.02233203125, 0.15316796875, 192.0, 0.0, 0.0, 0.0, 0.0, 0.0, 0.0, 0.0, 0.0, 0.0, 1.7074743224690936E9, 0.0, 2024-02-09 11:25:22.469
176.0, -16747.98330640594, -10985.949455016787, 16319.723882642256, -2218.0083057890306, 46648.31419567039, 17548.66749628395, 34457.67276974592, 9262.361736579149, 30284.624431684548, 5849.183303020394, 39320.78651437599, 28823.51324838558, 40345.59164590736, 34364.7118645563, 28966.765578599643, 24877.625689223492, 0.098798828125, 1.02233203125, 0.15316796875, 192.0, 0.0, 0.0, 0.0, 0.0, 0.0, 0.0, 0.0, 0.0, 0.0, 1.7074743224781075E9, 0.0, 2024-02-09 11:25:22.478
178.0, -16820.55942065232, -11133.068637021619, 16334.543089216126, -2212.5544801419355, 46468.58381850527, 17540.732627002315, 34376.20066120633, 9212.271477254806, 29934.909037936814, 5488.627313211837, 38849.65644474703, 28723.288026247985, 39796.27517417374, 34121.368422671374, 28756.145090597285, 24636.606828761916, 0.098798828125, 1.02233203125, 0.15316796875, 192.0, 0.0, 0.0, 0.0, 0.0, 0.0, 0.0, 0.0, 0.0, 0.0, 1.7074743224861217E9, 0.0, 2024-02-09 11:25:22.486
180.0, -16902.657378036663, -11296.124612823083, 16376.474961814281, -2221.450474435148, 46805.49166268011, 17624.216392542887, 34532.03702354873, 9397.388624833658, 30180.085322867075, 5176.149925726643, 39161.53033513192, 28817.813553549477, 40159.98275995049, 34332.72651824076, 28923.76082226763, 24764.36940006845, 0.10200000000000001, 1.038, 0.16, 192.0, 1.5, 24.0, 16.0, 56.0, 2.5, 0.0, 0.0, 0.0, 0.0, 1.7074743224931507E9, 0.0, 2024-02-09 11:25:22.493
182.0, -16972.372468992766, -11393.578218648223, 16285.279844436629, -2222.0316197909856, 46458.681995711566, 17533.870641454538, 34343.99179744623, 9304.159498710573, 30004.378259703906, 4678.68950112933, 39053.14672626814, 28756.726235953123, 40155.06537617033, 34273.9414303233, 28882.410095025316, 24749.729007450227, 0.10200000000000001, 1.038, 0.16, 192.0, 0.0, 0.0, 0.0, 0.0, 0.0, 0.0, 0.0, 0.0, 0.0, 1.7074743225011575E9, 0.0, 2024-02-09 11:25:22.501
184.0, -17015.93601893616, -11490.450679117523, 16352.692705713835, -2240.8517886223544, 46704.126501575294, 17619.500174462817, 34479.44336884539, 9473.272797259426, 29870.24544122761, 4212.4768152805345, 38840.62633998708, 28744.45512824716, 39818.761029095775, 34182.09811235644, 28803.396678375804, 24621.139421598844, 0.10200000000000001, 1.038, 0.16, 192.0, 0.0, 0.0, 0.0, 0.0, 0.0, 0.0, 0.0, 0.0, 0.0, 1.7074743225111833E9, 0.0, 2024-02-09 11:25:22.511
186.0, -17060.3265834244, -11578.29303482688, 16303.049481278596, -2249.412506748737, 46677.215001251105, 17582.440982155917, 34437.556199736144, 9493.702291691578, 30034.396652507385, 3715.9328122058887, 39225.34456555183, 28792.60078580389, 40368.50218397405, 34383.532033387666, 28983.12705554093, 24840.20886900531, 0.10200000000000001, 1.038, 0.16, 192.0, 0.0, 0.0, 0.0, 0.0, 0.0, 0.0, 0.0, 0.0, 0.0, 1.7074743225183458E9, 0.0, 2024-02-09 11:25:22.518
188.0, -17096.67051990873, -11625.522270860944, 16309.397376703904, -2253.2570067950496, 46510.51569110343, 17569.85695002758, 34347.76924225918, 9468.15424777916, 29623.99627256349, 3197.5735065428626, 38760.405929136985, 28688.799284553446, 39797.437464885414, 34134.17597224426, 28771.523090782535, 24624.089851866946, 0.10200000000000001, 1.038, 0.16, 192.0, 0.0, 0.0, 0.0, 0.0, 0.0, 0.0, 0.0, 0.0, 0.0, 1.7074743225251737E9, 0.0, 2024-02-09 11:25:22.525
190.0, -17144.52560478754, -11662.02266955646, 16329.960981602788, -2277.173373362228, 46844.808381177, 17636.308686293207, 34524.817410089665, 9635.121778860304, 29780.011448861536, 3027.499082982431, 39075.54317421236, 28778.496835052592, 40126.56690198981, 34328.68085249434, 28932.25448516065, 24757.641524987404, 0.096, 1.014, 0.166, 192.0, 1.5, 0.0, 15.5, 88.0, 2.5, 24.0, 0.0, 0.0, 0.0, 1.7074743225341964E9, 0.0, 2024-02-09 11:25:22.534
192.0, -17206.4622886732, -11699.037158374449, 16246.700733506768, -2268.635006980301, 46492.27666762789, 17546.9911154498, 34370.031579736664, 9528.392199086215, 29519.680681190574, 2859.8833513120835, 38953.72616693094, 28701.517427148516, 40119.70491644203, 34260.77625283912, 28876.732751933665, 24745.146899836887, 0.096, 1.014, 0.166, 192.0, 0.0, 0.0, 0.0, 0.0, 0.0, 0.0, 0.0, 0.0, 0.0, 1.7074743225422175E9, 0.0, 2024-02-09 11:25:22.542
194.0, -17201.656663615307, -11658.64755614371, 16320.550897187102, -2286.1364228888065, 46732.91554843373, 17621.310665763696, 34508.455933148376, 9649.471598800612, 29379.57994694471, 2782.970998641372, 38757.34374014661, 28710.279310974995, 39784.719322290344, 34186.724923458685, 28806.99530923311, 24624.559238500507, 0.096, 1.014, 0.166, 192.0, 0.0, 0.0, 0.0, 0.0, 0.0, 0.0, 0.0, 0.0, 0.0, 1.7074743225492413E9, 0.0, 2024-02-09 11:25:22.549
196.0, -17222.68965514775, -11675.12079180727, 16260.60351855797, -2296.4852805716137, 46702.13719631877, 17570.594557594606, 34459.952647680366, 9635.412351538223, 29553.52122229591, 2734.378306195534, 39139.13388718771, 28751.02654111702, 40333.45464866813, 34383.733199087765, 28982.68002065182, 24827.513078154694, 0.096, 1.014, 0.166, 192.0, 0.0, 0.0, 0.0, 0.0, 0.0, 0.0, 0.0, 0.0, 0.0, 1.707474322557244E9, 0.0, 2024-02-09 11:25:22.557
198.0, -17214.374806210377, -11640.676753601641, 16278.395507144394, -2284.92942868822, 46528.28532794539, 17553.786045764213, 34387.153015989425, 9583.109269512805, 29184.739790527798, 2657.2424360802697, 38695.675277194416, 28664.05590344142, 39780.383083866014, 34150.69391139673, 28774.004134417075, 24614.29978779552, 0.096, 1.014, 0.166, 192.0, 0.0, 0.0, 0.0, 0.0, 0.0, 0.0, 0.0, 0.0, 0.0, 1.7074743225663328E9, 0.0, 2024-02-09 11:25:22.566
200.0, -17236.257164032122, -11638.978021023038, 16315.857030851488, -2303.3249143749376, 46856.677157482765, 17629.178479811966, 34540.93301784194, 9757.899911153307, 29386.598394703677, 2687.774919006219, 39006.29746988982, 28748.925477138222, 40116.24039605146, 34341.734271256246, 28934.10967995044, 24759.876699432934, 0.096, 1.008, 0.166, 192.0, 1.5, 0.0, 15.5, 64.0, 2.5, 24.0, 0.0, 0.0, 0.0, 1.70747432257425E9, 0.0, 2024-02-09 11:25:22.574
202.0, -17265.537949268575, -11618.34736089079, 16234.653143245358, -2293.3113328589598, 46506.6264875682, 17547.41579859445, 34367.88581226895, 9636.798159694454, 29218.334462444123, 2675.6379217669873, 38909.20149197597, 28679.500958860037, 40117.60385246323, 34267.34766570898, 28885.67344971579, 24763.27416459014, 0.096, 1.008, 0.166, 192.0, 0.0, 0.0, 0.0, 0.0, 0.0, 0.0, 0.0, 0.0, 0.0, 1.70747432258128E9, 0.0, 2024-02-09 11:25:22.581
204.0, -17247.164815326312, -11563.67499395311, 16304.949379557298, -2304.800129508988, 46739.91164444824, 17630.20666005691, 34524.750354856296, 9742.83483539043, 29116.34345249456, 2728.186872981414, 38706.82879767761, 28679.59036583786, 39754.72328123132, 34180.4664350112, 28792.35491661488, 24639.467852052196, 0.096, 1.008, 0.166, 192.0, 0.0, 0.0, 0.0, 0.0, 0.0, 0.0, 0.0, 0.0, 0.0, 1.7074743225892987E9, 0.0, 2024-02-09 11:25:22.589
206.0, -17295.60104556096, -11552.700287425552, 16245.158463139353, -2304.666019042256, 46705.4229027537, 17596.679043373948, 34491.91564225145, 9737.693934165709, 29330.89784752105, 2777.8524491611065, 39099.59365124627, 28725.16557278223, 40301.33519188585, 34382.481501398266, 28964.30688670956, 24856.168014546398, 0.096, 1.008, 0.166, 192.0, 0.0, 0.0, 0.0, 0.0, 0.0, 0.0, 0.0, 0.0, 0.0, 1.707474322598277E9, 0.0, 2024-02-09 11:25:22.598
208.0, -17272.60110051645, -11464.053268915804, 16258.636565045903, -2291.7020072581777, 46520.95395576405, 17569.43226688293, 34409.325946489094, 9658.09937216036, 29002.036631350118, 2778.992388128327, 38652.69287260686, 28639.24546709603, 39747.660129983444, 34141.75321361461, 28742.39876775727, 24637.92558168478, 0.096, 1.008, 0.166, 192.0, 0.0, 0.0, 0.0, 0.0, 0.0, 0.0, 0.0, 0.0, 0.0, 1.707474322605294E9, 0.0, 2024-02-09 11:25:22.605
210.0, -17276.423248818308, -11430.92798363304, 16301.373100444449, -2298.8322137394207, 46849.43519227925, 17640.890793906547, 34566.92809664346, 9818.584897349465, 29272.3586287926, 2839.029173735282, 38990.964173193475, 28741.236477045593, 40081.81870959028, 34338.716785754776, 28902.01257491262, 24785.96118521228, 0.1, 1.008, 0.17, 192.0, 1.5, 16.0, 15.5, 64.0, 2.5, 40.0, 0.0, 0.0, 0.0, 1.7074743226135116E9, 0.0, 2024-02-09 11:25:22.613
212.0, -17301.501906097164, -11406.855154854675, 16227.50058501966, -2283.990655421097, 46502.53611833288, 17550.56739456265, 34406.08494354307, 9683.021567228028, 29138.51638299422, 2830.155531186525, 38912.91188155555, 28677.24343267005, 40087.22783174847, 34283.08329380552, 28850.469452198682, 24783.211920644277, 0.1, 1.008, 0.17, 192.0, 0.0, 0.0, 0.0, 0.0, 0.0, 0.0, 0.0, 0.0, 0.0, 1.7074743226223087E9, 0.0, 2024-02-09 11:25:22.622
214.0, -17290.013109447136, -11345.231395391393, 16307.139850513919, -2288.8409839678984, 46733.04965890046, 17636.44279675994, 34540.64244516402, 9803.497469842134, 29057.93834423284, 2864.308996714234, 38709.35454480106, 28671.499034345037, 39727.34239427357, 34198.34783057545, 28768.237384347605, 24660.836119751468, 0.1, 1.008, 0.17, 192.0, 0.0, 0.0, 0.0, 0.0, 0.0, 0.0, 0.0, 0.0, 0.0, 1.7074743226292834E9, 0.0, 2024-02-09 11:25:22.629
216.0, -17325.328865686522, -11345.857244236142, 16253.048628932076, -2293.087815414407, 46708.86507139982, 17588.990043281323, 34515.25086346279, 9762.012632133083, 29316.928007236485, 2927.2962125892896, 39115.5304450429, 28730.038253073486, 40288.43823533514, 34395.93725156036, 28942.02219748762, 24874.272927555197, 0.1, 1.008, 0.17, 192.0, 0.0, 0.0, 0.0, 0.0, 0.0, 0.0, 0.0, 0.0, 0.0, 1.7074743226373556E9, 0.0, 2024-02-09 11:25:22.637
218.0, -17316.790499304592, -11301.064348347707, 16264.425666859826, -2276.3463588173818, 46524.50788313245, 17585.570226379663, 34450.073176631115, 9704.523945394034, 28988.51382595466, 2901.0105611098484, 38653.83281157408, 28626.303807056407, 39740.77579269121, 34147.38585321735, 28736.184982798695, 24666.982849476677, 0.1, 1.008, 0.17, 192.0, 0.0, 0.0, 0.0, 0.0, 0.0, 0.0, 0.0, 0.0, 0.0, 1.7074743226453772E9, 0.0, 2024-02-09 11:25:22.645
220.0, -17304.407632876355, -11247.956603521896, 16291.627739861935, -2299.6815800287222, 46841.142695086324, 17650.904375422524, 34602.42266683849, 9839.394371437356, 29278.08067537316, 2987.78003308535, 38976.077911386245, 28723.779764626, 40054.54958135481, 34331.027785662154, 28884.377048537383, 24800.62392957496, 0.1, 1.014, 0.17400000000000002, 192.0, 1.5, 16.0, 15.5, 88.0, 2.5, 56.0, 0.0, 0.0, 0.0, 1.707474322654387E9, 0.0, 2024-02-09 11:25:22.654
222.0, -17348.887604342413, -11252.136379735039, 16223.030236128598, -2283.856544954365, 46494.51184207342, 17564.313717402663, 34430.26953104371, 9695.829116800918, 29160.86812744953, 2973.340806167222, 38903.233576206396, 28663.318295874393, 40068.11709023918, 34269.38167445442, 28837.7066061147, 24802.43442087584, 0.1, 1.014, 0.17400000000000002, 192.0, 0.0, 0.0, 0.0, 0.0, 0.0, 0.0, 0.0, 0.0, 0.0, 1.7074743226615665E9, 0.0, 2024-02-09 11:25:22.661
224.0, -17344.52901417363, -11205.465937312358, 16289.303158438583, -2300.0615596844627, 46713.53658599098, 17629.87138389008, 34544.88927661053, 9791.829859236463, 29097.65739412992, 3012.277545008367, 38701.35262028607, 28662.58068830737, 39708.164597530915, 34175.414940764305, 28752.702921951168, 24668.458064610728, 0.1, 1.014, 0.17400000000000002, 192.0, 0.0, 0.0, 0.0, 0.0, 0.0, 0.0, 0.0, 0.0, 0.0, 1.7074743226694982E9, 0.0, 2024-02-09 11:25:22.669
226.0, -17337.689380370306, -11174.799343919676, 16241.202204370762, -2292.6854840142114, 46694.60465843733, 17588.028918269745, 34526.18086650144, 9762.88435016684, 29371.063932307236, 3084.8983627436596, 39102.92406117011, 28715.241398244074, 40262.82313618936, 34371.70796057081, 28927.8288397585, 24872.39538102095, 0.1, 1.014, 0.17400000000000002, 192.0, 0.0, 0.0, 0.0, 0.0, 0.0, 0.0, 0.0, 0.0, 0.0, 1.707474322678403E9, 0.0, 2024-02-09 11:25:22.678
228.0, -17349.66991539835, -11153.319317498126, 16240.956335181754, -2296.6417427828005, 46498.15517641964, 17551.930850974422, 34443.59117073908, 9654.076058158405, 29089.208434725817, 3147.7291164075277, 38664.874573335, 28630.9082664142, 39725.934234372886, 34136.187629245236, 28722.34925298086, 24665.50763434263, 0.1, 1.014, 0.17400000000000002, 192.0, 0.0, 0.0, 0.0, 0.0, 0.0, 0.0, 0.0, 0.0, 0.0, 1.7074743226853993E9, 0.0, 2024-02-09 11:25:22.685
230.0, -17342.450301939287, -11122.473910149803, 16283.60346360248, -2308.152891177284, 46832.02318334856, 17617.15324129501, 34600.5674720487, 9775.714251484187, 29384.787903402797, 3297.7316734470933, 38980.257687599384, 28711.955691809144, 40042.56904632677, 34300.540006225114, 28870.116635574894, 24787.9504904688, 0.09, 1.012, 0.17400000000000002, 192.0, 1.0, 104.0, 15.5, 80.0, 2.5, 56.0, 0.0, 0.0, 0.0, 1.707474322693391E9, 0.0, 2024-02-09 11:25:22.693
232.0, -17366.433723739832, -11106.894744264453, 16203.360701007929, -2299.8603939843647, 46487.94042920356, 17524.147632616477, 34440.30546430415, 9636.038200382973, 29323.052385217237, 3350.9511769951796, 38921.338489215195, 28659.786720250457, 40058.93052326805, 34239.29622641757, 28829.704681599702, 24793.158446926886, 0.09, 1.012, 0.17400000000000002, 192.0, 0.0, 0.0, 0.0, 0.0, 0.0, 0.0, 0.0, 0.0, 0.0, 1.7074743227014346E9, 0.0, 2024-02-09 11:25:22.701
234.0, -17310.174382945825, -11041.627650454957, 16286.755059570678, -2294.78654799301, 46710.854376656345, 17606.58086616765, 34564.670570453476, 9739.21385278867, 29331.5236963658, 3318.4293888127077, 38721.80446646267, 28674.047133212942, 39697.03342879217, 34139.6074461469, 28752.16648008424, 24675.342401902963, 0.09, 1.012, 0.17400000000000002, 192.0, 0.0, 0.0, 0.0, 0.0, 0.0, 0.0, 0.0, 0.0, 0.0, 1.707474322710425E9, 0.0, 2024-02-09 11:25:22.710
236.0, -17323.876002296925, -11029.758874149189, 16232.082692632997, -2293.601905536879, 46689.50846070152, 17561.586804579118, 34536.19444801741, 9709.329570451924, 29691.945575707625, 3314.584888766395, 39130.77433476142, 28751.339465539393, 40251.91548489517, 34339.38733808843, 28935.651950317857, 24890.656756240936, 0.09, 1.012, 0.17400000000000002, 192.0, 0.0, 0.0, 0.0, 0.0, 0.0, 0.0, 0.0, 0.0, 0.0, 1.7074743227174437E9, 0.0, 2024-02-09 11:25:22.717
238.0, -17302.23951366419, -10975.041803722597, 16250.075846919519, -2273.351225060371, 46500.0774264428, 17547.61696429455, 34464.758272738254, 9644.28599408698, 29481.369791194178, 3327.615955783839, 38703.788960431695, 28675.544700091446, 39703.76130387322, 34083.3928088418, 28740.342407267384, 24697.60473938045, 0.09, 1.012, 0.17400000000000002, 192.0, 0.0, 0.0, 0.0, 0.0, 0.0, 0.0, 0.0, 0.0, 0.0, 1.7074743227255516E9, 0.0, 2024-02-09 11:25:22.725
240.0, -17275.350365084454, -10912.032236103087, 16309.196211003808, -2271.8760099263204, 46851.33509055795, 17623.43408148695, 34660.85012684466, 9777.725908485165, 29846.03850198251, 3581.6882350073142, 39054.82310710229, 28784.531806055526, 40012.282432589825, 34275.39429371289, 28909.96979593871, 24843.762796373703, 0.08600000000000001, 1.0, 0.162, 192.0, 1.0, 88.0, 15.5, 32.0, 2.5, 8.0, 0.0, 0.0, 0.0, 1.707474322733483E9, 0.0, 2024-02-09 11:25:22.733
242.0, -17256.910175908826, -10936.552099770559, 16259.240062146195, -2225.8537680928434, 46521.49039763098, 17546.588784049607, 34500.833988289116, 9634.585336993377, 29817.115344657344, 3836.811046220189, 39030.99614751293, 28751.607686472857, 40042.03260445984, 34232.74716529217, 28895.597624253947, 24887.661622483927, 0.08600000000000001, 1.0, 0.162, 192.0, 0.0, 0.0, 0.0, 0.0, 0.0, 0.0, 0.0, 0.0, 0.0, 1.7074743227415037E9, 0.0, 2024-02-09 11:25:22.741
244.0, -17139.45175879619, -10941.134207383897, 16351.396304535427, -2219.9752593010976, 46742.795019482975, 17614.359273238097, 34611.74334427635, 9637.848691683852, 29821.42923133722, 4106.462491329014, 38854.238552360366, 28780.173215886738, 39686.57281238709, 34146.17885901676, 28831.492821156124, 24773.444208317305, 0.08600000000000001, 1.0, 0.162, 192.0, 0.0, 0.0, 0.0, 0.0, 0.0, 0.0, 0.0, 0.0, 0.0, 1.7074743227495515E9, 0.0, 2024-02-09 11:25:22.749
246.0, -17075.414010931734, -11027.926031103854, 16309.08445228153, -2206.4301021611814, 46739.91164444824, 17587.71599384737, 34590.598594021634, 9567.686565838643, 30151.609200431016, 4368.223770645114, 39283.01206624652, 28853.62104816688, 40256.184668086134, 34354.67593129587, 29027.428213051346, 24986.76925739876, 0.08600000000000001, 1.0, 0.162, 192.0, 0.0, 0.0, 0.0, 0.0, 0.0, 0.0, 0.0, 0.0, 0.0, 1.7074743227575622E9, 0.0, 2024-02-09 11:25:22.757
248.0, -16966.56101543439, -11035.033885840641, 16325.602391434002, -2181.6867210491564, 46539.55060715087, 17579.199979209898, 34514.468552406855, 9464.600320410767, 29885.66814490177, 4545.249586731146, 38858.01599717331, 28778.943869941697, 39718.312289513626, 34114.19351270122, 28844.143908517828, 24797.651147562403, 0.08600000000000001, 1.0, 0.162, 192.0, 0.0, 0.0, 0.0, 0.0, 0.0, 0.0, 0.0, 0.0, 0.0, 1.707474322766539E9, 0.0, 2024-02-09 11:25:22.766
250.0, -16862.13366533919, -11023.61214442398, 16369.411810566404, -2188.1240234522847, 46864.74613723113, 17650.300878322232, 34659.97840881091, 9547.212367917582, 30215.445782595372, 4752.539664809664, 39191.66048665768, 28885.29347006005, 40046.27943590635, 34302.12698008144, 29008.473933753245, 24931.336931149595, 0.088, 1.018, 0.158, 192.0, 1.0, 96.0, 15.5, 104.0, 2.0, 120.0, 0.0, 0.0, 0.0, 1.7074743227725484E9, 0.0, 2024-02-09 11:25:22.772
252.0, -16831.33296147978, -11059.419639041382, 16280.02718448963, -2189.308665908416, 46498.57985956429, 17538.43039732342, 34424.59218795207, 9337.061266548786, 30134.0630810336, 4892.528640333252, 39141.54787558888, 28816.94183551572, 40091.340552728245, 34240.63733108489, 28966.005619288164, 24919.334044377094, 0.088, 1.018, 0.158, 192.0, 0.0, 0.0, 0.0, 0.0, 0.0, 0.0, 0.0, 0.0, 0.0, 1.7074743227816083E9, 0.0, 2024-02-09 11:25:22.781
254.0, -16715.5956286902, -11013.598562908002, 16367.757781476712, -2194.9413055111536, 46712.70957144613, 17613.308741248697, 34556.80275640521, 9389.85608695222, 30070.628830269437, 5059.831447581226, 38932.20143702048, 28811.800934291, 39729.15288557445, 34132.18666698774, 28873.871728643386, 24761.32956282253, 0.088, 1.018, 0.158, 192.0, 0.0, 0.0, 0.0, 0.0, 0.0, 0.0, 0.0, 0.0, 0.0, 1.7074743227895968E9, 0.0, 2024-02-09 11:25:22.789
0.0, -16693.221532490435, -11037.358467263994, 16316.862859351977, -2189.1745554416843, 46697.37627474979, 17584.76556357927, 34514.669718106954, 9355.724973168966, 30351.47849935037, 5210.951591843556, 39350.536686246, 28884.980545637674, 40309.22535767858, 34354.51946908468, 29057.960695977297, 24960.03657103021, 0.088, 1.018, 0.158, 192.0, 0.0, 0.0, 0.0, 0.0, 0.0, 0.0, 0.0, 0.0, 0.0, 1.707474322797836E9, 0.0, 2024-02-09 11:25:22.797
2.0, -16633.877650961596, -11042.365258021982, 16324.931839100343, -2173.1707064116845, 46487.47104257, 17571.95801400638, 34407.716620888306, 9265.558036036258, 30057.70952197427, 5294.122432961754, 38918.052782780265, 28806.771791788557, 39785.30046764618, 34125.32468143996, 28846.915524830285, 24749.460786516764, 0.088, 1.018, 0.158, 192.0, 0.0, 0.0, 0.0, 0.0, 0.0, 0.0, 0.0, 0.0, 0.0, 1.7074743228055716E9, 0.0, 2024-02-09 11:25:22.805
4.0, -16555.758304090297, -11037.447874241814, 16369.85884545551, -2182.4913838495477, 46826.547005957014, 17650.8149684447, 34587.96108817591, 9399.266171367904, 30340.034406189254, 5438.000612020566, 39235.20168485662, 28914.23897912967, 40087.920735826585, 34321.08125937954, 28992.44773297879, 24869.0202676082, 0.1, 1.014, 0.164, 192.0, 1.5, 16.0, 15.5, 88.0, 2.5, 16.0, 0.0, 0.0, 0.0, 1.7074743228135912E9, 0.0, 2024-02-09 11:25:22.813
6.0, -16560.765094848288, -11074.775287482178, 16297.975635287243, -2171.6507877887234, 46488.58862979277, 17553.830749253124, 34416.031469825684, 9256.483227787403, 30243.653684097968, 5472.019967081544, 39190.67700990165, 28864.32753376097, 40131.23841658097, 34275.95308732428, 28964.239831476192, 24877.245709567753, 0.1, 1.014, 0.164, 192.0, 0.0, 0.0, 0.0, 0.0, 0.0, 0.0, 0.0, 0.0, 0.0, 1.7074743228216968E9, 0.0, 2024-02-09 11:25:22.821
8.0, -16488.41249804646, -11045.963888879287, 16385.43801134086, -2180.8820582487656, 46714.18478658018, 17630.698398434924, 34549.35962550159, 9361.938758127542, 30155.654866177425, 5528.927508464755, 38959.582323978226, 28853.08460629995, 39757.69606324388, 34166.56364996, 28872.664734442802, 24741.14593757939, 0.1, 1.014, 0.164, 192.0, 0.0, 0.0, 0.0, 0.0, 0.0, 0.0, 0.0, 0.0, 0.0, 1.7074743228287132E9, 0.0, 2024-02-09 11:25:22.828
10.0, -16481.818733432145, -11039.95126962081, 16355.24080458174, -2164.6770435186677, 46722.72315296211, 17612.839354615135, 34552.98060810335, 9379.127249613673, 30430.290750299784, 5627.141073601374, 39383.147881406294, 28930.71221479323, 40331.822971322894, 34389.119969501495, 29082.011173011208, 24979.437885217416, 0.1, 1.014, 0.164, 192.0, 0.0, 0.0, 0.0, 0.0, 0.0, 0.0, 0.0, 0.0, 0.0, 1.707474322837692E9, 0.0, 2024-02-09 11:25:22.837
12.0, -16447.68761964889, -10991.671501597346, 16363.108618630007, -2149.90254043371, 46504.77129277841, 17586.24077871332, 34422.111144317525, 9277.69503327549, 30108.783258054646, 5640.708582485746, 38943.779640648325, 28840.031187538054, 39792.765950294255, 34147.2070392617, 28872.70943793171, 24776.95343219679, 0.1, 1.014, 0.164, 192.0, 0.0, 0.0, 0.0, 0.0, 0.0, 0.0, 0.0, 0.0, 0.0, 1.7074743228461044E9, 0.0, 2024-02-09 11:25:22.846
14.0, -16420.127918735496, -10958.412105847849, 16397.418546368903, -2179.1386221812513, 46815.92992734074, 17648.691552721448, 34531.96996831536, 9391.37600557518, 30371.460958893414, 5748.846322160522, 39251.22788563107, 28935.67430206231, 40085.50674742541, 34324.14344836992, 28999.17560805984, 24880.106732858032, 0.10200000000000001, 1.022, 0.148, 192.0, 1.5, 24.0, 15.5, 120.0, 2.0, 80.0, 0.0, 0.0, 0.0, 1.7074743228536963E9, 0.0, 2024-02-09 11:25:22.853
16.0, -16483.02572763273, -10937.714390482235, 16318.785109375134, -2171.1814011551623, 46475.22228660849, 17554.255432397775, 34357.40284411942, 9239.317088045727, 30263.770254107745, 5739.3468307670155, 39201.8528821293, 28863.165243049294, 40135.12762011619, 34265.00073254117, 28948.705369079755, 24876.68691595637, 0.10200000000000001, 1.022, 0.148, 192.0, 0.0, 0.0, 0.0, 0.0, 0.0, 0.0, 0.0, 0.0, 0.0, 1.7074743228606727E9, 0.0, 2024-02-09 11:25:22.860
18.0, -16449.96749758333, -10807.180202863241, 16402.6712063159, -2181.8431832603437, 46697.979771850085, 17626.58567745515, 34494.0390579747, 9327.919403066564, 30168.842395406056, 5758.658737976401, 38989.69012375952, 28863.90285061632, 39778.48318558731, 34172.64332445185, 28865.42276923928, 24728.74071940669, 0.10200000000000001, 1.022, 0.148, 192.0, 0.0, 0.0, 0.0, 0.0, 0.0, 0.0, 0.0, 0.0, 0.0, 1.7074743228696847E9, 0.0, 2024-02-09 11:25:22.869
20.0, -16533.764187546276, -10780.335757772418, 16356.246633082228, -2186.5817530848685, 46703.523004475, 17601.90935157649, 34476.40353159947, 9320.543327396314, 30392.15867425903, 5724.5499759376025, 39379.68336101573, 28907.15347613734, 40350.53138143199, 34390.863405569005, 29051.769262763177, 24926.374843880516, 0.10200000000000001, 1.022, 0.148, 192.0, 0.0, 0.0, 0.0, 0.0, 0.0, 0.0, 0.0, 0.0, 0.0, 1.7074743228766968E9, 0.0, 2024-02-09 11:25:22.876
22.0, -16683.5879306302, -10917.642523961369, 16336.018304350175, -2215.795483087955, 46492.29901937235, 17573.56733960716, 34368.44460588034, 9213.433767966482, 30040.94571363279, 5490.728377190635, 38911.72723909941, 28784.97884094463, 39824.19250299841, 34150.00100731862, 28835.963170047187, 24701.136315004387, 0.10200000000000001, 1.022, 0.148, 192.0, 0.0, 0.0, 0.0, 0.0, 0.0, 0.0, 0.0, 0.0, 0.0, 1.7074743228847234E9, 0.0, 2024-02-09 11:25:22.884
24.0, -16729.297248041305, -11017.219545509763, 16383.29224387315, -2244.8080473909436, 46833.0066601046, 17655.039448146756, 34542.430584720445, 9386.592732261746, 30247.788756822203, 5248.569577761838, 39167.61000962377, 28836.343149702927, 40113.69229718355, 34320.7012797238, 28963.725741353723, 24788.017545702165, 0.098, 1.028, 0.14600000000000002, 192.0, 1.0, 120.0, 16.0, 40.0, 2.0, 64.0, 0.0, 0.0, 0.0, 1.7074743228937545E9, 0.0, 2024-02-09 11:25:22.893
26.0, -16866.604014230255, -11145.987945316785, 16296.522771897648, -2244.8527508798543, 46496.74701651896, 17562.637336568518, 34354.63122780695, 9280.868980988143, 30115.466429646785, 4878.827020982149, 39100.68888672458, 28775.88168095132, 40175.36076013574, 34283.776197883635, 28935.562543340035, 24782.18374039933, 0.098, 1.028, 0.14600000000000002, 192.0, 0.0, 0.0, 0.0, 0.0, 0.0, 0.0, 0.0, 0.0, 0.0, 1.7074743229017375E9, 0.0, 2024-02-09 11:25:22.901
28.0, -16888.888703452194, -11218.228783396338, 16360.359354062004, -2265.125783100818, 46707.1216353323, 17626.20569779941, 34481.34326712409, 9400.271999868393, 29970.82829127649, 4445.3372890159235, 38845.87899993408, 28758.134395853805, 39794.66584857296, 34171.59279246245, 28829.123536243864, 24613.87510465087, 0.098, 1.028, 0.14600000000000002, 192.0, 0.0, 0.0, 0.0, 0.0, 0.0, 0.0, 0.0, 0.0, 0.0, 1.707474322908883E9, 0.0, 2024-02-09 11:25:22.908
30.0, -17010.88452468926, -11418.88039337163, 16292.678271851335, -2274.7370332165997, 46699.723207917596, 17587.89480780301, 34453.62710399951, 9441.801541066354, 30163.813252903612, 4025.996211289908, 39245.662301261706, 28804.51426559857, 40364.50122171655, 34387.71180960081, 29019.91802691436, 24828.273037466173, 0.098, 1.028, 0.14600000000000002, 192.0, 0.0, 0.0, 0.0, 0.0, 0.0, 0.0, 0.0, 0.0, 0.0, 1.7074743229168715E9, 0.0, 2024-02-09 11:25:22.916
32.0, -17072.95531904165, -11529.610935403221, 16295.718109097257, -2268.478544769114, 46488.2757053704, 17565.833636025625, 34353.401881861915, 9407.893944727653, 29755.64804740525, 3626.6822965958477, 38782.087121258635, 28685.066543229408, 39824.72894486534, 34140.12153626938, 28797.11583818386, 24617.92077039728, 0.098, 1.028, 0.14600000000000002, 192.0, 0.0, 0.0, 0.0, 0.0, 0.0, 0.0, 0.0, 0.0, 0.0, 1.7074743229257913E9, 0.0, 2024-02-09 11:25:22.925
34.0, -17070.80955157394, -11528.605106902733, 16349.541109745636, -2284.348283332382, 46832.35845951539, 17640.77903518427, 34518.33540419763, 9601.080072054872, 29932.91973268029, 3365.390403913308, 39083.813319660825, 28779.234442619618, 40118.90025364164, 34316.052116877094, 28954.717988338234, 24747.873812660437, 0.1, 1.028, 0.14700000000000002, 192.0, 1.5, 24.0, 16.0, 16.0, 2.0, 80.0, 0.0, 0.0, 0.0, 1.7074743229328327E9, 0.0, 2024-02-09 11:25:22.932
36.0, -17186.904512274803, -11664.414306213177, 16265.386791871404, -2281.7778327200217, 46494.15421416214, 17540.397350835487, 34342.09189916753, 9475.44091647159, 29721.606340599817, 2969.7421753099175, 39031.13025797967, 28709.698165619156, 40174.3325798908, 34257.423491170826, 28919.87161873241, 24750.243097572697, 0.1, 1.028, 0.14700000000000002, 192.0, 0.0, 0.0, 0.0, 0.0, 0.0, 0.0, 0.0, 0.0, 0.0, 1.707474322940827E9, 0.0, 2024-02-09 11:25:22.940
38.0, -17188.31267217549, -11648.812788583373, 16336.286525283638, -2295.5912107934014, 46691.274248513495, 17609.24072375783, 34456.5328307787, 9575.42026942018, 29492.478608188467, 2798.5948680156316, 38790.29021147373, 28693.29198518896, 39783.735845534306, 34145.64241714984, 28821.56864661797, 24602.520418467575, 0.1, 1.028, 0.14700000000000002, 192.0, 0.0, 0.0, 0.0, 0.0, 0.0, 0.0, 0.0, 0.0, 0.0, 1.707474322949858E9, 0.0, 2024-02-09 11:25:22.949
40.0, -17229.0151988286, -11639.290945445413, 16292.99119627371, -2290.5173648020464, 46701.37723700729, 17587.850104314104, 34450.073176631115, 9616.055740839927, 29668.29743007391, 2722.8224543121405, 39194.02977156994, 28755.139262096796, 40353.54886693345, 34374.12194897198, 29011.26790181016, 24827.714243854793, 0.1, 1.028, 0.14700000000000002, 192.0, 0.0, 0.0, 0.0, 0.0, 0.0, 0.0, 0.0, 0.0, 0.0, 1.7074743229578488E9, 0.0, 2024-02-09 11:25:22.957
42.0, -17243.65559144683, -11601.650607782676, 16290.823077061545, -2281.9119431867534, 46501.84321425477, 17552.534348074718, 34388.628231123475, 9548.978155729552, 29265.675457200465, 2625.99469733175, 38732.2427311233, 28650.95778119061, 39825.623014643556, 34139.696853124726, 28808.60463483389, 24628.314331568996, 0.1, 1.028, 0.14700000000000002, 192.0, 0.0, 0.0, 0.0, 0.0, 0.0, 0.0, 0.0, 0.0, 0.0, 1.707474322964815E9, 0.0, 2024-02-09 11:25:22.964
44.0, -17262.229891089188, -11551.582700202787, 16334.61014444949, -2298.340475361404, 46842.28263405355, 17633.58177346966, 34548.53261095675, 9722.07006479145, 29451.418453624065, 2666.1160786290266, 39019.350888651716, 28733.726290908613, 40109.13254131467, 34318.8013814451, 28952.706331337256, 24749.75135919468, 0.101, 1.018, 0.15250000000000002, 192.0, 1.5, 24.0, 15.5, 64.0, 2.0, 120.0, 0.0, 0.0, 0.0, 1.70747432297287E9, 0.0, 2024-02-09 11:25:22.972
46.0, -17295.198714160768, -11549.414580990622, 16251.528710309114, -2288.3939490787925, 46511.54387134837, 17539.61503977955, 34390.75164684673, 9589.457164938112, 29301.840579729153, 2617.255165249725, 38965.39377753661, 28670.850833755834, 40161.9273617181, 34271.54979366658, 28917.256464631137, 24771.32079259405, 0.101, 1.018, 0.15250000000000002, 192.0, 0.0, 0.0, 0.0, 0.0, 0.0, 0.0, 0.0, 0.0, 0.0, 1.7074743229818883E9, 0.0, 2024-02-09 11:25:22.981
48.0, -17279.731306997695, -11480.235931901447, 16324.954190844797, -2295.9488387046863, 46710.0273621115, 17619.477822718363, 34517.41898267496, 9704.747462838586, 29161.5833832721, 2616.0258193046834, 38729.024079921735, 28662.692447029647, 39765.854449970066, 34163.99319934764, 28810.45982962368, 24629.96836065869, 0.101, 1.018, 0.15250000000000002, 192.0, 0.0, 0.0, 0.0, 0.0, 0.0, 0.0, 0.0, 0.0, 0.0, 1.7074743229890428E9, 0.0, 2024-02-09 11:25:22.989
50.0, -17298.88675199589, -11457.772428723863, 16279.893074022899, -2287.5892862784012, 46723.48311227359, 17603.29515973272, 34524.50448566729, 9742.298393523502, 29403.183389089514, 2640.746848672253, 39148.342805903296, 28719.845857601867, 40340.987186549566, 34384.96254503281, 29001.70135518329, 24862.717075671804, 0.101, 1.018, 0.15250000000000002, 192.0, 0.0, 0.0, 0.0, 0.0, 0.0, 0.0, 0.0, 0.0, 0.0, 1.7074743229968665E9, 0.0, 2024-02-09 11:25:22.996
52.0, -17338.494043170696, -11441.679172716043, 16270.214768673752, -2286.2928850999933, 46499.69744678705, 17561.743266790305, 34425.73212691928, 9652.645546513266, 29029.618684007968, 2609.4320546903677, 38693.55186147116, 28612.781001660944, 39810.647345858495, 34141.68615838124, 28793.85248349339, 24670.2238524227, 0.101, 1.018, 0.15250000000000002, 192.0, 0.0, 0.0, 0.0, 0.0, 0.0, 0.0, 0.0, 0.0, 0.0, 1.7074743230048897E9, 0.0, 2024-02-09 11:25:23.004
54.0, -17323.42896740782, -11375.808581806254, 16323.903658855399, -2292.797242736488, 46839.3545555299, 17637.135700838055, 34592.40908532251, 9811.342932145946, 29257.494718729824, 2674.140354888482, 38977.37431256465, 28689.425133398192, 40081.21521248999, 34308.60898597348, 28923.15732516734, 24777.065190919067, 0.0995, 1.008, 0.15925, 192.0, 1.5, 8.0, 15.5, 24.0, 2.5, 24.0, 0.0, 0.0, 0.0, 1.7074743230149086E9, 0.0, 2024-02-09 11:25:23.014
56.0, -17340.349237960487, -11359.111828698138, 16248.891204463389, -2280.2355623526055, 46504.883051500685, 17546.253507882775, 34438.964359636826, 9673.611482812345, 29164.511461795744, 2697.632038311009, 38959.35880653367, 28656.09868241533, 40153.99249243647, 34275.997790813184, 28905.790019725566, 24806.61419708898, 0.0995, 1.008, 0.15925, 192.0, 0.0, 0.0, 0.0, 0.0, 0.0, 0.0, 0.0, 0.0, 0.0, 1.7074743230209076E9, 0.0, 2024-02-09 11:25:23.020
58.0, -17332.727293101227, -11294.33647326666, 16316.125251784952, -2295.077120670929, 46699.43263523968, 17611.118270292078, 34561.36251227409, 9753.4519140067, 29041.5545155471, 2733.0148497837604, 38708.952213400866, 28633.501068771016, 39746.36372880504, 34157.444138222236, 28794.478332338138, 24650.30844811302, 0.0995, 1.008, 0.15925, 192.0, 0.0, 0.0, 0.0, 0.0, 0.0, 0.0, 0.0, 0.0, 0.0, 1.7074743230289638E9, 0.0, 2024-02-09 11:25:23.028
60.0, -17363.72916266074, -11288.14504005254, 16258.971841212731, -2303.660190541767, 46704.417074253215, 17578.752944320793, 34547.7055964119, 9762.347908299913, 29310.244835644346, 2793.5210220242766, 39120.648994523166, 28685.893557774256, 40308.64421232274, 34366.410597134905, 28974.611040903455, 24868.416770507905, 0.0995, 1.008, 0.15925, 192.0, 0.0, 0.0, 0.0, 0.0, 0.0, 0.0, 0.0, 0.0, 0.0, 1.707474323037972E9, 0.0, 2024-02-09 11:25:23.037
62.0, -17369.495912730206, -11246.83901629913, 16246.991306184687, -2302.8778794858313, 46474.03764415236, 17530.115548386046, 34437.220923569315, 9640.19562485166, 28995.420514991347, 2773.806783414696, 38674.84345136207, 28583.477864680037, 39781.433615855414, 34110.37136439936, 28755.675703963723, 24657.751579016636, 0.0995, 1.008, 0.15925, 192.0, 0.0, 0.0, 0.0, 0.0, 0.0, 0.0, 0.0, 0.0, 0.0, 1.7074743230449605E9, 0.0, 2024-02-09 11:25:23.044
64.0, -17338.158767003868, -11168.49615198328, 16296.902751553387, -2314.0984552023956, 46816.26520350757, 17607.8549156016, 34613.68794604397, 9792.567466803488, 29261.89801238752, 2881.4974882003653, 38959.917600145054, 28676.01408672501, 40049.87806676365, 34283.59738392799, 28883.460627014712, 24761.37426631144, 0.09775, 1.002, 0.16162500000000002, 192.0, 1.5, 0.0, 15.5, 16.0, 2.5, 16.0, 0.0, 0.0, 0.0, 1.7074743230529332E9, 0.0, 2024-02-09 11:25:23.052
66.0, -17346.18304326332, -11152.537006442191, 16217.218782570219, -2299.368655606348, 46476.63044650918, 17512.770594688725, 34437.15386833595, 9664.670785030221, 29197.34617440059, 2912.8122821822503, 38931.262663753354, 28627.93548440164, 40131.03725088087, 34256.61882837043, 28853.017551066587, 24786.96701371277, 0.09775, 1.002, 0.16162500000000002, 192.0, 0.0, 0.0, 0.0, 0.0, 0.0, 0.0, 0.0, 0.0, 0.0, 1.707474323061062E9, 0.0, 2024-02-09 11:25:23.061
68.0, -17311.604894590964, -11071.981319425264, 16303.720033612257, -2297.446405583192, 46672.09645177084, 17598.75775560829, 34568.917401899984, 9767.779382202552, 29121.86433337502, 2997.6595041345963, 38696.21171906134, 28623.509838999493, 39730.8292664086, 34147.00587356161, 28744.700997436168, 24644.07231140999, 0.09775, 1.002, 0.16162500000000002, 192.0, 0.0, 0.0, 0.0, 0.0, 0.0, 0.0, 0.0, 0.0, 0.0, 1.7074743230700278E9, 0.0, 2024-02-09 11:25:23.070
70.0, -17289.253150135657, -11029.758874149189, 16266.683193049812, -2285.354111832871, 46692.83887062537, 17580.161104221475, 34574.41593103599, 9774.149629372314, 29453.92184900306, 3143.974023339036, 39135.0882214413, 28691.570900865903, 40304.419732620685, 34368.24344018024, 28945.687883578288, 24878.139779345966, 0.09775, 1.002, 0.16162500000000002, 192.0, 0.0, 0.0, 0.0, 0.0, 0.0, 0.0, 0.0, 0.0, 0.0, 1.7074743230770357E9, 0.0, 2024-02-09 11:25:23.077
72.0, -17258.050114876045, -10969.900902497877, 16273.165198941851, -2267.6515302242674, 46473.1212226297, 17550.053304440178, 34492.00504922927, 9673.432668856702, 29212.79122981921, 3218.651201564217, 38720.37395481753, 28634.059862382397, 39785.88161300202, 34129.392698930824, 28752.59116322889, 24687.859378797937, 0.09775, 1.002, 0.16162500000000002, 192.0, 0.0, 0.0, 0.0, 0.0, 0.0, 0.0, 0.0, 0.0, 0.0, 1.7074743230850012E9, 0.0, 2024-02-09 11:25:23.085
74.0, -17212.98899805415, -10875.285968218563, 16321.735539643234, -2277.2627803400496, 46817.47219770816, 17625.87042163258, 34663.91231583504, 9819.769539805597, 29564.13830091218, 3271.5130772010184, 39021.83193228626, 28737.280218277006, 40059.08698547924, 34291.800474143085, 28893.988298653163, 24807.754136056203, 0.094875, 0.998, 0.16181250000000003, 192.0, 1.0, 112.0, 15.5, 8.0, 2.5, 8.0, 0.0, 0.0, 0.0, 1.7074743230940695E9, 0.0, 2024-02-09 11:25:23.094
76.0, -17221.84028885845, -10865.317090191495, 16256.222576644728, -2254.9110358847424, 46488.90155421515, 17536.50814730026, 34500.65517433348, 9682.01573872754, 29588.70286806856, 3189.39276807222, 39010.83487401425, 28698.812866069424, 40134.3229573158, 34238.91624676183, 28878.05150485653, 24850.82594762158, 0.094875, 0.998, 0.16181250000000003, 192.0, 0.0, 0.0, 0.0, 0.0, 0.0, 0.0, 0.0, 0.0, 0.0, 1.707474323101054E9, 0.0, 2024-02-09 11:25:23.101
78.0, -17169.514855088575, -10791.533981744526, 16344.131987587452, -2249.881893382298, 46693.352960747834, 17607.184363267945, 34628.03776598427, 9763.778419945053, 29577.482292351997, 3237.0019837620243, 38791.69837137441, 28703.327918449395, 39731.72333618681, 34110.527826610545, 28793.204282904182, 24723.823335626526, 0.094875, 0.998, 0.16181250000000003, 192.0, 0.0, 0.0, 0.0, 0.0, 0.0, 0.0, 0.0, 0.0, 0.0, 1.70747432310907E9, 0.0, 2024-02-09 11:25:23.109
80.0, -17171.68297430074, -10771.462115223661, 16322.271981510161, -2233.2968989964606, 46733.34023157838, 17582.82096181166, 34647.930818549496, 9756.268233808069, 29953.50568932363, 3451.44462006624, 39247.5621995404, 28791.773771259042, 40300.79875001893, 34335.36402408648, 29013.100744855496, 24963.478739676328, 0.094875, 0.998, 0.16181250000000003, 192.0, 0.0, 0.0, 0.0, 0.0, 0.0, 0.0, 0.0, 0.0, 0.0, 1.707474323117096E9, 0.0, 2024-02-09 11:25:23.117
82.0, -17136.233107594624, -10756.218225505141, 16326.407054234392, -2218.321230211405, 46513.15319694915, 17539.36917059054, 34548.91259061248, 9621.174290320194, 29702.45089560162, 3664.3896894919503, 38828.19877006993, 28703.05969751593, 39777.92439197593, 34094.56868106946, 28825.211980964184, 24782.451961332794, 0.094875, 0.998, 0.16181250000000003, 192.0, 0.0, 0.0, 0.0, 0.0, 0.0, 0.0, 0.0, 0.0, 0.0, 1.7074743231251087E9, 0.0, 2024-02-09 11:25:23.125
84.0, -17060.371286913312, -10784.537885730015, 16370.596453022536, -2226.9043000822426, 46851.24568358013, 17608.72663363536, 34705.531264010824, 9689.682387075709, 30021.23147502321, 3988.713501538456, 39124.69466026958, 28800.245082407604, 40036.08704043472, 34260.32921795001, 28962.898726808875, 24894.277738842695, 0.0894375, 1.002, 0.16190625000000003, 192.0, 1.0, 80.0, 15.5, 56.0, 2.5, 8.0, 0.0, 0.0, 0.0, 1.707474323133052E9, 0.0, 2024-02-09 11:25:23.133
86.0, -17020.22755387158, -10870.413287927306, 16289.012585760664, -2204.7537213270334, 46525.1337319772, 17528.394464062985, 34513.08274425063, 9471.775230380921, 29998.49975091216, 4207.693541967099, 39123.15238990216, 28764.6387534903, 40122.29771879884, 34236.16698219383, 28954.40506391586, 24936.857812030055, 0.0894375, 1.002, 0.16190625000000003, 192.0, 0.0, 0.0, 0.0, 0.0, 0.0, 0.0, 0.0, 0.0, 0.0, 1.7074743231413963E9, 0.0, 2024-02-09 11:25:23.141
88.0, -16889.358090085756, -10876.24709323014, 16367.62367100998, -2201.1327387252736, 46710.228527811596, 17592.074584016154, 34605.46250408441, 9462.879236087709, 29932.852677446925, 4437.1789022897365, 38876.85851774913, 28763.990552901098, 39706.823492863594, 34116.98748075813, 28856.392664479336, 24769.934984437823, 0.0894375, 1.002, 0.16190625000000003, 192.0, 0.0, 0.0, 0.0, 0.0, 0.0, 0.0, 0.0, 0.0, 0.0, 1.7074743231500976E9, 0.0, 2024-02-09 11:25:23.150
90.0, -16823.778071853885, -10917.843689661466, 16332.643190937424, -2188.86163101931, 46722.74550470657, 17568.895825016003, 34581.32262007268, 9383.262322337905, 30245.397120165482, 4664.786716078129, 39310.25884273754, 28840.858202082898, 40281.710360254096, 34344.03650093514, 29061.64873381242, 24991.88780687902, 0.0894375, 1.002, 0.16190625000000003, 192.0, 0.0, 0.0, 0.0, 0.0, 0.0, 0.0, 0.0, 0.0, 0.0, 1.70747432315611E9, 0.0, 2024-02-09 11:25:23.156
92.0, -16729.07373059675, -10906.801927900546, 16347.350638789016, -2158.1279823932628, 46490.555583304835, 17565.811284281168, 34485.187767170406, 9307.288742934315, 29964.234526662178, 4759.401650357443, 38908.30742219775, 28767.56683201395, 39783.333514134116, 34121.27901569355, 28881.314859547005, 24806.23421743324, 0.0894375, 1.002, 0.16190625000000003, 192.0, 0.0, 0.0, 0.0, 0.0, 0.0, 0.0, 0.0, 0.0, 0.0, 1.7074743231650963E9, 0.0, 2024-02-09 11:25:23.165
94.0, -16644.91941272252, -10903.829145887988, 16392.925845733385, -2180.0997471928295, 46812.01837206106, 17627.77031991128, 34618.53827459076, 9394.52760154338, 30242.670207341936, 4952.78894338476, 39207.48552173204, 28866.830929139964, 40044.87127600566, 34301.679945192336, 29011.960805888273, 24909.678090772402, 0.08871875, 1.0110000000000001, 0.15795312500000003, 192.0, 1.0, 96.0, 15.5, 112.0, 2.0, 104.0, 0.0, 0.0, 0.0, 1.7074743231731372E9, 0.0, 2024-02-09 11:25:23.173
96.0, -16641.56665105422, -10938.586108515992, 16315.387644217926, -2167.2027906421176, 46476.094004642255, 17546.43232183842, 34424.23456004078, 9232.49980598686, 30187.617860748516, 5055.204636478977, 39206.94907986511, 28820.585169861934, 40138.882713184685, 34268.84523258749, 28989.139674799404, 24920.228114155307, 0.08871875, 1.0110000000000001, 0.15795312500000003, 192.0, 0.0, 0.0, 0.0, 0.0, 0.0, 0.0, 0.0, 0.0, 0.0, 1.707474323181151E9, 0.0, 2024-02-09 11:25:23.181
98.0, -16568.78937110774, -10901.884544120378, 16390.467153843303, -2178.803346014422, 46664.31804470039, 17618.002607584312, 34527.36550895757, 9291.486059604415, 30087.213824655275, 5167.87978027818, 38959.448213511496, 28810.66099532378, 39735.09844959956, 34154.58311493196, 28877.313897289503, 24759.496719777195, 0.08871875, 1.0110000000000001, 0.15795312500000003, 192.0, 0.0, 0.0, 0.0, 0.0, 0.0, 0.0, 0.0, 0.0, 0.0, 1.7074743231891572E9, 0.0, 2024-02-09 11:25:23.189
100.0, -16564.050801283218, -10901.102233064441, 16354.61495573699, -2177.1046134358185, 46702.36071376332, 17588.654767114494, 34527.678433379944, 9277.940902464497, 30375.953659528932, 5286.589895080316, 39388.8475762424, 28878.431484512268, 40321.42941015118, 34364.68951281184, 29077.786693309154, 24971.57007116915, 0.08871875, 1.0110000000000001, 0.15795312500000003, 192.0, 0.0, 0.0, 0.0, 0.0, 0.0, 0.0, 0.0, 0.0, 0.0, 1.7074743231971748E9, 0.0, 2024-02-09 11:25:23.197
102.0, -16535.217050935873, -10876.716479863702, 16360.42640929537, -2160.273749860972, 46477.03277790937, 17550.008600951267, 34421.32883326159, 9177.7156803269, 30069.24302211321, 5329.974631068067, 38968.79124269381, 28798.99338471811, 39821.68910761942, 34122.1060302384, 28886.38870553836, 24778.071019419556, 0.08871875, 1.0110000000000001, 0.15795312500000003, 192.0, 0.0, 0.0, 0.0, 0.0, 0.0, 0.0, 0.0, 0.0, 0.0, 1.7074743232062037E9, 0.0, 2024-02-09 11:25:23.206
104.0, -16460.897500621977, -10846.698087060224, 16410.896648275455, -2166.0404999304415, 46822.210767532684, 17620.52835470776, 34592.92317544499, 9310.999132513898, 30327.226856616362, 5440.16873123273, 39252.077251920375, 28894.43533354227, 40081.81870959028, 34287.955974096774, 29025.70712872829, 24886.722849216803, 0.09135937499999999, 1.0165000000000002, 0.15497656250000003, 192.0, 1.0, 120.0, 15.5, 120.0, 2.0, 96.0, 0.0, 0.0, 0.0, 1.707474323212587E9, 0.0, 2024-02-09 11:25:23.212
106.0, -16494.380413816027, -10861.226720956174, 16332.37497000396, -2146.4827235320477, 46486.55462104733, 17525.153461116966, 34409.03537381117, 9162.158866186008, 30264.217288996853, 5478.613731695858, 39243.29301634944, 28856.28090575706, 40187.43070214161, 34262.47498541772, 29010.574997732045, 24919.825782755113, 0.09135937499999999, 1.0165000000000002, 0.15497656250000003, 192.0, 0.0, 0.0, 0.0, 0.0, 0.0, 0.0, 0.0, 0.0, 0.0, 1.7074743232212255E9, 0.0, 2024-02-09 11:25:23.221
108.0, -16456.896538364475, -10840.752523035113, 16407.119203462506, -2152.5847497683467, 46661.85935281031, 17607.497287690316, 34497.03419173172, 9246.380239293605, 30145.574229428083, 5534.694258534224, 38983.31987658976, 28843.741577117635, 39771.30827561716, 34146.51413518359, 28888.15449335033, 24761.933059922823, 0.09135937499999999, 1.0165000000000002, 0.15497656250000003, 192.0, 0.0, 0.0, 0.0, 0.0, 0.0, 0.0, 0.0, 0.0, 0.0, 1.7074743232292323E9, 0.0, 2024-02-09 11:25:23.229
110.0, -16430.11914850702, -10770.635100678814, 16372.250482112227, -2146.5274270209584, 46693.6211816813, 17610.73829063634, 34485.187767170406, 9265.647443014079, 30422.132363573597, 5612.858308894433, 39411.333431164436, 28918.64227278737, 40336.11450625831, 34377.63117285146, 29079.172501465382, 24979.52729219524, 0.09135937499999999, 1.0165000000000002, 0.15497656250000003, 192.0, 0.0, 0.0, 0.0, 0.0, 0.0, 0.0, 0.0, 0.0, 0.0, 1.707474323237272E9, 0.0, 2024-02-09 11:25:23.237
112.0, -16443.26197424674, -10732.234803704598, 16366.684897742856, -2151.958900923598, 46459.173734089585, 17567.979403493333, 34353.91597198439, 9142.221110131874, 30106.972766753766, 5609.01380884812, 38991.254745871396, 28823.736765830134, 39836.08363104864, 34136.6570158788, 28876.822158911487, 24777.869853719458, 0.09135937499999999, 1.0165000000000002, 0.15497656250000003, 192.0, 0.0, 0.0, 0.0, 0.0, 0.0, 0.0, 0.0, 0.0, 0.0, 1.7074743232452729E9, 0.0, 2024-02-09 11:25:23.245
114.0, -16430.029741529197, -10626.846328597823, 16415.47875588879, -2176.85874424681, 46810.02906680454, 17646.322267809184, 34546.36449174458, 9298.906838763576, 30327.450374060914, 5660.132248417407, 39245.32702509487, 28884.53351074857, 40100.05773306581, 34285.18435778432, 28998.594462704, 24855.028075579175, 0.0946796875, 1.02325, 0.15448828125000003, 192.0, 1.5, 8.0, 16.0, 24.0, 2.0, 104.0, 0.0, 0.0, 0.0, 1.707474323253276E9, 0.0, 2024-02-09 11:25:23.253
116.0, -16537.966315503876, -10613.032950524444, 16342.276792797662, -2169.281502876461, 46487.96278094802, 17553.271955641743, 34398.418295194904, 9175.48050588137, 30234.55652410466, 5601.4589192222265, 39237.36980406878, 28837.393681692327, 40218.656089145676, 34271.14746226638, 28994.25822427967, 24882.7218869593, 0.0946796875, 1.02325, 0.15448828125000003, 192.0, 0.0, 0.0, 0.0, 0.0, 0.0, 0.0, 0.0, 0.0, 0.0, 1.7074743232612517E9, 0.0, 2024-02-09 11:25:23.261
118.0, -16585.754345149322, -10655.568320222894, 16413.712968076823, -2193.8460700328437, 46669.324835458385, 17616.192116283433, 34505.796075558195, 9243.094532858675, 30091.57241482406, 5450.763458104546, 38952.742690174906, 28804.067230709465, 39798.26447943026, 34146.3576729724, 28874.072894343484, 24703.70676561675, 0.0946796875, 1.02325, 0.15448828125000003, 192.0, 0.0, 0.0, 0.0, 0.0, 0.0, 0.0, 0.0, 0.0, 0.0, 1.7074743232682774E9, 0.0, 2024-02-09 11:25:23.268
120.0, -16717.45082347999, -10769.428106478228, 16362.080438385063, -2208.374703928793, 46702.00308585204, 17597.77427885226, 34500.20813944437, 9266.519161047836, 30326.869228705076, 5166.78454479987, 39346.15574433276, 28851.51998418808, 40375.83355615539, 34372.02088499319, 29058.94417273333, 24891.7743434637, 0.0946796875, 1.02325, 0.15448828125000003, 192.0, 0.0, 0.0, 0.0, 0.0, 0.0, 0.0, 0.0, 0.0, 0.0, 1.7074743232772622E9, 0.0, 2024-02-09 11:25:23.277
122.0, -16856.299860036357, -10950.8348644775, 16335.124234571962, -2231.2628902510273, 46458.883161411664, 17551.90849922997, 34359.99564647623, 9215.311314500728, 29969.666000564815, 4792.795156573672, 38887.922631254514, 28737.63784618829, 39875.28859082325, 34136.90288506781, 28841.461699183194, 24665.93231748728, 0.0946796875, 1.02325, 0.15448828125000003, 192.0, 0.0, 0.0, 0.0, 0.0, 0.0, 0.0, 0.0, 0.0, 0.0, 1.7074743232853494E9, 0.0, 2024-02-09 11:25:23.285
124.0, -16966.449256712112, -11127.435997418881, 16375.759705991712, -2260.186047576195, 46804.798758601995, 17632.195965313433, 34517.039003019214, 9424.881270513686, 30150.290447508152, 4467.063184626482, 39109.78604671789, 28792.712544526166, 40113.848759394736, 34282.90447984987, 28961.691732608288, 24727.779594395113, 0.0946796875, 1.02325, 0.15448828125000003, 192.0, 0.0, 0.0, 0.0, 0.0, 0.0, 0.0, 0.0, 0.0, 0.0, 1.7074743232932944E9, 0.0, 2024-02-09 11:25:23.293
126.0, -17054.872757777306, -11304.305351293726, 16288.856123549478, -2264.6787482117115, 46484.65472276863, 17531.1884321199, 34340.527277055655, 9338.871757849665, 30040.789251421604, 4006.7513593138888, 39104.421628048614, 28748.6349044603, 40238.19151379961, 34262.89966856237, 28957.802529073066, 24752.41121678486, 0.096, 1.018, 0.154, 192.0, 1.5, 0.0, 15.5, 104.0, 2.0, 104.0, 0.0, 0.0, 0.0, 1.707474323300331E9, 0.0, 2024-02-09 11:25:23.300
128.0, -17112.71907242764, -11376.233264950904, 16369.545921033136, -2268.500896513569, 46674.823364594384, 17601.842296343126, 34444.14996435046, 9476.960835094553, 29828.045347695992, 3532.4920454611834, 38810.25031927232, 28711.128677264296, 39813.26249995977, 34137.305216468005, 28833.638588623835, 24586.09188629292, 0.096, 1.018, 0.154, 192.0, 0.0, 0.0, 0.0, 0.0, 0.0, 0.0, 0.0, 0.0, 0.0, 1.7074743233093088E9, 0.0, 2024-02-09 11:25:23.309
130.0, -17196.96279727969, -11450.686925731532, 16326.98819959023, -2275.340530316893, 46721.85143492835, 17581.993947266812, 34450.654321986956, 9540.17156841416, 30005.920530071326, 3106.177223465112, 39239.828495958864, 28796.89232073931, 40384.9307161487, 34364.53305060066, 29036.570076533568, 24809.855200035003, 0.096, 1.018, 0.154, 192.0, 0.0, 0.0, 0.0, 0.0, 0.0, 0.0, 0.0, 0.0, 0.0, 1.7074743233173342E9, 0.0, 2024-02-09 11:25:23.317
132.0, -17225.662437160307, -11499.100804221727, 16315.208830262285, -2279.0285681520186, 46480.698464000045, 17541.783158991715, 34327.518561782665, 9445.713096346033, 29548.98381817148, 2745.2412540008136, 38797.50982493279, 28690.900348532243, 39875.69092222344, 34122.7542308276, 28838.757138104098, 24621.92173265478, 0.096, 1.018, 0.154, 192.0, 0.0, 0.0, 0.0, 0.0, 0.0, 0.0, 0.0, 0.0, 0.0, 1.7074743233253365E9, 0.0, 2024-02-09 11:25:23.325
134.0, -17275.46212380673, -11505.89573453614, 16367.064877398596, -2299.0333794395187, 46831.24087229263, 17638.588564227648, 34522.78340134423, 9665.833075741897, 29658.216793324566, 2612.7848163586636, 39026.03406024385, 28764.25877383456, 40103.52225345639, 34274.120244278936, 28960.55179364107, 24713.876809343914, 0.096, 1.018, 0.154, 192.0, 0.0, 0.0, 0.0, 0.0, 0.0, 0.0, 0.0, 0.0, 0.0, 1.7074743233326335E9, 0.0, 2024-02-09 11:25:23.332
136.0, -17285.475705322708, -11501.045405989338, 16294.309949196571, -2285.085890899407, 46511.78974053738, 17551.14853991849, 34372.64673383793, 9574.392089175235, 29498.46887570249, 2471.9911780346847, 39020.87080727468, 28712.760354609534, 40214.945699566095, 34266.40889244186, 28963.6363343759, 24780.95439445429, 0.092, 1.01, 0.158, 192.0, 1.0, 112.0, 15.5, 72.0, 2.0, 120.0, 0.0, 0.0, 0.0, 1.7074743233404152E9, 0.0, 2024-02-09 11:25:23.340
138.0, -17259.90530966584, -11417.874564871141, 16361.298127329128, -2296.015893938052, 46701.33253351838, 17608.503116190805, 34513.350965184094, 9683.200381183671, 29282.863948686594, 2405.405331302325, 38757.18727793542, 28698.85756955833, 39776.69504603089, 34138.981597302154, 28851.56468767699, 24622.793450688536, 0.092, 1.01, 0.158, 192.0, 0.0, 0.0, 0.0, 0.0, 0.0, 0.0, 0.0, 0.0, 0.0, 1.7074743233494852E9, 0.0, 2024-02-09 11:25:23.349
140.0, -17327.564040132052, -11447.960012907984, 16315.9017343404, -2290.338550846404, 46753.277987632515, 17614.91806684948, 34516.10022975209, 9766.572388001965, 29471.199747467013, 2331.823388555454, 39174.29318121591, 28747.316151537438, 40347.2233232526, 34370.27744892567, 29046.04721618262, 24850.647133665938, 0.092, 1.01, 0.158, 192.0, 0.0, 0.0, 0.0, 0.0, 0.0, 0.0, 0.0, 0.0, 0.0, 1.7074743233574684E9, 0.0, 2024-02-09 11:25:23.357
142.0, -17315.94113301529, -11409.336198489214, 16301.998949289198, -2287.924562445231, 46509.12988294719, 17575.891921030514, 34392.539786403155, 9665.140171663783, 29076.557347364113, 2247.0432218364745, 38740.33406261612, 28653.975266692076, 39836.70947989338, 34145.485954938646, 28840.545277660523, 24660.478491840186, 0.092, 1.01, 0.158, 192.0, 0.0, 0.0, 0.0, 0.0, 0.0, 0.0, 0.0, 0.0, 0.0, 1.7074743233644748E9, 0.0, 2024-02-09 11:25:23.364
144.0, -17301.2336851637, -11374.020442249828, 16347.529452744659, -2305.850661498387, 46855.67132898228, 17651.77609345628, 34564.26823905328, 9810.873545512384, 29266.927154889963, 2226.8372448488767, 38989.10897840369, 28717.074241289407, 40070.64283736263, 34296.58374745652, 28956.19320347228, 24742.822318413535, 0.092, 1.01, 0.158, 192.0, 0.0, 0.0, 0.0, 0.0, 0.0, 0.0, 0.0, 0.0, 0.0, 1.7074743233724327E9, 0.0, 2024-02-09 11:25:23.372
146.0, -17387.511418761187, -11382.379994676114, 16255.619079544436, -2312.6455918128004, 46532.10747624725, 17549.829786995626, 34405.414391209415, 9678.01477647004, 29149.24522033277, 2177.3951861137375, 38987.23143186944, 28671.7672552785, 40194.27033594494, 34283.68679090581, 28954.047436004574, 24787.011717201676, 0.094, 1.004, 0.168, 192.0, 1.0, 120.0, 15.5, 48.0, 2.5, 32.0, 0.0, 0.0, 0.0, 1.7074743233816075E9, 0.0, 2024-02-09 11:25:23.381
148.0, -17351.078075299036, -11327.394703316058, 16325.8035571341, -2322.6591733287783, 46714.72122844711, 17625.33397976565, 34498.88938652151, 9779.961082930695, 28959.233040718205, 2143.5546450084025, 38697.9328033844, 28633.165792604184, 39748.017757894726, 34141.23912349214, 28821.389832662328, 24617.809011675003, 0.094, 1.004, 0.168, 192.0, 0.0, 0.0, 0.0, 0.0, 0.0, 0.0, 0.0, 0.0, 0.0, 1.707474323388471E9, 0.0, 2024-02-09 11:25:23.388
150.0, -17380.11299134648, -11295.498763978334, 16285.816286303556, -2319.529929105035, 46768.521877351035, 17616.66150291699, 34519.721212353856, 9834.834615568474, 29198.419058134445, 2163.6265115292686, 39128.67327078262, 28699.773991081, 40323.19519796315, 34373.13847221595, 29026.400032806403, 24859.520776214693, 0.094, 1.004, 0.168, 192.0, 0.0, 0.0, 0.0, 0.0, 0.0, 0.0, 0.0, 0.0, 0.0, 1.707474323396521E9, 0.0, 2024-02-09 11:25:23.396
152.0, -17387.801991439104, -11249.901205289509, 16281.480047879226, -2304.889536486809, 46523.07737148731, 17580.205807710387, 34412.81281862412, 9741.449027234201, 28841.95343756121, 2137.0055838829976, 38689.2826782802, 28600.778114888446, 39814.2459767158, 34135.204152489205, 28824.27320769706, 24666.73698028767, 0.094, 1.004, 0.168, 192.0, 0.0, 0.0, 0.0, 0.0, 0.0, 0.0, 0.0, 0.0, 0.0, 1.7074743234056668E9, 0.0, 2024-02-09 11:25:23.405
154.0, -17389.120744361968, -11177.526256743224, 16332.03969383713, -2319.2617081715716, 46876.100823414425, 17661.096770894143, 34598.8687394701, 9905.734348980708, 29060.754664034208, 2194.829546788877, 38948.89819012859, 28694.409572411725, 40037.226979401945, 34295.98025035623, 28951.029950503107, 24765.531690780128, 0.094, 1.004, 0.168, 192.0, 0.0, 0.0, 0.0, 0.0, 0.0, 0.0, 0.0, 0.0, 0.0, 1.7074743234135163E9, 0.0, 2024-02-09 11:25:23.413
156.0, -17435.59002108455, -11199.45331805388, 16248.287707363095, -2306.9458969766974, 46550.59236891179, 17576.316604175165, 34434.71752819032, 9784.766707988585, 28970.677133879322, 2181.418500115693, 38960.834021667724, 28648.8120137229, 40167.02355945391, 34279.19409027029, 28946.693712078777, 24824.272075208675, 0.098, 1.004, 0.168, 192.0, 1.5, 8.0, 15.5, 48.0, 2.5, 32.0, 0.0, 0.0, 0.0, 1.707474323420529E9, 0.0, 2024-02-09 11:25:23.420
158.0, -17428.59392507004, -11132.711009110333, 16313.018359305664, -2324.134388462828, 46705.84758589835, 17619.611933185093, 34503.94088076841, 9814.159251947314, 28811.488009868626, 2204.239631204561, 38671.1777652714, 28615.150286573207, 39723.05085933815, 34136.23233273415, 28806.458867366182, 24645.234602121665, 0.098, 1.004, 0.168, 192.0, 0.0, 0.0, 0.0, 0.0, 0.0, 0.0, 0.0, 0.0, 0.0, 1.707474323428579E9, 0.0, 2024-02-09 11:25:23.428
160.0, -17440.529756609172, -11122.853889805543, 16293.751155585189, -2299.5251178175354, 46776.63556058831, 17632.933572880458, 34573.14188160204, 9907.142508881392, 29087.71086784731, 2260.409565020748, 39109.89780544017, 28685.826502540887, 40309.22535767858, 34369.048102980625, 29009.03272736463, 24876.843378167556, 0.098, 1.004, 0.168, 192.0, 0.0, 0.0, 0.0, 0.0, 0.0, 0.0, 0.0, 0.0, 0.0, 1.7074743234375503E9, 0.0, 2024-02-09 11:25:23.437
162.0, -17437.86989901899, -11064.80640945511, 16282.619986846446, -2289.243315368094, 46528.39708666767, 17594.265054972777, 34459.63972325799, 9805.330312887469, 28777.64746876329, 2264.052899366963, 38696.010553361244, 28606.99189984702, 39822.06908727516, 34146.268265994586, 28820.13813497283, 24704.399669694863, 0.098, 1.004, 0.168, 192.0, 0.0, 0.0, 0.0, 0.0, 0.0, 0.0, 0.0, 0.0, 0.0, 1.7074743234446433E9, 0.0, 2024-02-09 11:25:23.444
164.0, -17456.153625983432, -11057.720906462779, 16327.390530990426, -2311.148024934295, 46875.38556759186, 17661.007363916324, 34632.03872824177, 9940.781884286629, 29011.379660532435, 2343.401592183303, 38940.18100979102, 28686.854682785834, 40048.31344465178, 34292.6945439213, 28933.126203194406, 24784.776542756146, 0.098, 1.004, 0.168, 192.0, 0.0, 0.0, 0.0, 0.0, 0.0, 0.0, 0.0, 0.0, 0.0, 1.7074743234526546E9, 0.0, 2024-02-09 11:25:23.452
166.0, -17503.516972484227, -11066.19221761134, 16251.662820775846, -2297.5805160499235, 46555.19682826958, 17564.09019995811, 34467.08285416161, 9799.317693628991, 28944.592648099977, 2325.855472785887, 38950.842791896204, 28640.206592107606, 40177.484175859, 34267.92881106482, 28934.847287517463, 24831.938723556847, 0.092, 1.0, 0.166, 192.0, 1.0, 112.0, 15.5, 32.0, 2.5, 24.0, 0.0, 0.0, 0.0, 1.707474323460626E9, 0.0, 2024-02-09 11:25:23.460
168.0, -17480.539379184174, -11017.219545509763, 16318.002798319198, -2312.8691092573536, 46720.555033749944, 17614.895715105024, 34577.83574793765, 9852.4254384548, 28821.836867551432, 2363.272293004071, 38664.136965767975, 28622.57106573237, 39729.845789652565, 34130.04089952003, 28808.6493383228, 24657.81863425, 0.092, 1.0, 0.166, 192.0, 0.0, 0.0, 0.0, 0.0, 0.0, 0.0, 0.0, 0.0, 0.0, 1.7074743234696276E9, 0.0, 2024-02-09 11:25:23.469
170.0, -17502.019405605723, -11000.858068568477, 16273.187550686307, -2311.8632807568647, 46769.95238899617, 17602.691662632427, 34598.13113190307, 9891.853915673963, 29117.7739641397, 2442.688041053777, 39093.06694186532, 28688.307546175427, 40303.03392446446, 34350.18323066035, 29009.569169231556, 24887.01342189472, 0.092, 1.0, 0.166, 192.0, 0.0, 0.0, 0.0, 0.0, 0.0, 0.0, 0.0, 0.0, 0.0, 1.7074743234767673E9, 0.0, 2024-02-09 11:25:23.476
172.0, -17487.04373682067, -10964.245911150683, 16266.638489560903, -2296.462928827158, 46515.4777783725, 17563.151426690987, 34484.71838053684, 9789.617036535386, 28852.078777799463, 2504.7364836617094, 38685.75110265626, 28604.1532283012, 39808.59098536861, 34119.46852439267, 28809.297538912004, 24705.539608662082, 0.092, 1.0, 0.166, 192.0, 0.0, 0.0, 0.0, 0.0, 0.0, 0.0, 0.0, 0.0, 0.0, 1.7074743234846053E9, 0.0, 2024-02-09 11:25:23.484
174.0, -17439.434521130865, -10910.311151780028, 16330.832699636543, -2296.798204993988, 46862.756831974606, 17645.338791053153, 34657.60912389864, 9936.15507318438, 29155.10137738006, 2672.6874914988866, 38942.77381214784, 28696.421229412703, 40022.45247631699, 34263.905497062864, 28928.72290953671, 24804.557836599095, 0.092, 1.0, 0.166, 192.0, 0.0, 0.0, 0.0, 0.0, 0.0, 0.0, 0.0, 0.0, 0.0, 1.7074743234937088E9, 0.0, 2024-02-09 11:25:23.493
176.0, -17441.803806043124, -10904.63380868838, 16241.224556115218, -2292.171393891739, 46537.09191526078, 17533.535365287706, 34482.01381945775, 9759.151608842803, 29197.636747078508, 2697.095596444082, 38977.08373988673, 28666.983981965066, 40164.09548093027, 34245.39825265387, 28930.33223513749, 24862.33709601606, 0.08600000000000001, 0.996, 0.168, 192.0, 1.0, 88.0, 15.5, 16.0, 2.5, 32.0, 0.0, 0.0, 0.0, 1.7074743235007267E9, 0.0, 2024-02-09 11:25:23.500
178.0, -17402.241218357234, -10859.997375011131, 16312.750138372201, -2294.5183270595467, 46704.08179808639, 17605.262113244786, 34588.96691667639, 9849.586766908977, 29171.01581943224, 2655.901331412951, 38697.53047198421, 28655.696351015136, 39717.84290288006, 34098.68140204923, 28808.42582087825, 24695.79424807957, 0.08600000000000001, 0.996, 0.168, 192.0, 0.0, 0.0, 0.0, 0.0, 0.0, 0.0, 0.0, 0.0, 0.0, 1.707474323508708E9, 0.0, 2024-02-09 11:25:23.508
180.0, -17423.20715465631, -10860.10913373341, 16268.7395535397, -2297.245239883094, 46762.509258092556, 17590.82288632666, 34617.28657690127, 9866.819961884017, 29590.28984192489, 2672.553381032155, 39145.30296865737, 28731.82639262991, 40292.50625282601, 34314.800419187595, 29014.955939645286, 24923.111489190043, 0.08600000000000001, 0.996, 0.168, 192.0, 0.0, 0.0, 0.0, 0.0, 0.0, 0.0, 0.0, 0.0, 0.0, 1.7074743235167255E9, 0.0, 2024-02-09 11:25:23.516
182.0, -17430.27030590419, -10828.324953117963, 16253.160387654352, -2288.2598386120603, 46508.83931026928, 17546.208804393864, 34505.43844764691, 9746.388762758823, 29401.61876697764, 2761.8933036200174, 38750.95114123239, 28654.757577748012, 39795.11288346206, 34072.48515754761, 28823.535600130035, 24749.639600472405, 0.08600000000000001, 0.996, 0.168, 192.0, 0.0, 0.0, 0.0, 0.0, 0.0, 0.0, 0.0, 0.0, 0.0, 1.7074743235247216E9, 0.0, 2024-02-09 11:25:23.524
184.0, -17372.222825553756, -10787.488315998116, 16321.802594876599, -2288.0586729119627, 46865.28257909806, 17625.378683254563, 34690.30972603676, 9888.81407842804, 29743.868678077302, 3109.0158950109358, 39007.50446409041, 28748.523145738025, 39986.98025786642, 34215.178694150294, 28947.78894755709, 24843.092244040043, 0.08600000000000001, 0.996, 0.168, 192.0, 0.0, 0.0, 0.0, 0.0, 0.0, 0.0, 0.0, 0.0, 0.0, 1.7074743235326743E9, 0.0, 2024-02-09 11:25:23.532
186.0, -17350.943964832302, -10843.904119003311, 16280.809495545567, -2245.2327305355943, 46572.81000290037, 17538.162176389957, 34567.08455885465, 9733.245937019103, 29786.694620453673, 3414.899517881813, 39068.90470610913, 28730.820564129423, 40130.1208293582, 34220.364298863926, 28987.06096256506, 24916.808297253647, 0.08600000000000001, 0.998, 0.162, 192.0, 1.0, 88.0, 15.5, 24.0, 2.5, 8.0, 0.0, 0.0, 0.0, 1.707474323540792E9, 0.0, 2024-02-09 11:25:23.540
188.0, -17245.46608274771, -10879.018709542599, 16359.845263939533, -2238.6613176657343, 46730.81448445493, 17596.321415462662, 34646.36619643762, 9703.853393060373, 29733.139840738757, 3691.055320627132, 38813.71483966289, 28725.724366393613, 39694.91001306892, 34090.254794389584, 28900.15738012283, 24773.153635639388, 0.08600000000000001, 0.998, 0.162, 192.0, 0.0, 0.0, 0.0, 0.0, 0.0, 0.0, 0.0, 0.0, 0.0, 1.707474323549713E9, 0.0, 2024-02-09 11:25:23.549
190.0, -17167.97258472116, -10915.966143127222, 16332.84435663752, -2222.411599446726, 46794.673418363745, 17598.37777595255, 34673.83649037319, 9635.211185838127, 30098.121475949465, 3963.366623326138, 39276.10537720983, 28816.204227948696, 40274.73661598404, 34323.808172203084, 29116.410507727924, 25002.013147117275, 0.08600000000000001, 0.998, 0.162, 192.0, 0.0, 0.0, 0.0, 0.0, 0.0, 0.0, 0.0, 0.0, 0.0, 1.7074743235557244E9, 0.0, 2024-02-09 11:25:23.555
192.0, -17074.698755109162, -10951.773637744624, 16312.32545522755, -2213.1356254977736, 46528.01710701193, 17558.837540011114, 34521.039965276716, 9440.77336082141, 29848.608952594874, 4169.360300226248, 38881.619439318114, 28733.949808353165, 39776.896211730986, 34095.75332352559, 28932.992092727673, 24819.108822239497, 0.08600000000000001, 0.998, 0.162, 192.0, 0.0, 0.0, 0.0, 0.0, 0.0, 0.0, 0.0, 0.0, 0.0, 1.707474323564782E9, 0.0, 2024-02-09 11:25:23.564
194.0, -16952.322954216357, -10922.336390296983, 16379.33598510456, -2206.0054190165306, 46868.769451233085, 17651.932555667467, 34671.35544673866, 9528.615716530767, 30113.454772645808, 4399.829137304919, 39124.82877073631, 28824.116745485873, 39982.50990897536, 34240.52557236261, 29044.75081500421, 24900.893855201466, 0.08600000000000001, 0.998, 0.162, 192.0, 0.0, 0.0, 0.0, 0.0, 0.0, 0.0, 0.0, 0.0, 0.0, 1.7074743235727983E9, 0.0, 2024-02-09 11:25:23.572
196.0, -16899.706947768565, -10923.521032753115, 16320.975580331753, -2171.471973833081, 46548.62541539972, 17567.353554648587, 34474.548336809676, 9347.633641676146, 30121.0096622717, 4517.689885817753, 39190.54289943491, 28815.198399448207, 40155.244190125966, 34246.225267198715, 29069.740065305243, 24962.718780364845, 0.094, 1.02, 0.156, 192.0, 1.0, 120.0, 15.5, 112.0, 2.0, 112.0, 0.0, 0.0, 0.0, 1.7074743235808003E9, 0.0, 2024-02-09 11:25:23.580
198.0, -16796.732461062966, -10886.48419219067, 16394.803392267633, -2176.8140407578994, 46694.96228634862, 17616.192116283433, 34539.94954108591, 9353.109819067695, 30008.40157370586, 4678.845963340516, 38921.897282826576, 28804.76013478758, 39709.68451615387, 34103.889358507324, 28946.73841556769, 24784.46361833377, 0.094, 1.02, 0.156, 192.0, 0.0, 0.0, 0.0, 0.0, 0.0, 0.0, 0.0, 0.0, 0.0, 1.7074743235887997E9, 0.0, 2024-02-09 11:25:23.588
200.0, -16773.419591596077, -10910.35585526894, 16351.530415002158, -2189.152203697229, 46755.35669986686, 17587.157200235986, 34542.07295680916, 9330.489853678924, 30316.654481489004, 4807.636714891996, 39362.27135208504, 28874.408170510313, 40285.77837774496, 34334.20173337481, 29144.081967363592, 24981.583652685127, 0.094, 1.02, 0.156, 192.0, 0.0, 0.0, 0.0, 0.0, 0.0, 0.0, 0.0, 0.0, 0.0, 1.7074743235968697E9, 0.0, 2024-02-09 11:25:23.596
202.0, -16738.84144292372, -10922.179928085796, 16321.690836154323, -2200.6857038361672, 46492.32137111681, 17533.535365287706, 34403.33567897507, 9189.807974077223, 30014.727117386716, 4838.772694918239, 38942.68440517002, 28771.053704148973, 39810.06620050266, 34093.16052116877, 28946.894877778876, 24776.171121140855, 0.094, 1.02, 0.156, 192.0, 0.0, 0.0, 0.0, 0.0, 0.0, 0.0, 0.0, 0.0, 0.0, 1.707474323605798E9, 0.0, 2024-02-09 11:25:23.605
204.0, -16666.39943914407, -10903.985608099176, 16368.517740788191, -2217.0918842663627, 46840.092163096924, 17616.66150291699, 34550.119584813074, 9300.292646919805, 30243.251352697775, 4953.034812573768, 39171.00747478098, 28844.680350384755, 40020.35141233819, 34230.04260421307, 29042.917971958876, 24836.386720703453, 0.094, 1.02, 0.156, 192.0, 0.0, 0.0, 0.0, 0.0, 0.0, 0.0, 0.0, 0.0, 0.0, 1.707474323611812E9, 0.0, 2024-02-09 11:25:23.611
206.0, -16673.104962480662, -10928.796044444567, 16296.65688236438, -2191.923820009687, 46533.9850227815, 17538.9891909348, 34429.53192347669, 9189.62916012158, 30205.767477246223, 4973.576065728195, 39208.08901883233, 28811.063326723975, 40180.613420082744, 34231.897799002865, 29043.54382080362, 24890.835570196577, 0.10200000000000001, 1.024, 0.156, 192.0, 1.5, 24.0, 16.0, 0.0, 2.0, 112.0, 0.0, 0.0, 0.0, 1.7074743236208255E9, 0.0, 2024-02-09 11:25:23.620
208.0, -16588.503609717325, -10891.826259115489, 16380.922958960888, -2188.9063345082204, 46678.28788498496, 17622.540011708737, 34527.56667465767, 9303.913629521565, 30074.406275082383, 5034.104589713167, 38930.72622188643, 28802.301442897493, 39732.5279989872, 34096.93796598172, 28933.372072383416, 24745.683341703814, 0.10200000000000001, 1.024, 0.156, 192.0, 0.0, 0.0, 0.0, 0.0, 0.0, 0.0, 0.0, 0.0, 0.0, 1.707474323628853E9, 0.0, 2024-02-09 11:25:23.628
210.0, -16590.42585974048, -10901.973951098198, 16348.065894611585, -2184.5924478283464, 46741.07393515992, 17611.185325525443, 34543.905799854496, 9319.761016340377, 30376.266583951307, 5127.557233280806, 39380.778596494034, 28884.645269470846, 40316.78024730447, 34331.78774497363, 29141.95855164034, 24979.214367772864, 0.10200000000000001, 1.024, 0.156, 192.0, 0.0, 0.0, 0.0, 0.0, 0.0, 0.0, 0.0, 0.0, 0.0, 1.7074743236368885E9, 0.0, 2024-02-09 11:25:23.636
212.0, -16535.574678847155, -10835.410456110294, 16338.722865429267, -2172.2319331445615, 46472.584780762765, 17561.028010967733, 34395.37845794898, 9182.610712362613, 30078.38488559543, 5128.7642274813925, 38979.363617821175, 28800.80387601899, 39839.86107586158, 34108.51616960957, 28943.519764366123, 24792.644356804416, 0.10200000000000001, 1.024, 0.156, 192.0, 0.0, 0.0, 0.0, 0.0, 0.0, 0.0, 0.0, 0.0, 0.0, 1.7074743236439595E9, 0.0, 2024-02-09 11:25:23.643
214.0, -16473.97327112833, -10796.227848080141, 16396.479773101782, -2189.085148463863, 46821.67432566576, 17647.68572422096, 34556.71334942739, 9332.99324905792, 30313.23466458734, 5224.720266428026, 39214.83924565784, 28894.077705630985, 40038.07634569125, 34251.612037612445, 29046.293085371624, 24853.798729634134, 0.10200000000000001, 1.024, 0.156, 192.0, 0.0, 0.0, 0.0, 0.0, 0.0, 0.0, 0.0, 0.0, 0.0, 1.7074743236529047E9, 0.0, 2024-02-09 11:25:23.652
216.0, -16535.149995702504, -10798.954760903689, 16318.025150063653, -2180.8150030153993, 46512.41558938212, 17554.546005075696, 34377.318248429096, 9182.811878062712, 30283.976231095345, 5238.488941012495, 39265.711816038114, 28864.886327372355, 40211.01179254196, 34261.02212202813, 29054.742044775732, 24897.272872599708, 0.10400000000000001, 1.022, 0.152, 192.0, 1.5, 32.0, 15.5, 120.0, 2.0, 96.0, 0.0, 0.0, 0.0, 1.7074743236610172E9, 0.0, 2024-02-09 11:25:23.661
218.0, -16455.5330819527, -10708.139623181776, 16392.188238166364, -2182.6031425718243, 46663.62514062228, 17619.187250040442, 34452.5318685212, 9233.840910654177, 30119.087412248544, 5267.434450082118, 38961.549277490296, 28829.458812410692, 39757.76311847724, 34120.78727731553, 28917.94936870925, 24711.105193031453, 0.10400000000000001, 1.022, 0.152, 192.0, 0.0, 0.0, 0.0, 0.0, 0.0, 0.0, 0.0, 0.0, 0.0, 1.7074743236679652E9, 0.0, 2024-02-09 11:25:23.667
220.0, -16487.674890479433, -10680.378756568285, 16362.281604085161, -2185.1735931841845, 46744.15847589475, 17627.77031991128, 34478.8398717451, 9305.768824311355, 30408.989537833877, 5319.961049552089, 39406.147826450804, 28909.232188371683, 40343.31176797292, 34358.38632087545, 29127.653435188942, 24937.55071610817, 0.10400000000000001, 1.022, 0.152, 192.0, 0.0, 0.0, 0.0, 0.0, 0.0, 0.0, 0.0, 0.0, 0.0, 1.707474323676886E9, 0.0, 2024-02-09 11:25:23.676
222.0, -16516.955675715886, -10580.175886175142, 16348.870557411976, -2190.0909769643517, 46493.59542055076, 17574.796685552203, 34367.95286750232, 9191.886686311565, 30099.1049527055, 5255.029231909422, 39003.07881868826, 28804.491913854115, 39871.13116635456, 34123.670652350265, 28939.40704338635, 24762.737722723214, 0.10400000000000001, 1.022, 0.152, 192.0, 0.0, 0.0, 0.0, 0.0, 0.0, 0.0, 0.0, 0.0, 0.0, 1.7074743236849103E9, 0.0, 2024-02-09 11:25:23.684
224.0, -16548.002248764307, -10561.288662110408, 16411.746014564756, -2214.610840631824, 46867.24953261013, 17660.962660427413, 34590.62094576609, 9349.84646437722, 30277.60598392558, 5254.13516213121, 39204.46803623057, 28863.18759479375, 40062.9091337811, 34252.01436901264, 29058.13950993294, 24823.512115897192, 0.10400000000000001, 1.022, 0.152, 192.0, 0.0, 0.0, 0.0, 0.0, 0.0, 0.0, 0.0, 0.0, 0.0, 1.7074743236929548E9, 0.0, 2024-02-09 11:25:23.692
226.0, -16706.319654741248, -10633.685962401149, 16319.723882642256, -2228.5806809163905, 46555.6885666476, 17562.01148772377, 34415.91971110341, 9228.92352687401, 30223.02302396572, 5085.357139749186, 39228.69732722012, 28804.000175476096, 40234.70464166458, 34248.43808989979, 29078.859577043007, 24871.277793798185, 0.097, 1.0230000000000001, 0.153, 192.0, 1.0, 104.0, 16.0, 0.0, 2.0, 104.0, 0.0, 0.0, 0.0, 1.7074743236999495E9, 0.0, 2024-02-09 11:25:23.699
228.0, -16743.781178448342, -10710.464204605129, 16381.079421172075, -2259.7837161759994, 46688.01089382302, 17613.77812788226, 34472.35786585306, 9286.903951991077, 30043.583219478518, 4921.295335447233, 38899.29966918226, 28763.02942788952, 39760.02064466723, 34093.78637001352, 28932.030967716095, 24666.155834931833, 0.097, 1.0230000000000001, 0.153, 192.0, 0.0, 0.0, 0.0, 0.0, 0.0, 0.0, 0.0, 0.0, 0.0, 1.7074743237089653E9, 0.0, 2024-02-09 11:25:23.708
230.0, -16901.785660002908, -10836.304525888507, 16343.32732478706, -2275.83226869491, 46762.59866507038, 17604.680967888948, 34483.64549680299, 9355.70262142451, 30319.8060774572, 4801.892316566982, 39318.61839516382, 28829.27999845505, 40340.87542782729, 34324.63518674793, 29117.95277809534, 24855.40805523492, 0.097, 1.0230000000000001, 0.153, 192.0, 0.0, 0.0, 0.0, 0.0, 0.0, 0.0, 0.0, 0.0, 0.0, 1.7074743237170155E9, 0.0, 2024-02-09 11:25:23.717
232.0, -17026.262524874513, -10935.590974758981, 16319.209792519785, -2278.179201862717, 46498.333990375286, 17563.151426690987, 34360.84501276553, 9316.877641305642, 29973.868128522412, 4574.709185923241, 38881.03829396228, 28717.454220945147, 39874.43922453395, 34094.50162583609, 28918.39640359836, 24660.07616043999, 0.097, 1.0230000000000001, 0.153, 192.0, 0.0, 0.0, 0.0, 0.0, 0.0, 0.0, 0.0, 0.0, 0.0, 1.7074743237239957E9, 0.0, 2024-02-09 11:25:23.723
234.0, -17058.158464212236, -10995.538353388114, 16371.892854200943, -2293.9818851926193, 46850.731593457655, 17644.534128252762, 34520.63763387652, 9515.227021602037, 30184.98035490279, 4440.486960469122, 39102.74524721447, 28801.966166730665, 40063.5573343703, 34232.4789443587, 29029.685739241333, 24730.193582796288, 0.097, 1.0230000000000001, 0.153, 192.0, 0.0, 0.0, 0.0, 0.0, 0.0, 0.0, 0.0, 0.0, 0.0, 1.707474323732988E9, 0.0, 2024-02-09 11:25:23.732
236.0, -17144.10092164289, -11080.899665462932, 16297.70741435378, -2282.537792031502, 46545.853799087265, 17547.840481739102, 34347.858649236994, 9407.536316816368, 30154.313761510108, 4165.113468779739, 39158.199925208086, 28782.967183943652, 40241.81249640137, 34247.99105501069, 29041.68862601383, 24791.079734692543, 0.0915, 1.0195, 0.1555, 192.0, 1.0, 88.0, 15.5, 96.0, 2.0, 120.0, 0.0, 0.0, 0.0, 1.7074743237411835E9, 0.0, 2024-02-09 11:25:23.741
238.0, -17237.106530321424, -11156.515616955236, 16366.57313902058, -2303.3472661193928, 46692.01185608052, 17609.352482480106, 34432.63881595598, 9496.317445792847, 29962.2228696612, 3902.815747596711, 38834.14433409504, 28743.471651491127, 39774.862202985554, 34102.32473639545, 28903.174865624296, 24600.218188788676, 0.0915, 1.0195, 0.1555, 192.0, 0.0, 0.0, 0.0, 0.0, 0.0, 0.0, 0.0, 0.0, 0.0, 1.7074743237502275E9, 0.0, 2024-02-09 11:25:23.750
240.0, -17327.206412220767, -11206.561172790667, 16327.837565879532, -2312.60088832389, 46777.753147811076, 17601.328206220653, 34459.57266802462, 9561.361022157791, 30231.427279880918, 3774.829658845623, 39260.52621132448, 28806.637681321823, 40350.97841632109, 34329.15023912791, 29105.815780856108, 24817.924179783367, 0.0915, 1.0195, 0.1555, 192.0, 0.0, 0.0, 0.0, 0.0, 0.0, 0.0, 0.0, 0.0, 0.0, 1.707474323757002E9, 0.0, 2024-02-09 11:25:23.757
242.0, -17318.533935372106, -11170.35134677307, 16314.784147117633, -2298.2957718724933, 46517.35532490675, 17558.055228955178, 34346.02580619166, 9476.357337994259, 29884.148226278812, 3625.072970995065, 38837.43004052997, 28716.671909889214, 39875.042721634236, 34109.43259113224, 28916.54120880857, 24642.194764875745, 0.0915, 1.0195, 0.1555, 192.0, 0.0, 0.0, 0.0, 0.0, 0.0, 0.0, 0.0, 0.0, 0.0, 1.7074743237650695E9, 0.0, 2024-02-09 11:25:23.765
244.0, -17284.08989716648, -11159.130771056507, 16380.85590372752, -2305.3812748648256, 46878.38070134887, 17650.993782400346, 34536.909703839985, 9658.948738449662, 30092.310022391084, 3485.7545478051366, 39064.50141245144, 28822.84269605192, 40052.87320052066, 34253.5342876356, 29025.818887450565, 24727.667835672837, 0.0915, 1.0195, 0.1555, 192.0, 0.0, 0.0, 0.0, 0.0, 0.0, 0.0, 0.0, 0.0, 0.0, 1.7074743237720845E9, 0.0, 2024-02-09 11:25:23.772
246.0, -17401.660073001396, -11249.409466911491, 16285.592768859002, -2316.3559813923816, 46557.16378178165, 17551.349705618584, 34353.98302721775, 9530.515614809468, 30009.22858825071, 3214.7619980289937, 39109.45077055106, 28764.01290464555, 40238.28092077743, 34265.35836045246, 29040.5039835577, 24799.23812141873, 0.08875, 1.02075, 0.15775, 192.0, 1.0, 88.0, 15.5, 120.0, 2.5, 0.0, 0.0, 0.0, 0.0, 1.707474323780133E9, 0.0, 2024-02-09 11:25:23.780
248.0, -17379.06245935708, -11226.208356166882, 16356.872481926977, -2329.5211588765574, 46693.26355377002, 17604.166877766478, 34432.81762991162, 9590.932380072163, 29764.23111727609, 3061.943121188059, 38777.884993301035, 28703.171456238208, 39755.282074842704, 34101.67653580625, 28889.897929417843, 24604.755592913105, 0.08875, 1.02075, 0.15775, 192.0, 0.0, 0.0, 0.0, 0.0, 0.0, 0.0, 0.0, 0.0, 0.0, 1.7074743237880905E9, 0.0, 2024-02-09 11:25:23.788
250.0, -17389.277206573155, -11226.811853267176, 16323.031940821642, -2326.5930803529122, 46782.44701414669, 17603.33986322163, 34487.758217782764, 9656.445343070667, 30027.89229487089, 3016.5914316882413, 39222.19296958363, 28777.40159957428, 40341.99301505006, 34338.448564821316, 29086.012135268706, 24822.752156585713, 0.08875, 1.02075, 0.15775, 192.0, 0.0, 0.0, 0.0, 0.0, 0.0, 0.0, 0.0, 0.0, 0.0, 1.7074743237970853E9, 0.0, 2024-02-09 11:25:23.797
252.0, -17428.45981460331, -11209.6457135255, 16310.13498427093, -2312.466777857158, 46523.6808685876, 17575.95897626388, 34421.30648151714, 9613.015903594007, 29672.477206287054, 2888.9629708484376, 38825.494208990836, 28691.079162487888, 39883.1117013826, 34121.39077441583, 28912.80846748453, 24672.92841350179, 0.08875, 1.02075, 0.15775, 192.0, 0.0, 0.0, 0.0, 0.0, 0.0, 0.0, 0.0, 0.0, 0.0, 1.7074743238042274E9, 0.0, 2024-02-09 11:25:23.804
254.0, -17438.562803097106, -11178.576788732624, 16364.069743641585, -2331.309298432982, 46864.25439885312, 17644.86940441959, 34583.78131196276, 9728.283849750025, 29819.0375946805, 2855.5247611432983, 39017.67450781757, 28735.335616509394, 40047.62054057366, 34240.994958996176, 29011.089087854518, 24743.17994632482, 0.08875, 1.02075, 0.15775, 192.0, 0.0, 0.0, 0.0, 0.0, 0.0, 0.0, 0.0, 0.0, 0.0, 1.707474323812119E9, 0.0, 2024-02-09 11:25:23.812
0.0, -17460.176939985387, -11157.58850068909, 16284.072850236042, -2315.5066151030796, 46558.370775982236, 17561.98913597931, 34413.170446535405, 9608.165575047204, 29753.971666571102, 2793.8786499355615, 39075.25260153444, 28697.382354424284, 40236.29161552091, 34256.90940104835, 29028.54580027411, 24814.169086714875, 0.089375, 1.013375, 0.160875, 192.0, 1.0, 104.0, 15.5, 56.0, 2.5, 16.0, 0.0, 0.0, 0.0, 1.7074743238211408E9, 0.0, 2024-02-09 11:25:23.821
2.0, -17481.969890829314, -11149.608927918545, 16345.338981788038, -2324.492016374113, 46693.39766423675, 17622.472956475372, 34488.56288058316, 9675.421974113224, 29558.975047943004, 2758.1382105515254, 38760.897667515004, 28667.408665109717, 39767.70964475985, 34112.8524080339, 28879.34790603494, 24635.533945028063, 0.089375, 1.013375, 0.160875, 192.0, 0.0, 0.0, 0.0, 0.0, 0.0, 0.0, 0.0, 0.0, 0.0, 1.7074743238281617E9, 0.0, 2024-02-09 11:25:23.828
4.0, -17480.740544884273, -11086.599360299035, 16312.481917438738, -2323.9332227627306, 46778.02136874454, 17611.833526114646, 34526.33732871262, 9725.534585182022, 29800.887978182793, 2726.555195636177, 39191.36991397976, 28733.234552530594, 40350.44197445417, 34342.337768356534, 29071.684667072856, 24860.325439015083, 0.089375, 1.013375, 0.160875, 192.0, 0.0, 0.0, 0.0, 0.0, 0.0, 0.0, 0.0, 0.0, 0.0, 1.70747432383617E9, 0.0, 2024-02-09 11:25:23.836
