%OpenBCI Raw EXG Data
%Number of channels = 16
%Sample Rate = 125 Hz
%Board = OpenBCI_GUI$BoardCytonSerialDaisy
Sample Index, EXG Channel 0, EXG Channel 1, EXG Channel 2, EXG Channel 3, EXG Channel 4, EXG Channel 5, EXG Channel 6, EXG Channel 7, EXG Channel 8, EXG Channel 9, EXG Channel 10, EXG Channel 11, EXG Channel 12, EXG Channel 13, EXG Channel 14, EXG Channel 15, Accel Channel 0, Accel Channel 1, Accel Channel 2, Other, Other, Other, Other, Other, Other, Other, Analog Channel 0, Analog Channel 1, Analog Channel 2, Timestamp, Other, Timestamp (Formatted)
0.0, -17017.433585814666, -5437.151245731264, 10714.018131973522, -5214.863147123236, 43305.54375714585, 14047.78081748257, 30700.03160238643, 4417.889346824807, 0.0, 0.0, 0.0, 0.0, 0.0, 0.0, 0.0, 0.0, 0.0, 0.0, 0.0, 192.0, 0.0, 0.0, 0.0, 0.0, 0.0, 0.0, 0.0, 0.0, 0.0, 1.7074740364082448E9, 0.0, 2024-02-09 11:20:36.408
54.0, -16939.515404643465, -5317.368247195273, 10780.983958361621, -5234.733847944003, 43683.89173554084, 14143.043952351089, 30915.994157313606, 4547.216540243214, 23322.0560338564, 5406.797576760957, 37992.91407977511, 25670.55382377551, 36768.17259409101, 30230.443803124883, 25893.55717820611, 24693.380259678397, 0.0, 0.0, 0.0, 192.0, 0.0, 0.0, 0.0, 0.0, 0.0, 0.0, 0.0, 0.0, 0.0, 1.7074740364083126E9, 0.0, 2024-02-09 11:20:36.408
0.0, -8849.882644400912, -3206.581259558351, 5603.0458930785535, -2503.618896438944, 21927.687159500976, 7203.654313523092, 15537.88221334007, 2485.4022247078688, 11646.465855415567, 2672.486325798789, 19043.462758477064, 12811.528183403992, 18522.264781268215, 15120.75395831513, 12967.811580635498, 12412.437786154484, 0.043000000000000003, 0.489, 0.127, 192.0, 1.0, 88.0, 15.0, 72.0, 3.5, 120.0, 0.0, 0.0, 0.0, 1.7074740364920585E9, 0.0, 2024-02-09 11:20:36.492
2.0, -17688.388250874075, -6414.481272039566, 11205.622399523545, -5004.287362609788, 43601.145577567295, 14368.37188820504, 30913.624872401342, 4876.122459903057, 23740.681855759845, 4761.3686038695105, 37976.798472022834, 25750.34955148096, 37025.77644893843, 30413.750459402858, 25953.16928066841, 24636.517421784094, 0.043000000000000003, 0.489, 0.127, 192.0, 0.0, 0.0, 0.0, 0.0, 0.0, 0.0, 0.0, 0.0, 0.0, 1.7074740364987912E9, 0.0, 2024-02-09 11:20:36.498
4.0, -17565.543063347704, -6262.891741143673, 11292.458926732414, -5000.442862563475, 44019.65964074846, 14459.946985238432, 31173.329791227556, 5049.862569554159, 23913.483192143824, 4857.43640153842, 38130.91375004217, 25831.821660020552, 37083.8015775444, 30498.5976813552, 26030.461612994866, 24652.029532436078, 0.043000000000000003, 0.489, 0.127, 192.0, 0.0, 0.0, 0.0, 0.0, 0.0, 0.0, 0.0, 0.0, 0.0, 1.7074740365071144E9, 0.0, 2024-02-09 11:20:36.507
6.0, -17630.765453668293, -6376.103326809804, 11223.16851892096, -4981.086251865179, 43736.26187279962, 14379.570112177147, 31000.461399610213, 4924.268117459788, 23976.671573718977, 4844.4276862654315, 38310.71118244066, 25831.084052453527, 37422.92224442032, 30574.168929358595, 26131.536201421764, 24799.215769674276, 0.043000000000000003, 0.489, 0.127, 192.0, 0.0, 0.0, 0.0, 0.0, 0.0, 0.0, 0.0, 0.0, 0.0, 1.7074740365148256E9, 0.0, 2024-02-09 11:20:36.514
8.0, -17546.90170847198, -6269.709023202542, 11280.14311553754, -4986.674187979006, 43798.824405530024, 14411.846031170611, 31053.345626991468, 4927.822044828182, 23770.297917163127, 4805.3344852130995, 37920.04739285081, 25794.740115969198, 36846.783679340326, 30377.026543262786, 25930.862239702015, 24559.850938302392, 0.08, 1.016, 0.222, 192.0, 1.0, 64.0, 15.5, 96.0, 3.0, 120.0, 0.0, 0.0, 0.0, 1.7074740365228467E9, 0.0, 2024-02-09 11:20:36.522
10.0, -17549.47215908434, -6275.9675116500275, 11253.656298358, -5001.783967230794, 43976.833698372095, 14418.171574851463, 31133.40957563038, 4945.2117020144115, 24095.29228154329, 4898.8988875030145, 38402.28627947406, 25889.578567693065, 37459.17677392683, 30605.260205895927, 26190.120123639124, 24803.37319414296, 0.08, 1.016, 0.222, 192.0, 0.0, 0.0, 0.0, 0.0, 0.0, 0.0, 0.0, 0.0, 0.0, 1.707474036531862E9, 0.0, 2024-02-09 11:20:36.531
12.0, -17587.201903724897, -6334.193805956103, 11216.373588606548, -4994.832574705193, 43601.9949438566, 14354.737324087302, 30914.4965904351, 4772.186848185879, 23812.632121161478, 4796.907877553449, 38025.43586795758, 25793.644880490887, 37050.60923702827, 30424.054613596752, 25986.249862462268, 24625.319197811987, 0.08, 1.016, 0.222, 192.0, 0.0, 0.0, 0.0, 0.0, 0.0, 0.0, 0.0, 0.0, 0.0, 1.7074740365378156E9, 0.0, 2024-02-09 11:20:36.537
14.0, -17496.811449147637, -6195.568286844288, 11277.215037013893, -5016.893746482581, 43997.665524204436, 14436.81292972719, 31150.575715372055, 4923.195233725934, 23972.380038783558, 4866.980596420836, 38154.53954393143, 25860.364837689976, 37088.808368302394, 30493.836759786223, 26053.640371995018, 24620.558276243006, 0.08, 1.016, 0.222, 192.0, 0.0, 0.0, 0.0, 0.0, 0.0, 0.0, 0.0, 0.0, 0.0, 1.70747403654689E9, 0.0, 2024-02-09 11:20:36.546
16.0, -17578.931758276434, -6311.685599289608, 11206.158841390472, -4997.268914850822, 43714.245404511144, 14371.70229812888, 30999.455571109724, 4829.004982591269, 24023.94551324195, 4878.514096559775, 38338.06971765396, 25860.007209778694, 37448.090308677, 30568.491586266948, 26139.001684069837, 24768.750341981693, 0.08, 1.016, 0.222, 192.0, 0.0, 0.0, 0.0, 0.0, 0.0, 0.0, 0.0, 0.0, 0.0, 1.7074740365550256E9, 0.0, 2024-02-09 11:20:36.555
18.0, -17517.531516257706, -6221.0269237788825, 11255.355030936604, -5008.556545800751, 43752.221018340715, 14406.571019479159, 31016.398193406847, 4800.4618049218425, 23801.724469867288, 4816.4880056962975, 37942.62265475067, 25815.90721796837, 36864.30744699329, 30371.34920017114, 25933.07506240309, 24531.575981566428, 0.094, 1.006, 0.20800000000000002, 192.0, 1.0, 120.0, 15.5, 56.0, 3.0, 64.0, 0.0, 0.0, 0.0, 1.7074740365630596E9, 0.0, 2024-02-09 11:20:36.563
20.0, -17524.84053669459, -6225.094941269749, 11245.095580231617, -5009.495319067874, 43942.009680510724, 14416.808118439689, 31101.67009850384, 4842.013697864259, 24121.510877789366, 4898.384797380543, 38421.12880004988, 25905.89534114544, 37470.576163599035, 30627.209618951038, 26164.70619019344, 24759.80964419957, 0.094, 1.006, 0.20800000000000002, 192.0, 0.0, 0.0, 0.0, 0.0, 0.0, 0.0, 0.0, 0.0, 0.0, 1.7074740365708628E9, 0.0, 2024-02-09 11:20:36.570
22.0, -17577.99298500931, -6292.708968247052, 11220.106329930584, -4986.607132745639, 43587.53336519401, 14359.945280545388, 30935.306064522993, 4757.680566034385, 23824.836173634074, 4808.128453270013, 38052.74969968196, 25817.427136591334, 37074.19032742862, 30432.995311378876, 25976.66096409094, 24617.63019771936, 0.094, 1.006, 0.20800000000000002, 192.0, 0.0, 0.0, 0.0, 0.0, 0.0, 0.0, 0.0, 0.0, 0.0, 1.707474036578916E9, 0.0, 2024-02-09 11:20:36.578
24.0, -17520.012559892246, -6194.249533921425, 11285.507534206812, -5009.651781279062, 43983.31570426413, 14434.734217492845, 31132.604912829986, 4929.945460551437, 23966.903861392006, 4885.644303041017, 38168.3082185159, 25885.264681013192, 37097.23497596204, 30510.712326849978, 26044.789081190716, 24632.695273482237, 0.094, 1.006, 0.20800000000000002, 192.0, 0.0, 0.0, 0.0, 0.0, 0.0, 0.0, 0.0, 0.0, 0.0, 1.7074740365869262E9, 0.0, 2024-02-09 11:20:36.586
26.0, -17650.077360877676, -6358.624262645753, 11228.13060619004, -4983.813164688727, 43721.08503831447, 14374.205693507874, 31014.453591639234, 4857.883436427526, 24005.773544999785, 4857.704622471884, 38341.17661013325, 25869.529052916652, 37456.807489014565, 30595.134865657674, 26139.04638755875, 24787.726973024248, 0.094, 1.006, 0.20800000000000002, 192.0, 0.0, 0.0, 0.0, 0.0, 0.0, 0.0, 0.0, 0.0, 0.0, 1.7074740365939631E9, 0.0, 2024-02-09 11:20:36.593
28.0, -17669.67984076498, -6351.8069805868845, 11264.563949652189, -5008.176566145011, 43754.81382069753, 14389.091955315109, 31011.27964392658, 4859.001023650292, 23756.88687048994, 4781.239304690279, 37917.83457014973, 25805.312491096556, 36868.84485111771, 30394.19268300446, 25941.009931684726, 24544.60704858387, 0.094, 1.028, 0.2, 192.0, 1.0, 120.0, 16.0, 16.0, 3.0, 32.0, 0.0, 0.0, 0.0, 1.70747403660293E9, 0.0, 2024-02-09 11:20:36.602
30.0, -17754.080027828222, -6434.84371123835, 11236.55721384969, -5022.973420974425, 43956.51596266222, 14396.80330715219, 31116.28813937761, 4943.602376413629, 24034.85316453614, 4853.100163114091, 38372.67021807077, 25867.4056371934, 37463.08832920651, 30628.34955791826, 26172.194024585966, 24779.9485659538, 0.094, 1.028, 0.2, 192.0, 0.0, 0.0, 0.0, 0.0, 0.0, 0.0, 0.0, 0.0, 0.0, 1.7074740366109493E9, 0.0, 2024-02-09 11:20:36.610
32.0, -17843.084674249254, -6556.43720107522, 11207.79051873571, -5002.65568526455, 43581.3866354688, 14352.166873474942, 30894.6929448477, 4819.639601664496, 23712.02691936814, 4718.050923115125, 37988.264916928405, 25749.09785379146, 37059.08054817683, 30414.130439058597, 25980.349001926068, 24636.07038689499, 0.094, 1.028, 0.2, 192.0, 0.0, 0.0, 0.0, 0.0, 0.0, 0.0, 0.0, 0.0, 0.0, 1.7074740366189485E9, 0.0, 2024-02-09 11:20:36.618
34.0, -17793.32969109174, -6476.99910128106, 11271.113010777595, -5033.478740868419, 43981.66167517444, 14418.886830674033, 31122.479572591732, 4905.202079439411, 23835.989694117274, 4774.153801697946, 38088.221918132534, 25804.798400974083, 37059.035844687925, 30491.333364407226, 26038.86586891006, 24634.237543849653, 0.094, 1.028, 0.2, 192.0, 0.0, 0.0, 0.0, 0.0, 0.0, 0.0, 0.0, 0.0, 0.0, 1.7074740366259542E9, 0.0, 2024-02-09 11:20:36.625
36.0, -17896.035956863878, -6619.849100094927, 11198.805117464677, -5015.865566237637, 43702.39897994983, 14360.146446245486, 30963.916297425785, 4804.038084034692, 23892.360793633557, 4760.787458513672, 38270.16511799874, 25786.49232226519, 37437.00384342716, 30567.418702533094, 26124.674215873983, 24778.830978731035, 0.094, 1.028, 0.2, 192.0, 0.0, 0.0, 0.0, 0.0, 0.0, 0.0, 0.0, 0.0, 0.0, 1.7074740366349578E9, 0.0, 2024-02-09 11:20:36.634
38.0, -17861.882491336168, -6563.232131389634, 11230.61164982458, -5039.4243048935305, 43717.955794090725, 14390.924798360444, 30939.5528959695, 4808.016694547737, 23642.602401089956, 4683.316312231578, 37842.553894824254, 25723.527458134588, 36827.65058608659, 30352.52903133977, 25901.715564932296, 24525.67512103023, 0.084, 1.034, 0.20400000000000001, 192.0, 1.0, 80.0, 16.0, 40.0, 3.0, 48.0, 0.0, 0.0, 0.0, 1.707474036643452E9, 0.0, 2024-02-09 11:20:36.643
40.0, -17865.995212315942, -6570.719965782162, 11238.904147017498, -5034.059886224257, 43955.35367195054, 14428.56513602318, 31100.977194425726, 4913.785149310249, 23965.54040498023, 4786.357854170544, 38321.57413024594, 25815.86251447946, 37442.43531732981, 30610.8257902653, 26153.575021454697, 24780.37324909845, 0.084, 1.034, 0.20400000000000001, 192.0, 0.0, 0.0, 0.0, 0.0, 0.0, 0.0, 0.0, 0.0, 0.0, 1.7074740366501915E9, 0.0, 2024-02-09 11:20:36.650
42.0, -17930.50234681396, -6660.283405814577, 11185.125849858028, -5038.351421159676, 43576.469251688635, 14349.149387973475, 30907.902825820784, 4757.166475911913, 23679.81805560804, 4660.562236376076, 37953.21738162248, 25708.305920160525, 37066.25545814699, 30401.412296463528, 25972.10120822206, 24629.476622280672, 0.084, 1.034, 0.20400000000000001, 192.0, 0.0, 0.0, 0.0, 0.0, 0.0, 0.0, 0.0, 0.0, 0.0, 1.7074740366590393E9, 0.0, 2024-02-09 11:20:36.659
44.0, -17839.016656758387, -6528.586927483908, 11244.782655809244, -5059.920854559047, 43950.72686084829, 14421.99372315332, 31077.954897636762, 4854.4636195258645, 23824.702063167344, 4726.164606352402, 38050.35806302525, 25766.15223481086, 37069.07177794835, 30459.638590769602, 26016.178848287924, 24611.43876450524, 0.084, 1.034, 0.20400000000000001, 192.0, 0.0, 0.0, 0.0, 0.0, 0.0, 0.0, 0.0, 0.0, 0.0, 1.7074740366670341E9, 0.0, 2024-02-09 11:20:36.667
46.0, -17909.670520981614, -6633.416608979298, 11172.720631685334, -5040.005450249369, 43686.30572394201, 14339.046399479676, 30958.775396201065, 4726.41047554141, 23882.77189526223, 4721.090760361048, 38245.868771775815, 25770.130845323903, 37425.7832677106, 30552.53244072586, 26107.21750345439, 24754.624039485938, 0.084, 1.034, 0.20400000000000001, 192.0, 0.0, 0.0, 0.0, 0.0, 0.0, 0.0, 0.0, 0.0, 0.0, 1.7074740366740627E9, 0.0, 2024-02-09 11:20:36.674
48.0, -17826.700845563515, -6531.872633918838, 11225.493100344313, -5048.744982331394, 43724.05782032703, 14372.328146973628, 30984.345791857933, 4756.115943922513, 23657.06397975254, 4682.846925598017, 37839.067022689225, 25724.063900001514, 36813.94896673548, 30347.56694407069, 25899.36863176449, 24501.870513185324, 0.07200000000000001, 1.018, 0.20800000000000002, 192.0, 1.0, 32.0, 15.5, 104.0, 3.0, 64.0, 0.0, 0.0, 0.0, 1.7074740366821592E9, 0.0, 2024-02-09 11:20:36.682
50.0, -17802.940941207522, -6510.482014475109, 11215.41246359497, -5048.454409653475, 43933.11368621751, 14397.51856297476, 31090.67304023183, 4878.558800048685, 23990.976690170373, 4787.877772793505, 38324.92689191424, 25826.63605530692, 37414.47328501622, 30595.716011013512, 26147.003608584837, 24747.627943471427, 0.07200000000000001, 1.018, 0.20800000000000002, 192.0, 0.0, 0.0, 0.0, 0.0, 0.0, 0.0, 0.0, 0.0, 0.0, 1.7074740366910913E9, 0.0, 2024-02-09 11:20:36.691
52.0, -17820.464708860483, -6554.626709774341, 11185.438774280403, -5029.8577582666585, 43570.61309464134, 14333.41375987694, 30919.302215492993, 4729.115036620502, 23721.571114250557, 4702.650571185419, 37983.32518140378, 25741.72177812121, 37045.870667203744, 30408.117819800118, 25976.37039141302, 24616.132630840857, 0.07200000000000001, 1.018, 0.20800000000000002, 192.0, 0.0, 0.0, 0.0, 0.0, 0.0, 0.0, 0.0, 0.0, 0.0, 1.707474036698079E9, 0.0, 2024-02-09 11:20:36.698
54.0, -17703.0286434923, -6402.098405611326, 11258.953661793908, -5038.932566515514, 43957.99117779627, 14419.937362663433, 31102.653575259876, 4860.051555639691, 23872.713610257342, 4790.4258716614095, 38095.19566240259, 25821.785726760118, 37037.42170779964, 30472.75906476487, 26034.35081653009, 24610.656453449305, 0.07200000000000001, 1.018, 0.20800000000000002, 192.0, 0.0, 0.0, 0.0, 0.0, 0.0, 0.0, 0.0, 0.0, 0.0, 1.7074740367060764E9, 0.0, 2024-02-09 11:20:36.706
56.0, -17756.22579529593, -6488.554953164453, 11195.7429284743, -5006.701351010961, 43699.20268049272, 14365.153237003475, 30972.164091129795, 4778.847668033561, 23957.270259531768, 4791.811679817639, 38310.30885104047, 25832.246343165203, 37422.899892675865, 30572.04551363534, 26129.770413609793, 24774.785312984626, 0.07200000000000001, 1.018, 0.20800000000000002, 192.0, 0.0, 0.0, 0.0, 0.0, 0.0, 0.0, 0.0, 0.0, 0.0, 1.7074740367141435E9, 0.0, 2024-02-09 11:20:36.714
58.0, -17667.154093641533, -6381.534800712443, 11251.175254723461, -5016.84904299367, 43742.632119969385, 14384.80042037969, 31018.923940530294, 4785.463784392332, 23738.51373654768, 4758.3734701124995, 37905.38464848812, 25796.304738081068, 36830.086926232216, 30368.644639092046, 25937.344245594057, 24545.746987551094, 0.058, 0.994, 0.20400000000000001, 192.0, 0.5, 104.0, 15.5, 8.0, 3.0, 48.0, 0.0, 0.0, 0.0, 1.7074740367231748E9, 0.0, 2024-02-09 11:20:36.723
60.0, -17648.73625621036, -6358.154876012191, 11235.93136500494, -5030.952993744969, 43952.53735214917, 14396.89271413001, 31105.358136338968, 4860.520942273252, 24075.37687723361, 4856.229407337833, 38386.21537521069, 25890.427933982366, 37423.54809326507, 30614.40206937815, 26169.735332695884, 24768.348010581496, 0.058, 0.994, 0.20400000000000001, 192.0, 0.0, 0.0, 0.0, 0.0, 0.0, 0.0, 0.0, 0.0, 0.0, 1.7074740367311704E9, 0.0, 2024-02-09 11:20:36.731
62.0, -17678.374669358098, -6410.726178971074, 11201.800251221688, -5014.32329587022, 43588.695655905685, 14342.577975103615, 30925.337186495926, 4744.64949901694, 23805.345452469046, 4755.110115422024, 38044.83718214479, 25800.48451429421, 37070.278772148944, 30413.97397684741, 25989.75908634175, 24624.291017567044, 0.058, 0.994, 0.20400000000000001, 192.0, 0.0, 0.0, 0.0, 0.0, 0.0, 0.0, 0.0, 0.0, 0.0, 1.707474036739158E9, 0.0, 2024-02-09 11:20:36.739
64.0, -17572.91913901796, -6263.159962077137, 11268.363746209592, -5035.535101358307, 43979.068872817625, 14417.501022517805, 31112.421287586843, 4873.350843590599, 23942.49575644681, 4837.72216292884, 38141.3520147028, 25863.136454002437, 37058.58880979881, 30496.98835575442, 26043.179755589936, 24619.530095998063, 0.058, 0.994, 0.20400000000000001, 192.0, 0.0, 0.0, 0.0, 0.0, 0.0, 0.0, 0.0, 0.0, 0.0, 1.7074740367461703E9, 0.0, 2024-02-09 11:20:36.746
66.0, -17638.365046783096, -6363.742812126018, 11210.383321092526, -5005.89668821057, 43734.9207681323, 14354.402047920472, 30977.617916776886, 4768.811734773128, 24028.684083066473, 4839.19737806289, 38355.52643007355, 25862.957640046792, 37445.36339585345, 30570.033856634363, 26138.04055905826, 24765.643449502404, 0.058, 0.994, 0.20400000000000001, 192.0, 0.0, 0.0, 0.0, 0.0, 0.0, 0.0, 0.0, 0.0, 0.0, 1.7074740367541573E9, 0.0, 2024-02-09 11:20:36.754
68.0, -17563.307888902174, -6270.245465069469, 11267.89435957603, -5005.539060299285, 43765.788527225086, 14392.601179194591, 31012.263120682615, 4806.832052091605, 23796.494161664745, 4791.230534461801, 37933.391384290626, 25819.796421503597, 36842.98388278292, 30381.318078198205, 25940.138213650967, 24536.0910339464, 0.054, 0.99, 0.188, 192.0, 0.5, 88.0, 15.0, 120.0, 2.5, 112.0, 0.0, 0.0, 0.0, 1.7074740367631865E9, 0.0, 2024-02-09 11:20:36.763
70.0, -17548.555737561674, -6249.592453192766, 11270.218940999383, -5004.019141676324, 44001.778245184214, 14410.527278247748, 31121.92077898035, 4895.344960134621, 24130.898610460594, 4877.48591631483, 38421.32996574998, 25918.07704187358, 37446.97272145423, 30625.354424161247, 26183.883986936093, 24782.876644477445, 0.054, 0.99, 0.188, 192.0, 0.0, 0.0, 0.0, 0.0, 0.0, 0.0, 0.0, 0.0, 0.0, 1.7074740367701879E9, 0.0, 2024-02-09 11:20:36.770
72.0, -17589.705299103895, -6313.205517912569, 11251.242309956826, -4973.307844794732, 43643.52448505456, 14360.772295090235, 30951.84635541992, 4774.3996708869545, 23860.129578129003, 4810.520089926731, 38087.97604894353, 25838.862459523974, 37106.555653399904, 30435.07402361322, 26019.039871578203, 24660.947878473748, 0.054, 0.99, 0.188, 192.0, 0.0, 0.0, 0.0, 0.0, 0.0, 0.0, 0.0, 0.0, 0.0, 1.7074740367782168E9, 0.0, 2024-02-09 11:20:36.778
74.0, -17503.85224865106, -6195.836507777752, 11315.347113054648, -5000.934600941491, 44027.21453037435, 14434.063665159187, 31159.918744554372, 4909.225393441367, 23979.040858631237, 4870.221599366856, 38174.67846568566, 25900.821495154083, 37086.46143513459, 30485.991297482407, 26076.640317039528, 24647.78270098957, 0.054, 0.99, 0.188, 192.0, 0.0, 0.0, 0.0, 0.0, 0.0, 0.0, 0.0, 0.0, 0.0, 1.7074740367871957E9, 0.0, 2024-02-09 11:20:36.787
76.0, -17574.61787159656, -6301.180279395614, 11263.736935107343, -4975.990054129369, 43789.123748436425, 14369.645937638992, 31010.720850315196, 4809.648371892974, 24061.250574737856, 4857.078773627135, 38392.69738110273, 25895.993518351737, 37493.68786736582, 30579.555699772325, 26177.60314674415, 24798.209941173787, 0.054, 0.99, 0.188, 192.0, 0.0, 0.0, 0.0, 0.0, 0.0, 0.0, 0.0, 0.0, 0.0, 1.7074740367944171E9, 0.0, 2024-02-09 11:20:36.794
78.0, -17536.93283044491, -6237.90249084264, 11301.757252425821, -4996.263086350333, 43800.61254508645, 14385.090993057609, 31021.695556842755, 4807.524956169719, 23822.89157186646, 4794.4715374078205, 37969.78002426386, 25835.621456577952, 36901.388991044645, 30363.123758211586, 25960.970039483316, 24545.948153251193, 0.054, 0.999, 0.186, 192.0, 0.5, 88.0, 15.5, 64.0, 2.5, 96.0, 0.0, 0.0, 0.0, 1.7074740368022103E9, 0.0, 2024-02-09 11:20:36.802
80.0, -17560.37981037853, -6256.476790485, 11280.903074849019, -5010.724665012916, 44014.96577441285, 14390.723632660347, 31098.607909513466, 4856.67644222694, 24127.903476703585, 4904.665637572484, 38430.40477399883, 25921.5192105197, 37482.15436722689, 30593.43613307907, 26186.07445789271, 24762.380094811928, 0.054, 0.999, 0.186, 192.0, 0.0, 0.0, 0.0, 0.0, 0.0, 0.0, 0.0, 0.0, 0.0, 1.707474036810289E9, 0.0, 2024-02-09 11:20:36.810
82.0, -17650.569099255696, -6369.286044750935, 11233.98676323733, -5004.041493420779, 43626.58186275743, 14313.677169522904, 30881.661877830255, 4703.745806663729, 23848.461967523333, 4779.585275600586, 38075.03438890391, 25806.698299252785, 37142.02787185048, 30406.374383732604, 25993.558882899153, 24608.77890691506, 0.054, 0.999, 0.186, 192.0, 0.0, 0.0, 0.0, 0.0, 0.0, 0.0, 0.0, 0.0, 0.0, 1.707474036819271E9, 0.0, 2024-02-09 11:20:36.819
84.0, -17629.469052489883, -6301.917886962639, 11285.70869990691, -5041.324203172231, 44002.761721940245, 14385.918007602455, 31086.87324367443, 4819.192566775389, 23951.63761992903, 4834.078828582625, 38131.49489539801, 25853.033465508637, 37102.3088219534, 30456.97873317942, 26027.689996682406, 24579.29695597851, 0.054, 0.999, 0.186, 192.0, 0.0, 0.0, 0.0, 0.0, 0.0, 0.0, 0.0, 0.0, 0.0, 1.707474036826232E9, 0.0, 2024-02-09 11:20:36.826
86.0, -17800.52695280635, -6510.258497030556, 11205.689454756912, -5030.081275711212, 43755.19380035327, 14320.002713203754, 30962.284620080547, 4727.304545319623, 23988.830922702662, 4792.2810664512, 38322.222330835146, 25816.10838366847, 37495.92304181135, 30538.026158574365, 26131.133870021567, 24731.26646653014, 0.054, 0.999, 0.186, 192.0, 0.0, 0.0, 0.0, 0.0, 0.0, 0.0, 0.0, 0.0, 0.0, 1.7074740368342915E9, 0.0, 2024-02-09 11:20:36.834
88.0, -17803.18681039653, -6487.079738030403, 11263.692231618434, -5020.8723569956255, 43767.82253597052, 14381.22414126684, 30991.408943105813, 4778.780612800195, 23706.21546580976, 4711.613620711997, 37873.42165391704, 25743.934600822282, 36879.90896462309, 30347.902220237524, 25928.448251300844, 24503.47983878611, 0.056, 1.0095, 0.181, 192.0, 0.5, 104.0, 15.5, 112.0, 2.5, 64.0, 0.0, 0.0, 0.0, 1.707474036842269E9, 0.0, 2024-02-09 11:20:36.842
90.0, -17843.24113646044, -6522.842529158894, 11246.548443621212, -5042.0618107392565, 43981.46050947434, 14394.56813270666, 31080.033609871105, 4832.022468092736, 24004.723013010385, 4798.830127576605, 38332.3476710734, 25827.57482857404, 37450.75016626718, 30580.941507928554, 26158.51475697932, 24735.066263087545, 0.056, 1.0095, 0.181, 192.0, 0.0, 0.0, 0.0, 0.0, 0.0, 0.0, 0.0, 0.0, 0.0, 1.707474036850315E9, 0.0, 2024-02-09 11:20:36.850
92.0, -17927.59662003477, -6630.309716500011, 11202.694320999899, -5035.71391531395, 43596.27289727604, 14318.751015514257, 30902.426648429235, 4686.244390755223, 23716.4972682592, 4678.890666829428, 37986.5661843498, 25719.88412378837, 37108.27673772296, 30390.459941680427, 25985.221682217325, 24599.413525988286, 0.056, 1.0095, 0.181, 192.0, 0.0, 0.0, 0.0, 0.0, 0.0, 0.0, 0.0, 0.0, 0.0, 1.7074740368583794E9, 0.0, 2024-02-09 11:20:36.858
94.0, -17857.680363378568, -6522.6190117143415, 11257.456094915402, -5062.9606918049685, 43963.51205867673, 14392.332958261128, 31095.29985133408, 4825.831034878616, 23815.403737473935, 4735.060600645614, 38036.74585065196, 25764.364095254434, 37054.38668184122, 30421.97590136241, 26013.787211631206, 24562.10846449238, 0.056, 1.0095, 0.181, 192.0, 0.0, 0.0, 0.0, 0.0, 0.0, 0.0, 0.0, 0.0, 0.0, 1.707474036866315E9, 0.0, 2024-02-09 11:20:36.866
96.0, -17932.26813462593, -6632.142559545346, 11196.100556385583, -5035.512749613852, 43728.237596540166, 14340.365152402539, 30970.912393440296, 4741.27438560419, 23911.046851998195, 4727.952745908827, 38264.93480979619, 25768.745037167675, 37454.79583201359, 30537.646178918625, 26125.054195529723, 24736.94380962179, 0.056, 1.0095, 0.181, 192.0, 0.0, 0.0, 0.0, 0.0, 0.0, 0.0, 0.0, 0.0, 0.0, 1.7074740368753736E9, 0.0, 2024-02-09 11:20:36.875
98.0, -17875.45000022054, -6551.989203928614, 11236.691324316422, -5048.7002788424825, 43718.40282897983, 14362.69454511339, 30982.55765230151, 4734.613565756508, 23663.344819944483, 4669.122954502458, 37827.35470859465, 25710.67520507279, 36836.77009782435, 30326.37749032706, 25912.869085415496, 24494.293271814975, 0.06, 1.0077500000000001, 0.1765, 192.0, 1.0, 0.0, 15.5, 56.0, 2.5, 48.0, 0.0, 0.0, 0.0, 1.7074740368813653E9, 0.0, 2024-02-09 11:20:36.881
100.0, -17849.56668014129, -6516.0475988444805, 11227.638867812022, -5055.942244046002, 43952.35853819353, 14383.9957575793, 31072.52342373412, 4807.6814183809065, 23981.119570865583, 4781.954560512849, 38303.33510677041, 25817.87417148044, 37411.098171603466, 30576.784083459865, 26146.780091140285, 24726.52789670562, 0.06, 1.0077500000000001, 0.1765, 192.0, 0.0, 0.0, 0.0, 0.0, 0.0, 0.0, 0.0, 0.0, 0.0, 1.7074740368904E9, 0.0, 2024-02-09 11:20:36.890
102.0, -17885.888264881167, -6572.150477427302, 11183.605931235068, -5044.520502629341, 43580.67137964623, 14316.44878583536, 30889.194415711692, 4677.683672628841, 23730.17653586585, 4667.938312046327, 37981.9170215031, 25721.649911600343, 37084.87446127826, 30396.651374894547, 25975.00693500125, 24604.06268883499, 0.06, 1.0077500000000001, 0.1765, 192.0, 0.0, 0.0, 0.0, 0.0, 0.0, 0.0, 0.0, 0.0, 0.0, 1.7074740368983855E9, 0.0, 2024-02-09 11:20:36.898
104.0, -17775.56005424977, -6418.303420341423, 11248.828321555653, -5063.295967971799, 43944.78129682318, 14394.836353640123, 31069.99767661067, 4806.42972069141, 23845.690351210877, 4766.576560327597, 38044.56896121132, 25793.555473513064, 37032.750193208485, 30443.657093484057, 26001.829028347616, 24575.29599372101, 0.06, 1.0077500000000001, 0.1765, 192.0, 0.0, 0.0, 0.0, 0.0, 0.0, 0.0, 0.0, 0.0, 0.0, 1.707474036906365E9, 0.0, 2024-02-09 11:20:36.906
106.0, -17826.834956030245, -6501.317799248433, 11188.210390592862, -5041.503017127874, 43717.262890012615, 14342.779140803712, 30947.51011699559, 4751.89146422046, 23953.89514611902, 4775.360795898533, 38283.844385605385, 25808.66525276485, 37446.16805865384, 30560.400254774126, 26104.825866797673, 24740.22951605672, 0.06, 1.0077500000000001, 0.1765, 192.0, 0.0, 0.0, 0.0, 0.0, 0.0, 0.0, 0.0, 0.0, 0.0, 1.7074740369143836E9, 0.0, 2024-02-09 11:20:36.914
108.0, -17731.08008278371, -6384.753451914007, 11248.135417477539, -5029.924813500025, 43726.918843617306, 14387.862609370068, 31002.42835312228, 4779.495868622765, 23718.75479444919, 4721.3366295500555, 37869.01836025934, 25761.950106853263, 36844.682615361526, 30357.334656397663, 25917.875876173483, 24528.983179209612, 0.066, 1.0048750000000002, 0.17125, 192.0, 1.0, 32.0, 15.5, 40.0, 2.5, 24.0, 0.0, 0.0, 0.0, 1.707474036922572E9, 0.0, 2024-02-09 11:20:36.922
110.0, -17691.27162590881, -6339.602928114286, 11249.498873889313, -5024.47098785293, 43964.316721477124, 14420.876135930555, 31100.351345580977, 4864.119573130557, 24055.61793513512, 4869.282826099733, 38353.51477307257, 25876.79336986463, 37413.467456515726, 30614.20090367805, 26159.98997211337, 24763.967068668255, 0.066, 1.0048750000000002, 0.17125, 192.0, 0.0, 0.0, 0.0, 0.0, 0.0, 0.0, 0.0, 0.0, 0.0, 1.7074740369314375E9, 0.0, 2024-02-09 11:20:36.931
112.0, -17717.914905299534, -6394.1858880741465, 11218.072321185151, -4997.492432295374, 43596.20584204267, 14370.830580095122, 30921.157410282784, 4748.158722896424, 23810.732222882776, 4769.70580455134, 38044.121926322216, 25795.3883165584, 37098.799598073914, 30441.44427078298, 26002.834856848105, 24656.008142949122, 0.066, 1.0048750000000002, 0.17125, 192.0, 0.0, 0.0, 0.0, 0.0, 0.0, 0.0, 0.0, 0.0, 0.0, 1.70747403693742E9, 0.0, 2024-02-09 11:20:36.937
114.0, -17592.029880527243, -6232.336906473268, 11304.66297920501, -5007.774234744816, 43973.16801228142, 14454.113179935597, 31114.164723654358, 4886.605428052596, 23938.27127674476, 4851.893168913504, 38114.082886467324, 25868.16559650488, 37044.484859047516, 30507.985414026432, 26042.553906745186, 24640.093700896945, 0.066, 1.0048750000000002, 0.17125, 192.0, 0.0, 0.0, 0.0, 0.0, 0.0, 0.0, 0.0, 0.0, 0.0, 1.7074740369464197E9, 0.0, 2024-02-09 11:20:36.946
116.0, -17654.793578957746, -6328.650573331186, 11237.69715281691, -4989.378749058098, 43753.405660796845, 14379.927740088433, 30999.14264668735, 4792.057549006647, 24047.839528064673, 4848.071020611646, 38366.99287497913, 25873.954698318805, 37468.85507927598, 30607.227159407994, 26160.1240825801, 24815.48783963774, 0.066, 1.0048750000000002, 0.17125, 192.0, 0.0, 0.0, 0.0, 0.0, 0.0, 0.0, 0.0, 0.0, 0.0, 1.707474036954472E9, 0.0, 2024-02-09 11:20:36.954
118.0, -17584.720860090358, -6242.797522878352, 11289.620255186588, -4989.311693824732, 43740.5757594795, 14408.51562124677, 30994.024097207082, 4804.2168979903345, 23793.588434885554, 4790.492926894775, 37942.5555995173, 25820.042290692603, 36848.63887413012, 30391.219900991906, 25949.74946376675, 24576.72650536615, 0.067, 1.0054375000000002, 0.16462500000000002, 192.0, 1.0, 16.0, 15.5, 56.0, 2.0, 120.0, 0.0, 0.0, 0.0, 1.7074740369625063E9, 0.0, 2024-02-09 11:20:36.962
120.0, -17560.51392084526, -6210.700417840531, 11286.80393538522, -4996.285438094787, 43983.29335251968, 14423.33482782064, 31100.82073221454, 4853.323680558644, 24129.803374982283, 4897.9601142358915, 38413.998593568635, 25925.877800688482, 37420.70942171925, 30626.002624750454, 26179.257175833845, 24799.014603974178, 0.067, 1.0054375000000002, 0.16462500000000002, 192.0, 0.0, 0.0, 0.0, 0.0, 0.0, 0.0, 0.0, 0.0, 0.0, 1.7074740369704893E9, 0.0, 2024-02-09 11:20:36.970
122.0, -17612.861706359592, -6291.949008935572, 11253.119856491072, -4982.829687932693, 43600.7432461671, 14350.959879274355, 30902.426648429235, 4695.78858563764, 23879.128560916015, 4811.7270841273175, 38103.30934563987, 25835.844974022508, 37122.60420591882, 30451.435500554504, 26015.95533084337, 24671.855529767934, 0.067, 1.0054375000000002, 0.16462500000000002, 192.0, 0.0, 0.0, 0.0, 0.0, 0.0, 0.0, 0.0, 0.0, 0.0, 1.7074740369785275E9, 0.0, 2024-02-09 11:20:36.978
124.0, -17513.50820225575, -6159.31375733778, 11327.059427149228, -4995.011388660835, 43972.47510820331, 14458.114142193097, 31119.596197557, 4873.887285457527, 23978.146788853024, 4861.437363795921, 38148.23635199504, 25890.182064793356, 37046.9435509376, 30496.65307958759, 26047.381883547532, 24647.02274167809, 0.067, 1.0054375000000002, 0.16462500000000002, 192.0, 0.0, 0.0, 0.0, 0.0, 0.0, 0.0, 0.0, 0.0, 0.0, 1.7074740369866269E9, 0.0, 2024-02-09 11:20:36.986
126.0, -17599.785935853237, -6280.013177396439, 11255.37738268106, -4986.741243212372, 43748.26475957212, 14393.785821650723, 30980.65775402281, 4779.629979089496, 24084.071705826726, 4867.338224332121, 38401.25809922911, 25900.35210852052, 37479.02512300314, 30611.652804810146, 26174.429199031496, 24839.694778882837, 0.067, 1.0054375000000002, 0.16462500000000002, 192.0, 0.0, 0.0, 0.0, 0.0, 0.0, 0.0, 0.0, 0.0, 0.0, 1.707474036993591E9, 0.0, 2024-02-09 11:20:36.993
128.0, -17540.732627002315, -6205.224240448981, 11297.868048890597, -4989.758728713838, 43726.2706430281, 14412.360121293083, 30983.474073824178, 4753.992528199259, 23806.88772283646, 4799.500679910264, 37952.32331184427, 25825.40670936188, 36860.53000218034, 30391.555177158738, 25941.792242740663, 24585.28722349253, 0.0625, 1.0127187500000001, 0.15431250000000002, 192.0, 0.5, 104.0, 15.5, 112.0, 2.0, 64.0, 0.0, 0.0, 0.0, 1.7074740370025215E9, 0.0, 2024-02-09 11:20:37.002
130.0, -17521.33131281511, -6186.068795450783, 11302.293694292748, -4999.191164873978, 43975.358483238044, 14442.289107118739, 31111.191941641802, 4835.19641580539, 24167.108436478193, 4912.376989409565, 38428.59428269795, 25932.583324025076, 37444.98341619771, 30642.811136580844, 26177.89371942207, 24799.461638863282, 0.0625, 1.0127187500000001, 0.15431250000000002, 192.0, 0.0, 0.0, 0.0, 0.0, 0.0, 0.0, 0.0, 0.0, 0.0, 1.7074740370105093E9, 0.0, 2024-02-09 11:20:37.010
132.0, -17583.849142056602, -6267.04916561236, 11254.41625766948, -4977.8452489191595, 43589.3885599838, 14378.720745887846, 30920.77743062704, 4685.663245399385, 23902.955520505373, 4812.2858777387, 38119.80493304788, 25836.001436233695, 37138.60805494882, 30455.369407578637, 26021.990301846305, 24680.416247894318, 0.0625, 1.0127187500000001, 0.15431250000000002, 192.0, 0.0, 0.0, 0.0, 0.0, 0.0, 0.0, 0.0, 0.0, 0.0, 1.7074740370175865E9, 0.0, 2024-02-09 11:20:37.017
134.0, -17496.632635191996, -6135.889129148618, 11323.863127692119, -4991.345702570165, 43950.14571549246, 14466.093714963641, 31098.317336835546, 4814.945735328882, 23987.17689361297, 4889.086471687135, 38153.89134334223, 25899.16746606439, 37045.244818358995, 30519.071879276264, 26044.72202595735, 24647.067445167002, 0.0625, 1.0127187500000001, 0.15431250000000002, 192.0, 0.0, 0.0, 0.0, 0.0, 0.0, 0.0, 0.0, 0.0, 0.0, 1.7074740370265703E9, 0.0, 2024-02-09 11:20:37.026
136.0, -17575.556644863682, -6249.815970637318, 11263.826342085165, -4974.671301206506, 43739.905207145835, 14397.920894374955, 30954.08152986545, 4700.661265928897, 24111.430241040023, 4894.272076400766, 38417.37370698139, 25913.249065071235, 37468.45274787578, 30639.234857467993, 26165.197928571455, 24819.332339684053, 0.0625, 1.0127187500000001, 0.15431250000000002, 192.0, 0.0, 0.0, 0.0, 0.0, 0.0, 0.0, 0.0, 0.0, 0.0, 1.7074740370345712E9, 0.0, 2024-02-09 11:20:37.034
138.0, -17541.961972947356, -6192.327283898268, 11298.650359946532, -4983.790812944271, 43717.821683623995, 14410.728443947846, 30944.179707071748, 4667.983015535237, 23846.047979122162, 4811.235345749301, 37982.20759418102, 25842.036407236625, 36847.565990396266, 30420.143058317073, 25953.37044636851, 24576.3018222215, 0.05725, 1.019359375, 0.15015625, 192.0, 0.5, 80.0, 16.0, 8.0, 2.0, 72.0, 0.0, 0.0, 0.0, 1.7074740370425637E9, 0.0, 2024-02-09 11:20:37.042
140.0, -17553.85310099758, -6189.9132954970955, 11301.980769870373, -4985.020158889313, 43974.84439311557, 14440.076284417664, 31085.2862698181, 4747.666984518407, 24150.814014770272, 4919.753065079816, 38431.70117517724, 25937.277190360688, 37381.41505496682, 30660.804290867367, 26183.571062513718, 24790.18566491433, 0.05725, 1.019359375, 0.15015625, 192.0, 0.0, 0.0, 0.0, 0.0, 0.0, 0.0, 0.0, 0.0, 0.0, 1.7074740370496955E9, 0.0, 2024-02-09 11:20:37.049
142.0, -17652.0666661342, -6314.837195257806, 11258.730144349354, -4972.346719783154, 43591.62373442933, 14375.680908641925, 30873.794063781985, 4596.166860600336, 23904.5424943617, 4819.416084219943, 38133.752421588, 25844.383340404434, 37114.55757791491, 30491.60158534069, 26035.4460520084, 24687.12177123091, 0.05725, 1.019359375, 0.15015625, 192.0, 0.0, 0.0, 0.0, 0.0, 0.0, 0.0, 0.0, 0.0, 0.0, 1.7074740370586076E9, 0.0, 2024-02-09 11:20:37.058
144.0, -17638.610915972105, -6255.538017217877, 11327.506462038335, -4993.960856671436, 43963.46735518782, 14467.747744053335, 31092.036496643606, 4759.692223035362, 23958.99134385483, 4836.470465239342, 38144.011872292984, 25868.053837782605, 37001.70362016006, 30510.08647800523, 26051.606363249586, 24638.707892740716, 0.05725, 1.019359375, 0.15015625, 192.0, 0.0, 0.0, 0.0, 0.0, 0.0, 0.0, 0.0, 0.0, 0.0, 1.7074740370666516E9, 0.0, 2024-02-09 11:20:37.066
146.0, -17803.544438307814, -6451.451057368643, 11243.687420330933, -5000.554621285752, 43751.304596818045, 14388.80138263719, 30957.27782932256, 4652.649718838897, 24032.1709552015, 4798.517203154231, 38378.8616512849, 25849.88186954044, 37430.253616601665, 30614.49147635597, 26179.860672934137, 24813.029147747657, 0.05725, 1.019359375, 0.15015625, 192.0, 0.0, 0.0, 0.0, 0.0, 0.0, 0.0, 0.0, 0.0, 0.0, 1.7074740370737095E9, 0.0, 2024-02-09 11:20:37.073
148.0, -17805.354929608697, -6434.553138560431, 11277.863237603098, -5008.221269633922, 43725.26481452761, 14410.66138871448, 30944.380872771846, 4641.2726809111455, 23733.26107660068, 4711.144234078435, 37906.03284907733, 25760.76546439713, 36806.77405676532, 30384.603784633135, 25946.66492303192, 24558.62159235735, 0.048625, 1.0226796875000002, 0.148078125, 192.0, 0.5, 32.0, 16.0, 8.0, 2.0, 72.0, 0.0, 0.0, 0.0, 1.707474037081673E9, 0.0, 2024-02-09 11:20:37.081
150.0, -17848.069113262787, -6469.131287232792, 11262.820513584677, -5038.507883370863, 43986.824928143615, 14415.243496327817, 31088.81784544204, 4706.562126465097, 24039.927010527495, 4784.480307636298, 38340.9977961776, 25833.945075743806, 37359.37623493389, 30597.750019758943, 26175.256213576344, 24767.409237314372, 0.048625, 1.0226796875000002, 0.148078125, 192.0, 0.0, 0.0, 0.0, 0.0, 0.0, 0.0, 0.0, 0.0, 0.0, 1.7074740370906866E9, 0.0, 2024-02-09 11:20:37.090
152.0, -17933.720998015524, -6586.992035745626, 11210.02569318124, -5025.677982053517, 43599.737417666605, 14352.278632197218, 30877.571508594934, 4577.614912702431, 23766.699286305822, 4653.230864194735, 38033.549551194854, 25720.71113833322, 37072.8492227613, 30427.765003176333, 26016.558827943663, 24646.083968410967, 0.048625, 1.0226796875000002, 0.148078125, 192.0, 0.0, 0.0, 0.0, 0.0, 0.0, 0.0, 0.0, 0.0, 0.0, 1.7074740370977013E9, 0.0, 2024-02-09 11:20:37.097
154.0, -17844.358723683206, -6455.317909159411, 11287.18391504096, -5041.972403761435, 43968.854125601545, 14443.853729230612, 31092.841159443997, 4732.624260499985, 23846.830290178095, 4692.122899546969, 38056.01305437244, 25765.034647588094, 36955.74843355995, 30445.244067340383, 26036.943618886904, 24600.598168444416, 0.048625, 1.0226796875000002, 0.148078125, 192.0, 0.0, 0.0, 0.0, 0.0, 0.0, 0.0, 0.0, 0.0, 0.0, 1.7074740371057012E9, 0.0, 2024-02-09 11:20:37.105
156.0, -17911.793936704868, -6555.520779552553, 11224.040236954717, -5024.6274500641175, 43767.46490805923, 14367.187245748908, 30959.84827993492, 4617.021038177138, 23980.3596115541, 4713.155891079413, 38328.63728149382, 25782.983098385706, 37408.30420354655, 30550.409025002606, 26166.539033238776, 24770.76199898267, 0.048625, 1.0226796875000002, 0.148078125, 192.0, 0.0, 0.0, 0.0, 0.0, 0.0, 0.0, 0.0, 0.0, 0.0, 1.7074740371137154E9, 0.0, 2024-02-09 11:20:37.113
158.0, -17846.996229528933, -6472.774621579007, 11258.305461204704, -5033.389333890597, 43731.74682041965, 14365.600271892581, 30930.992177843116, 4565.746136396663, 23719.470050271757, 4656.516570629665, 37888.911412824564, 25721.873429044896, 36802.750742763375, 30358.20637443142, 25946.75433000974, 24516.890885459292, 0.0403125, 1.02333984375, 0.14703906249999998, 192.0, 0.5, 0.0, 16.0, 0.0, 2.0, 72.0, 0.0, 0.0, 0.0, 1.7074740371229784E9, 0.0, 2024-02-09 11:20:37.122
160.0, -17801.91276096258, -6412.804891205417, 11276.65624340251, -5022.66049655205, 44007.321477809135, 14421.010246397287, 31078.49133950369, 4702.40470199641, 24059.48478692589, 4766.5318568386865, 38353.11244167238, 25828.49125009671, 37366.08175827048, 30596.34185985826, 26175.16680659852, 24728.38309149541, 0.0403125, 1.02333984375, 0.14703906249999998, 192.0, 0.0, 0.0, 0.0, 0.0, 0.0, 0.0, 0.0, 0.0, 0.0, 1.7074740371297967E9, 0.0, 2024-02-09 11:20:37.129
162.0, -17825.04681647382, -6463.297481929956, 11237.652449328, -4992.418586304019, 43624.01141214507, 14356.860739810556, 30874.509319604556, 4561.544008439066, 23829.462984736325, 4704.5504694641195, 38086.03144717592, 25760.229022530202, 37109.61784239028, 30450.675541243025, 26044.520860257253, 24650.64372427985, 0.0403125, 1.02333984375, 0.14703906249999998, 192.0, 0.0, 0.0, 0.0, 0.0, 0.0, 0.0, 0.0, 0.0, 0.0, 1.7074740371377969E9, 0.0, 2024-02-09 11:20:37.137
164.0, -17708.59422786167, -6303.147232907681, 11311.5696682417, -5009.4282638345085, 43998.17961432691, 14434.42129307047, 31093.891691433397, 4679.650626140908, 23932.348064464102, 4770.286949907178, 38115.0440114789, 25825.36200587297, 37014.846445899784, 30484.583137581725, 26064.21274712238, 24597.938310854235, 0.0403125, 1.02333984375, 0.14703906249999998, 192.0, 0.0, 0.0, 0.0, 0.0, 0.0, 0.0, 0.0, 0.0, 0.0, 1.7074740371467493E9, 0.0, 2024-02-09 11:20:37.146
166.0, -17774.71068796047, -6403.059530622903, 11236.087827216128, -5002.6780370090055, 43793.2364694162, 14369.064792283154, 30958.21660258968, 4596.05510187806, 24051.594621133165, 4787.833069304594, 38392.406808424814, 25837.163726945368, 37470.151480454384, 30594.352554601737, 26182.2299578464, 24769.175025126344, 0.0403125, 1.02333984375, 0.14703906249999998, 192.0, 0.0, 0.0, 0.0, 0.0, 0.0, 0.0, 0.0, 0.0, 0.0, 1.7074740371537533E9, 0.0, 2024-02-09 11:20:37.153
168.0, -17706.26964643832, -6316.401817369678, 11287.675653418977, -4997.715949739927, 43752.1763148518, 14390.187190793418, 30945.543163483522, 4564.740307896174, 23794.12487675248, 4720.844891172039, 37951.4068903216, 25781.127903595916, 36852.90805732108, 30377.495929896348, 25962.378199384, 24530.033711199012, 0.041156250000000005, 1.021669921875, 0.14651953125, 192.0, 0.5, 40.0, 15.5, 112.0, 2.0, 72.0, 0.0, 0.0, 0.0, 1.70747403716178E9, 0.0, 2024-02-09 11:20:37.161
170.0, -17670.037468676266, -6270.8042586808515, 11295.722281422888, -5001.247525363866, 44023.884120450515, 14426.821699955666, 31091.164778609847, 4671.335777203533, 24135.704235518486, 4827.6415261794955, 38417.999555826136, 25885.331736246557, 37412.12635184841, 30614.312662400327, 26189.024888160813, 24736.697940432783, 0.041156250000000005, 1.021669921875, 0.14651953125, 192.0, 0.0, 0.0, 0.0, 0.0, 0.0, 0.0, 0.0, 0.0, 0.0, 1.7074740371698053E9, 0.0, 2024-02-09 11:20:37.169
172.0, -17724.77689084731, -6357.7972481009065, 11249.253004700304, -4992.060958392734, 43632.01333666007, 14357.732457844313, 30888.72502907813, 4537.247662216147, 23900.96621524885, 4748.873978718994, 38137.105183256295, 25799.612796260455, 37152.577895233386, 30457.69398900199, 26049.102967870593, 24646.039264922056, 0.041156250000000005, 1.021669921875, 0.14651953125, 192.0, 0.0, 0.0, 0.0, 0.0, 0.0, 0.0, 0.0, 0.0, 0.0, 1.70747403717878E9, 0.0, 2024-02-09 11:20:37.178
174.0, -17607.363177223586, -6205.090129982249, 11333.027342918795, -4998.98999917388, 44000.66065796145, 14440.791540240234, 31089.15312160887, 4680.052957541104, 23983.801780200218, 4781.976912257303, 38147.36463396128, 25849.278372440145, 37029.06215537336, 30461.583192537215, 26062.91634594397, 24603.235674290143, 0.041156250000000005, 1.021669921875, 0.14651953125, 192.0, 0.0, 0.0, 0.0, 0.0, 0.0, 0.0, 0.0, 0.0, 0.0, 1.7074740371858976E9, 0.0, 2024-02-09 11:20:37.185
176.0, -17679.134628669577, -6308.355189365768, 11267.201455497916, -4984.550772255751, 43807.60864110096, 14371.32231847314, 30978.333172599458, 4601.620686247431, 24118.895723688096, 4801.199412488868, 38434.67395718979, 25874.69230588583, 37494.917213310866, 30603.62852855069, 26205.632234291108, 24782.541368310616, 0.041156250000000005, 1.021669921875, 0.14651953125, 192.0, 0.0, 0.0, 0.0, 0.0, 0.0, 0.0, 0.0, 0.0, 0.0, 1.7074740371939995E9, 0.0, 2024-02-09 11:20:37.193
178.0, -17629.849032145623, -6239.824740865796, 11303.701854193432, -4989.334045569187, 43747.41539328282, 14380.933568588922, 30939.329378524948, 4569.90356086535, 23853.804034448152, 4737.3628303245105, 37993.003486752925, 25814.275540623134, 36870.49888020741, 30381.273374709297, 25977.599737358065, 24528.17851640922, 0.041156250000000005, 1.021669921875, 0.14651953125, 192.0, 0.0, 0.0, 0.0, 0.0, 0.0, 0.0, 0.0, 0.0, 0.0, 1.707474037201821E9, 0.0, 2024-02-09 11:20:37.201
180.0, -17603.09399403262, -6202.877307281174, 11309.602714729634, -4994.921981683014, 44016.86567269155, 14418.775071951757, 31084.81688318454, 4672.185143492835, 24171.243509202424, 4845.00883162127, 38447.68267246278, 25911.595035981543, 37407.56659597952, 30615.743174045467, 26197.22797837591, 24731.624094441428, 0.058, 1.018, 0.148, 192.0, 0.5, 104.0, 15.5, 104.0, 2.0, 80.0, 0.0, 0.0, 0.0, 1.7074740372098408E9, 0.0, 2024-02-09 11:20:37.209
182.0, -17666.237672118863, -6294.273590358925, 11253.544539635723, -4989.021121146813, 43621.57507199944, 14333.749036043768, 30888.16623546675, 4516.795816039541, 23933.420948197956, 4746.929376951382, 38176.44425349763, 25824.132659927924, 37154.72366270109, 30454.765910478345, 26062.424607565954, 24643.40175907633, 0.058, 1.018, 0.148, 192.0, 0.0, 0.0, 0.0, 0.0, 0.0, 0.0, 0.0, 0.0, 0.0, 1.7074740372178435E9, 0.0, 2024-02-09 11:20:37.217
184.0, -17566.303022659187, -6155.424553802557, 11323.840775947665, -5001.7392637418825, 43971.446927958365, 14426.307609833195, 31072.031685356105, 4668.2735882131565, 24005.058289177214, 4791.208182717345, 38169.73873016104, 25864.477558669754, 37020.009698868955, 30469.495710074392, 26055.674380740453, 24577.06178153298, 0.058, 1.018, 0.148, 192.0, 0.0, 0.0, 0.0, 0.0, 0.0, 0.0, 0.0, 0.0, 0.0, 1.7074740372269087E9, 0.0, 2024-02-09 11:20:37.226
186.0, -17638.43210201646, -6259.449572497556, 11258.37251643807, -4981.846211176659, 43784.161661167345, 14370.852931839578, 30964.340980570436, 4589.19311633028, 24138.67701753104, 4817.560889430152, 38461.18312611379, 25888.2598147702, 37490.73743709773, 30611.563397832324, 26194.881045208105, 24772.259565861175, 0.058, 1.018, 0.148, 192.0, 0.0, 0.0, 0.0, 0.0, 0.0, 0.0, 0.0, 0.0, 0.0, 1.707474037234898E9, 0.0, 2024-02-09 11:20:37.234
188.0, -17592.208694482888, -6197.825813034274, 11295.5658192117, -4981.600341987651, 43718.80516038003, 14389.784859393223, 30925.35953824038, 4578.956017369749, 23866.499825298768, 4738.458065802821, 38008.269728215906, 25816.845991235496, 36867.280229005846, 30398.707735384436, 25968.547280853665, 24529.22904839862, 0.058, 1.018, 0.148, 192.0, 0.0, 0.0, 0.0, 0.0, 0.0, 0.0, 0.0, 0.0, 0.0, 1.7074740372419164E9, 0.0, 2024-02-09 11:20:37.241
190.0, -17569.85695002758, -6159.783143971342, 11308.038092617762, -4986.718891467916, 44007.54499525369, 14431.359104080095, 31081.15119709387, 4676.342567961522, 24200.74781188343, 4866.980596420836, 38469.028588417605, 25930.54931527964, 37412.752200693154, 30640.10657550175, 26201.22894063341, 24741.771786424135, 0.066, 1.022, 0.15, 192.0, 1.0, 8.0, 15.5, 120.0, 2.0, 88.0, 0.0, 0.0, 0.0, 1.7074740372499163E9, 0.0, 2024-02-09 11:20:37.249
192.0, -17636.39809327103, -6257.393212007668, 11263.826342085165, -4970.089193593168, 43616.38946728581, 14366.360231204062, 30883.427665642223, 4536.264185460113, 23958.477253732355, 4762.84381900356, 38189.810596681906, 25840.650599080396, 37173.78970072147, 30471.395608353094, 26061.754055232293, 24657.751579016636, 0.066, 1.022, 0.15, 192.0, 0.0, 0.0, 0.0, 0.0, 0.0, 0.0, 0.0, 0.0, 0.0, 1.7074740372580457E9, 0.0, 2024-02-09 11:20:37.258
194.0, -17535.32350484413, -6112.35274223718, 11341.677468023, -4980.147478598056, 43966.50719243374, 14451.229804900862, 31066.220231797724, 4675.269684227667, 24027.56649584371, 4834.369401260544, 38182.23335531156, 25892.685460172353, 37027.81045768386, 30513.685108862534, 26067.63256402404, 24603.928578368257, 0.066, 1.022, 0.15, 192.0, 0.0, 0.0, 0.0, 0.0, 0.0, 0.0, 0.0, 0.0, 0.0, 1.7074740372659767E9, 0.0, 2024-02-09 11:20:37.265
196.0, -17611.900581348014, -6217.785920832864, 11281.730089393866, -4964.478905734886, 43787.71558853574, 14384.263978512763, 30958.283657823045, 4597.4185582898335, 24162.906308520593, 4853.502494514286, 38474.549469298065, 25912.98084413777, 37496.68300112284, 30644.241648225983, 26206.526304069317, 24786.51997882366, 0.066, 1.022, 0.15, 192.0, 0.0, 0.0, 0.0, 0.0, 0.0, 0.0, 0.0, 0.0, 0.0, 1.7074740372739832E9, 0.0, 2024-02-09 11:20:37.273
198.0, -17574.550816363193, -6171.964844699484, 11315.972961899395, -4971.854981405138, 43737.55827397803, 14397.675025185947, 30963.581021258953, 4574.128040567403, 23878.234491137802, 4782.513354124231, 38017.56805390931, 25841.812889792072, 36873.628124431154, 30421.372404262118, 25992.396592187477, 24548.563307352462, 0.066, 1.022, 0.15, 192.0, 0.0, 0.0, 0.0, 0.0, 0.0, 0.0, 0.0, 0.0, 0.0, 1.70747403728198E9, 0.0, 2024-02-09 11:20:37.281
200.0, -17549.114531173054, -6135.755018681886, 11321.292677079759, -4975.453612262441, 44016.28452733571, 14444.211357141896, 31080.681810460308, 4699.677789172863, 24204.189980529547, 4884.884343729537, 38468.84977446196, 25940.674655517898, 37404.83968315598, 30658.747930377478, 26215.019966962336, 24753.79702494109, 0.068, 1.022, 0.15, 192.0, 1.0, 16.0, 15.5, 120.0, 2.0, 88.0, 0.0, 0.0, 0.0, 1.7074740372910533E9, 0.0, 2024-02-09 11:20:37.291
202.0, -17622.897639620023, -6241.23290076648, 11266.843827586632, -4969.619806959607, 43628.30294708049, 14358.313603200151, 30880.16431095175, 4549.8763978333955, 23975.59868998512, 4785.575543114608, 38203.6686782442, 25848.96544801777, 37171.15219487574, 30502.486884890426, 26076.72972401735, 24672.436675123772, 0.068, 1.022, 0.15, 192.0, 0.0, 0.0, 0.0, 0.0, 0.0, 0.0, 0.0, 0.0, 0.0, 1.7074740372970836E9, 0.0, 2024-02-09 11:20:37.297
204.0, -17546.320563116144, -6130.435303501524, 11329.853395206143, -4995.972513672414, 43968.34003547908, 14429.414502312482, 31059.872336372417, 4668.810030080084, 24027.41003363252, 4812.621153905529, 38168.621142938275, 25877.620384409474, 37011.71720167604, 30492.406248141084, 26064.302154100198, 24589.802275872502, 0.068, 1.022, 0.15, 192.0, 0.0, 0.0, 0.0, 0.0, 0.0, 0.0, 0.0, 0.0, 0.0, 1.7074740373060408E9, 0.0, 2024-02-09 11:20:37.306
206.0, -17640.242593317344, -6258.957834119539, 11263.51341766279, -4986.696539723461, 43791.157757181856, 14366.51669341525, 30955.892021166328, 4610.069645651537, 24155.083197961238, 4814.163424272946, 38452.57770449849, 25888.550387448122, 37491.899727809396, 30619.09593571376, 26204.60405404616, 24778.33924035302, 0.068, 1.022, 0.15, 192.0, 0.0, 0.0, 0.0, 0.0, 0.0, 0.0, 0.0, 0.0, 0.0, 1.7074740373140292E9, 0.0, 2024-02-09 11:20:37.314
208.0, -17625.132814065553, -6229.028848293883, 11298.5162494798, -4990.7645572143265, 43727.79056165106, 14384.845123868601, 30944.984369872138, 4600.704264724764, 23865.784569476196, 4743.867187961005, 37988.689600073056, 25811.660386521864, 36864.84388886022, 30390.504645169338, 25979.27611819221, 24532.380644366818, 0.068, 1.022, 0.15, 192.0, 0.0, 0.0, 0.0, 0.0, 0.0, 0.0, 0.0, 0.0, 0.0, 1.7074740373220372E9, 0.0, 2024-02-09 11:20:37.322
210.0, -17667.39996283054, -6256.454438740545, 11290.313159264704, -5020.157101173056, 43998.134910838, 14405.609894467581, 31066.041417842083, 4677.59426565102, 24159.68765731903, 4815.638639406996, 38415.45145695823, 25893.154846805915, 37376.98940956467, 30608.031822208384, 26195.57394928622, 24730.864135129945, 0.07, 1.026, 0.14400000000000002, 192.0, 1.0, 24.0, 16.0, 8.0, 2.0, 64.0, 0.0, 0.0, 0.0, 1.707474037330418E9, 0.0, 2024-02-09 11:20:37.330
212.0, -17789.686356745526, -6403.685379467653, 11238.144187706017, -5005.047321921268, 43609.25926080457, 14335.872451767023, 30872.452959114667, 4534.341935436957, 23899.982738492818, 4701.309466518101, 38131.76311633147, 25788.660441477354, 37142.363148017306, 30451.659017999056, 26059.273011597757, 24635.355131072418, 0.07, 1.026, 0.14400000000000002, 192.0, 0.0, 0.0, 0.0, 0.0, 0.0, 0.0, 0.0, 0.0, 0.0, 1.7074740373380384E9, 0.0, 2024-02-09 11:20:37.338
214.0, -17753.722399916936, -6321.453311616578, 11290.111993564606, -5034.0822379687115, 43935.81824729661, 14411.33194104814, 31043.779080364595, 4651.06274498257, 23921.328654447636, 4724.55528075162, 38085.62911577572, 25807.25709286417, 36971.148785489655, 30452.575439521726, 26045.392578291012, 24567.316420950465, 0.07, 1.026, 0.14400000000000002, 192.0, 0.0, 0.0, 0.0, 0.0, 0.0, 0.0, 0.0, 0.0, 0.0, 1.707474037346108E9, 0.0, 2024-02-09 11:20:37.346
216.0, -17864.7658663709, -6463.878627285794, 11235.394923138014, -5013.004542947358, 43769.90124820486, 14363.968594547343, 30954.148585098814, 4590.511869253143, 24049.940592043473, 4737.742809980251, 38378.4593198847, 25820.422270348343, 37451.778346512125, 30590.597461533245, 26187.482617793397, 24759.452016288284, 0.07, 1.026, 0.14400000000000002, 192.0, 0.0, 0.0, 0.0, 0.0, 0.0, 0.0, 0.0, 0.0, 0.0, 1.7074740373540905E9, 0.0, 2024-02-09 11:20:37.354
218.0, -17855.400485444126, -6445.259624154523, 11274.935159079452, -5014.367999359131, 43701.77313110508, 14386.789725636212, 30958.66363747879, 4592.836450676496, 23750.896602975918, 4657.902378785894, 37919.84622715071, 25746.773272368107, 36834.49021988991, 30379.06055200822, 25970.51423436573, 24535.19696416819, 0.07, 1.026, 0.14400000000000002, 192.0, 0.0, 0.0, 0.0, 0.0, 0.0, 0.0, 0.0, 0.0, 0.0, 1.7074740373621209E9, 0.0, 2024-02-09 11:20:37.362
220.0, -17848.20322372952, -6428.719333257596, 11280.076060304173, -5029.544833844285, 43982.779262397205, 14416.22697308385, 31075.563260980045, 4671.939274303827, 24068.29137424128, 4739.12861813648, 38351.81604049397, 25831.799308276095, 37360.85145006794, 30599.113476170718, 26190.701268994962, 24728.76307115115, 0.07200000000000001, 1.03, 0.152, 192.0, 1.0, 32.0, 16.0, 24.0, 2.0, 96.0, 0.0, 0.0, 0.0, 1.7074740373701298E9, 0.0, 2024-02-09 11:20:37.370
222.0, -17916.532506529395, -6527.379933283321, 11227.549460834201, -5011.618734791128, 43591.04258907349, 14336.118320956031, 30878.130302206315, 4509.755016536119, 23832.43576674888, 4655.466038640266, 38094.525110068935, 25754.685789905285, 37148.711043442614, 30450.9884656654, 26059.854156953596, 24645.793395733046, 0.07200000000000001, 1.03, 0.152, 192.0, 0.0, 0.0, 0.0, 0.0, 0.0, 0.0, 0.0, 0.0, 0.0, 1.707474037377158E9, 0.0, 2024-02-09 11:20:37.377
224.0, -17813.982702968446, -6387.189792059636, 11298.315083779704, -5028.784874532804, 43931.12438096099, 14425.592354010625, 31058.441824727277, 4669.413527180377, 23880.380258605514, 4700.504803717709, 38056.281275305904, 25790.850912433973, 36976.26733496992, 30441.69013997199, 26044.00677013478, 24564.9471360382, 0.07200000000000001, 1.03, 0.152, 192.0, 0.0, 0.0, 0.0, 0.0, 0.0, 0.0, 0.0, 0.0, 0.0, 1.7074740373862767E9, 0.0, 2024-02-09 11:20:37.386
226.0, -17865.168197771098, -6471.254702956046, 11243.016867997274, -5000.845193963671, 43777.07615817501, 14380.486533699815, 30969.79480621753, 4611.209584618758, 24040.932839027984, 4741.3190890931, 38381.45445364171, 25830.63701756442, 37481.774387571146, 30605.841351251765, 26197.920882454026, 24778.406295586385, 0.07200000000000001, 1.03, 0.152, 192.0, 0.0, 0.0, 0.0, 0.0, 0.0, 0.0, 0.0, 0.0, 0.0, 1.7074740373941765E9, 0.0, 2024-02-09 11:20:37.394
228.0, -17811.166383167074, -6410.346199315334, 11267.201455497916, -5008.869470223126, 43688.809119321006, 14381.470010455849, 30931.014529587574, 4577.659616191342, 23765.60405082751, 4666.3960416789105, 37920.18150331754, 25762.86652837593, 36853.89153407711, 30379.127607241586, 25969.262536676233, 24534.66052230126, 0.07200000000000001, 1.03, 0.152, 192.0, 0.0, 0.0, 0.0, 0.0, 0.0, 0.0, 0.0, 0.0, 0.0, 1.7074740374011695E9, 0.0, 2024-02-09 11:20:37.401
230.0, -17765.769990178345, -6349.616509630265, 11274.7116416349, -5021.609964562651, 43975.291428004675, 14413.99179863832, 31075.116226090937, 4677.326044717556, 24087.804447150764, 4786.044929748169, 38362.2543051546, 25868.344410460522, 37367.668732126804, 30604.410839606626, 26181.961736912937, 24730.506507218663, 0.08, 1.024, 0.152, 192.0, 1.0, 64.0, 16.0, 0.0, 2.0, 96.0, 0.0, 0.0, 0.0, 1.7074740374091773E9, 0.0, 2024-02-09 11:20:37.409
232.0, -17802.404499340595, -6421.991458176549, 11229.337600390625, -4998.162984629033, 43589.187394283705, 14345.483701882804, 30883.5394243645, 4533.537272636566, 23868.28796485519, 4699.610733939497, 38128.58916861882, 25800.30570033857, 37161.74211046006, 30456.196422123485, 26059.07184589766, 24651.806014991525, 0.08, 1.024, 0.152, 192.0, 0.0, 0.0, 0.0, 0.0, 0.0, 0.0, 0.0, 0.0, 0.0, 1.7074740374181733E9, 0.0, 2024-02-09 11:20:37.418
234.0, -17695.183181188488, -6276.4816017725, 11297.152793068028, -5020.09004593969, 43922.60836632352, 14428.922763934466, 31051.825708368506, 4665.434916667333, 23931.87867783054, 4751.3326706090775, 38099.10721768227, 25847.601991606, 36985.4315501966, 30458.275134357827, 26050.466424282364, 24581.107447279388, 0.08, 1.024, 0.152, 192.0, 0.0, 0.0, 0.0, 0.0, 0.0, 0.0, 0.0, 0.0, 0.0, 1.7074740374261785E9, 0.0, 2024-02-09 11:20:37.426
236.0, -17749.45321672597, -6363.16166677018, 11244.357972664593, -4996.777176472804, 43757.76425096563, 14369.288309727706, 30950.66171296379, 4583.135793582892, 24090.374897763122, 4778.579447100097, 38419.27360526009, 25871.96539306228, 37484.27778295014, 30609.283519897883, 26191.41652481753, 24784.575377056048, 0.08, 1.024, 0.152, 192.0, 0.0, 0.0, 0.0, 0.0, 0.0, 0.0, 0.0, 0.0, 0.0, 1.7074740374332056E9, 0.0, 2024-02-09 11:20:37.433
238.0, -17689.03645146328, -6292.9324856916055, 11302.33839778166, -4981.7791559432935, 43689.010285021104, 14400.245475798307, 30947.845393162417, 4594.579886744009, 23822.89157186646, 4737.429885557876, 37975.43501561106, 25815.236665634715, 36881.36182801269, 30393.34331671516, 25983.075914749614, 24543.087129960913, 0.08, 1.024, 0.152, 192.0, 0.0, 0.0, 0.0, 0.0, 0.0, 0.0, 0.0, 0.0, 0.0, 1.7074740374421775E9, 0.0, 2024-02-09 11:20:37.442
240.0, -17660.02388716029, -6256.8344183962845, 11302.539563481756, -5002.298057353265, 43983.76273915324, 14418.931534162944, 31076.502034247165, 4675.672015627863, 24143.72851177794, 4841.074924597136, 38412.59043366795, 25918.45702152932, 37378.59873516545, 30619.587674091777, 26204.447591834974, 24743.582277725018, 0.07, 1.018, 0.152, 192.0, 1.0, 24.0, 15.5, 104.0, 2.0, 96.0, 0.0, 0.0, 0.0, 1.7074740374502213E9, 0.0, 2024-02-09 11:20:37.450
242.0, -17714.405681420052, -6345.570843883854, 11251.979917523851, -4979.298112308755, 43595.95997285366, 14347.204786205863, 30875.20222368267, 4538.633470372376, 23925.284913216223, 4733.2501093447345, 38173.04678834043, 25836.02378797815, 37192.78868350848, 30485.07487595974, 26081.87062524207, 24667.049904710046, 0.07, 1.018, 0.152, 192.0, 0.0, 0.0, 0.0, 0.0, 0.0, 0.0, 0.0, 0.0, 0.0, 1.7074740374572518E9, 0.0, 2024-02-09 11:20:37.457
244.0, -17612.95111333741, -6200.8880020246515, 11321.985581157873, -4996.08427239469, 43935.28180542968, 14432.655505258503, 31065.14734806387, 4670.017024280671, 23968.423780014968, 4794.605647874552, 38131.6513576092, 25880.906090844404, 37000.22840502601, 30478.436407856516, 26056.3002295852, 24585.086057792432, 0.07, 1.018, 0.152, 192.0, 0.0, 0.0, 0.0, 0.0, 0.0, 0.0, 0.0, 0.0, 0.0, 1.7074740374652946E9, 0.0, 2024-02-09 11:20:37.465
246.0, -17676.31830886821, -6297.760462493952, 11260.89826356152, -4979.633388475584, 43778.37255935342, 14387.929664603433, 30968.36429457239, 4614.003552675671, 24135.793642496308, 4837.900976884482, 38456.24339058917, 25910.097469103035, 37508.23885300623, 30634.138659732183, 26207.62153954763, 24786.29646137911, 0.07, 1.018, 0.152, 192.0, 0.0, 0.0, 0.0, 0.0, 0.0, 0.0, 0.0, 0.0, 0.0, 1.7074740374742308E9, 0.0, 2024-02-09 11:20:37.474
248.0, -17645.986991642356, -6254.956871862039, 11287.407432485514, -4978.582856486185, 43683.44470065173, 14406.883943901534, 30939.530544225043, 4593.462299521244, 23846.740883200277, 4752.584368298575, 37990.85771928522, 25832.380453631933, 36876.01976108787, 30396.338450472173, 25979.991374014782, 24537.119214191345, 0.07, 1.018, 0.152, 192.0, 0.0, 0.0, 0.0, 0.0, 0.0, 0.0, 0.0, 0.0, 0.0, 1.7074740374822726E9, 0.0, 2024-02-09 11:20:37.482
250.0, -17608.01137781279, -6203.190231703548, 11305.08766234966, -4985.467193778419, 43989.50713747825, 14448.972278710877, 31085.085104118003, 4695.83328912655, 24164.873262032663, 4867.181762120934, 38429.398945498346, 25942.216925885314, 37378.799900865546, 30638.184325478596, 26204.20172264597, 24745.75039693718, 0.07, 1.02, 0.158, 192.0, 1.0, 24.0, 15.5, 112.0, 2.0, 120.0, 0.0, 0.0, 0.0, 1.7074740374892724E9, 0.0, 2024-02-09 11:20:37.489
252.0, -17683.984957216377, -6312.780834767918, 11242.07809473015, -4986.137746112078, 43586.751054138076, 14357.017202021743, 30881.460712130156, 4540.063982017516, 23955.45976823089, 4782.759223313239, 38189.47532051508, 25857.950849288805, 37191.6263927968, 30490.08166671773, 26078.2049391514, 24660.947878473748, 0.07, 1.02, 0.158, 192.0, 0.0, 0.0, 0.0, 0.0, 0.0, 0.0, 0.0, 0.0, 0.0, 1.70747403749733E9, 0.0, 2024-02-09 11:20:37.497
254.0, -17593.1027642611, -6185.420594861579, 11314.274229320792, -5010.054112679257, 43923.50243610173, 14434.488348303837, 31060.073502072515, 4669.994672536215, 23980.381963298558, 4811.034180049202, 38126.42104940666, 25886.3599164915, 36982.45876818404, 30471.17209090854, 26050.06409288217, 24568.76928434006, 0.07, 1.02, 0.158, 192.0, 0.0, 0.0, 0.0, 0.0, 0.0, 0.0, 0.0, 0.0, 0.0, 1.7074740375063784E9, 0.0, 2024-02-09 11:20:37.506
0.0, -17656.559366769718, -6283.164773364637, 11267.223807242372, -4981.309769309732, 43780.16069890984, 14389.159010548474, 30973.259326608102, 4615.635230020908, 24151.059883959282, 4841.38784901951, 38454.45525103274, 25918.009986640216, 37502.382695958935, 30633.982197520996, 26202.637100534095, 24778.696868264302, 0.07, 1.02, 0.158, 192.0, 0.0, 0.0, 0.0, 0.0, 0.0, 0.0, 0.0, 0.0, 0.0, 1.7074740375133624E9, 0.0, 2024-02-09 11:20:37.513
2.0, -17629.379645512065, -6243.75864788993, 11292.593037199145, -4989.445804291464, 43679.1084622274, 14397.384452508028, 30928.511134208577, 4585.52743023961, 23862.409456063448, 4765.36956612701, 37987.95199250603, 25839.01892173516, 36875.77389189886, 30398.52892142879, 25974.42578964541, 24531.553629821974, 0.07, 1.02, 0.158, 192.0, 0.0, 0.0, 0.0, 0.0, 0.0, 0.0, 0.0, 0.0, 0.0, 1.7074740375213225E9, 0.0, 2024-02-09 11:20:37.521
4.0, -17591.538142149227, -6192.528449598366, 11305.467642005402, -4995.681940994495, 43980.812308885135, 14440.702133262414, 31081.35236279397, 4690.357111735, 24180.877111062662, 4876.211866880878, 38415.36204998041, 25941.94870495185, 37366.417034437305, 30634.138659732183, 26189.36016432764, 24732.1381845639, 0.066, 1.018, 0.164, 192.0, 1.0, 8.0, 15.5, 104.0, 2.5, 16.0, 0.0, 0.0, 0.0, 1.7074740375303085E9, 0.0, 2024-02-09 11:20:37.530
6.0, -17663.890738951057, -6303.706026519064, 11257.836074571142, -4974.693652950961, 43583.62180991433, 14358.313603200151, 30878.26441267305, 4547.037726287571, 23970.971878882872, 4770.599874329552, 38190.011762382004, 25851.31238118558, 37203.33870689139, 30500.207006955985, 26071.141787903525, 24664.680619797782, 0.066, 1.018, 0.164, 192.0, 0.0, 0.0, 0.0, 0.0, 0.0, 0.0, 0.0, 0.0, 0.0, 1.707474037538335E9, 0.0, 2024-02-09 11:20:37.538
8.0, -17580.0493454992, -6175.094088923227, 11334.055523163739, -4989.982246158391, 43911.320735373585, 14441.819720485179, 31060.67699917281, 4689.127765789958, 23995.916425694995, 4821.718313898839, 38125.32581392834, 25888.751553148217, 36989.79014036538, 30475.821253755243, 26052.232212094335, 24582.537958924528, 0.066, 1.018, 0.164, 192.0, 0.0, 0.0, 0.0, 0.0, 0.0, 0.0, 0.0, 0.0, 0.0, 1.707474037545478E9, 0.0, 2024-02-09 11:20:37.545
10.0, -17656.134683625067, -6281.398985552667, 11262.328775206659, -4979.923961153503, 43772.136422650394, 14391.505943716282, 30982.26707962359, 4639.618651821453, 24151.797491526308, 4840.404372263476, 38457.919771423316, 25911.058594114616, 37509.78112337364, 30638.02786326741, 26219.512667597854, 24802.00973773119, 0.066, 1.018, 0.164, 192.0, 0.0, 0.0, 0.0, 0.0, 0.0, 0.0, 0.0, 0.0, 0.0, 1.7074740375533867E9, 0.0, 2024-02-09 11:20:37.553
12.0, -17629.603162956617, -6245.055049068338, 11293.844734888642, -4978.426394274998, 43678.01322674909, 14388.197885536896, 30947.711282695687, 4581.928799382305, 23844.036322121185, 4757.121772423002, 37978.72072204599, 25831.598142575996, 36871.594115685715, 30397.12076152811, 25979.410228658944, 24541.187231682212, 0.066, 1.018, 0.164, 192.0, 0.0, 0.0, 0.0, 0.0, 0.0, 0.0, 0.0, 0.0, 0.0, 1.7074740375623868E9, 0.0, 2024-02-09 11:20:37.562
14.0, -17613.264037759785, -6212.980295774973, 11318.454005533935, -4987.836478690681, 43988.61306770004, 14437.461130316393, 31098.518502535644, 4705.757463664707, 24170.5059016354, 4866.53356153173, 38410.310555733515, 25939.60177178404, 37365.500612914635, 30628.34955791826, 26204.447591834974, 24739.067225345043, 0.064, 1.016, 0.164, 192.0, 1.0, 0.0, 15.5, 96.0, 2.5, 16.0, 0.0, 0.0, 0.0, 1.70747403756937E9, 0.0, 2024-02-09 11:20:37.569
16.0, -17723.97222804692, -6343.849759560795, 11267.648490387022, -4973.710176194928, 43593.791853641495, 14353.55268163117, 30891.45194190168, 4551.217502500714, 23954.766864152774, 4780.121717467513, 38178.99235236554, 25853.63696260893, 37197.97428822211, 30499.558806366782, 26086.564491577687, 24670.78264603408, 0.064, 1.016, 0.164, 192.0, 0.0, 0.0, 0.0, 0.0, 0.0, 0.0, 0.0, 0.0, 0.0, 1.7074740375773811E9, 0.0, 2024-02-09 11:20:37.577
18.0, -17692.098640453656, -6260.7683254204185, 11324.466624792412, -5002.9686096869245, 43911.79012200715, 14428.296915089717, 31058.330066005, 4675.336739461033, 23953.291649018724, 4798.226630476312, 38089.5406710554, 25866.288049970633, 36971.75228258995, 30466.008837939364, 26048.365360303567, 24561.974354025646, 0.064, 1.016, 0.164, 192.0, 0.0, 0.0, 0.0, 0.0, 0.0, 0.0, 0.0, 0.0, 0.0, 1.707474037586455E9, 0.0, 2024-02-09 11:20:37.586
20.0, -17816.016711713877, -6410.882641182261, 11246.883719788042, -5005.248487621366, 43773.34341685098, 14359.051210767177, 30960.921163668772, 4590.668331464331, 24092.43125825301, 4798.4054444319545, 38410.04233480005, 25869.082018027548, 37494.22430923275, 30623.521581115914, 26202.391231345086, 24768.66093500387, 0.064, 1.016, 0.164, 192.0, 0.0, 0.0, 0.0, 0.0, 0.0, 0.0, 0.0, 0.0, 0.0, 1.707474037594479E9, 0.0, 2024-02-09 11:20:37.594
22.0, -17822.699883306013, -6405.495870768532, 11264.18396999645, -5019.352438372664, 43657.82960150595, 14358.872396811534, 30921.045651560507, 4560.180552027292, 23776.80227479962, 4691.295885002123, 37915.8005614043, 25766.442807488776, 36873.58342094224, 30371.326848426685, 25960.94768773886, 24505.290330086988, 0.064, 1.016, 0.164, 192.0, 0.0, 0.0, 0.0, 0.0, 0.0, 0.0, 0.0, 0.0, 0.0, 1.7074740376014335E9, 0.0, 2024-02-09 11:20:37.601
24.0, -17818.117775692677, -6379.724309411563, 11275.51630443529, -5029.634240822106, 43969.36821572402, 14413.835336427133, 31067.024894598115, 4691.675864657863, 24075.220415022424, 4778.534743611186, 38329.68781348322, 25857.481462655243, 37351.39666216334, 30599.135827915172, 26173.110446108636, 24700.510466159638, 0.064, 1.0150000000000001, 0.163, 192.0, 1.0, 0.0, 15.5, 88.0, 2.5, 8.0, 0.0, 0.0, 0.0, 1.707474037609441E9, 0.0, 2024-02-09 11:20:37.609
26.0, -17904.619026734716, -6506.548107450975, 11221.067454942162, -5014.32329587022, 43576.93863832219, 14335.224251177819, 30890.602575612378, 4544.266109975113, 23865.136368886993, 4706.897402631927, 38110.50660735448, 25776.67990644931, 37204.232776669596, 30470.03215194132, 26059.58593602013, 24646.910982955815, 0.064, 1.0150000000000001, 0.163, 192.0, 0.0, 0.0, 0.0, 0.0, 0.0, 0.0, 0.0, 0.0, 0.0, 1.7074740376186552E9, 0.0, 2024-02-09 11:20:37.618
28.0, -17808.685339532538, -6375.566884942876, 11293.688272677455, -5026.057961709257, 43902.04476142464, 14424.653580743503, 31088.01318264165, 4683.606884909497, 23882.01193595075, 4716.329838792067, 38023.26774874541, 25797.712897981753, 36972.624000623706, 30438.382081792606, 26030.72983392833, 24549.27856317503, 0.064, 1.0150000000000001, 0.163, 192.0, 0.0, 0.0, 0.0, 0.0, 0.0, 0.0, 0.0, 0.0, 0.0, 1.7074740376254694E9, 0.0, 2024-02-09 11:20:37.625
30.0, -17869.169160028596, -6466.069098242414, 11231.595126580612, -5016.759636015849, 43774.729225007206, 14369.645937638992, 30994.493483840644, 4623.033657435615, 24067.039676551783, 4757.077068934092, 38374.01132273809, 25834.41446237737, 37507.72476288376, 30621.10759271474, 26201.541865055784, 24770.493778049207, 0.064, 1.0150000000000001, 0.163, 192.0, 0.0, 0.0, 0.0, 0.0, 0.0, 0.0, 0.0, 0.0, 0.0, 1.7074740376344984E9, 0.0, 2024-02-09 11:20:37.634
32.0, -17822.118737950175, -6412.60372550532, 11260.138304250038, -5026.102665198167, 43648.97831070165, 14369.891806828, 30948.98533212964, 4581.52646798211, 23766.743989794733, 4665.054937011592, 37903.68591590952, 25747.980266568695, 36876.220926787966, 30369.76222631481, 25967.340286653078, 24520.9365512057, 0.064, 1.0150000000000001, 0.163, 192.0, 0.0, 0.0, 0.0, 0.0, 0.0, 0.0, 0.0, 0.0, 0.0, 1.7074740376415248E9, 0.0, 2024-02-09 11:20:37.641
34.0, -17752.403646994073, -6332.58448035532, 11289.508496464312, -5018.301906383265, 43982.82396588611, 14420.04912138571, 31107.3921450844, 4699.677789172863, 24094.264101298348, 4780.926380267904, 38342.629473522844, 25860.141320245424, 37352.715415086204, 30612.01043272143, 26180.441818289975, 24707.998300552168, 0.07200000000000001, 1.0115, 0.1675, 192.0, 1.0, 64.0, 15.5, 64.0, 2.5, 48.0, 0.0, 0.0, 0.0, 1.7074740376506011E9, 0.0, 2024-02-09 11:20:37.650
36.0, -17793.150877136097, -6411.17321386018, 11244.89441453152, -4994.899629938559, 43594.082426319415, 14344.120245471031, 30897.308098948968, 4548.356479210434, 23913.505543888277, 4713.044132357137, 38157.62408466626, 25798.048174148582, 37220.19192221069, 30483.957288736976, 26082.027087453258, 24658.48918658366, 0.07200000000000001, 1.0115, 0.1675, 192.0, 0.0, 0.0, 0.0, 0.0, 0.0, 0.0, 0.0, 0.0, 0.0, 1.7074740376575804E9, 0.0, 2024-02-09 11:20:37.657
38.0, -17681.63802404857, -6254.822761395307, 11312.553144997733, -5014.367999359131, 43911.85717724051, 14420.13852836353, 31063.582725951997, 4664.6302538669415, 23936.438433699423, 4768.677624306396, 38079.281220350415, 25842.729311314743, 36984.40336995165, 30463.08075941572, 26050.421720793453, 24557.77222606805, 0.07200000000000001, 1.0115, 0.1675, 192.0, 0.0, 0.0, 0.0, 0.0, 0.0, 0.0, 0.0, 0.0, 0.0, 1.707474037665547E9, 0.0, 2024-02-09 11:20:37.665
40.0, -17739.305524743264, -6340.92168103715, 11240.692286573922, -5001.493394552875, 43780.183050654305, 14364.974423047832, 30979.18253888876, 4599.094939123981, 24119.11924113265, 4804.61922939053, 38426.89555011935, 25880.392000721935, 37522.81219039109, 30637.513773144936, 26207.152152914066, 24769.800873971093, 0.07200000000000001, 1.0115, 0.1675, 192.0, 0.0, 0.0, 0.0, 0.0, 0.0, 0.0, 0.0, 0.0, 0.0, 1.707474037674774E9, 0.0, 2024-02-09 11:20:37.674
42.0, -17696.613692833627, -6295.4358810706, 11267.13440026455, -5003.303885853754, 43655.460316593686, 14370.003565550276, 30920.911541093774, 4572.831639388995, 23823.539772455668, 4717.98386788176, 37954.80435547881, 25799.121057882436, 36899.17616834357, 30384.894357311056, 25972.168263455424, 24521.741214006095, 0.07200000000000001, 1.0115, 0.1675, 192.0, 0.0, 0.0, 0.0, 0.0, 0.0, 0.0, 0.0, 0.0, 0.0, 1.7074740376805348E9, 0.0, 2024-02-09 11:20:37.680
44.0, -17644.176500341477, -6226.167825003604, 11297.108089579116, -5005.6731707660165, 43984.90267812046, 14430.107406390598, 31088.57197625303, 4710.3619230224995, 24140.53221232083, 4823.081770310613, 38380.31451467449, 25901.335585276556, 37368.56280190501, 30616.570188590315, 26181.246481090366, 24710.50169593116, 0.07500000000000001, 1.0117500000000001, 0.16675, 192.0, 1.0, 56.0, 15.5, 80.0, 2.5, 24.0, 0.0, 0.0, 0.0, 1.707474037689791E9, 0.0, 2024-02-09 11:20:37.689
46.0, -17710.181201718, -6334.439675145111, 11244.156806964495, -4996.710121239438, 43598.59747869939, 14348.12120772853, 30890.043782000994, 4566.081412563492, 23943.076901802648, 4740.22385361479, 38184.17795707917, 25827.57482857404, 37242.85659108837, 30499.111771477674, 26081.714163030883, 24665.105302942433, 0.07500000000000001, 1.0117500000000001, 0.16675, 192.0, 0.0, 0.0, 0.0, 0.0, 0.0, 0.0, 0.0, 0.0, 0.0, 1.7074740376976247E9, 0.0, 2024-02-09 11:20:37.697
48.0, -17599.42830794195, -6182.336054126747, 11320.063331134717, -5005.002618432358, 43914.24881389723, 14431.716731991379, 31073.238679556693, 4701.823556640573, 23969.049628859717, 4762.642653303463, 38087.461958821055, 25855.290991698625, 36992.71821888903, 30463.12546290463, 26044.20793583488, 24559.940345280214, 0.07500000000000001, 1.0117500000000001, 0.16675, 192.0, 0.0, 0.0, 0.0, 0.0, 0.0, 0.0, 0.0, 0.0, 0.0, 1.7074740377055812E9, 0.0, 2024-02-09 11:20:37.705
50.0, -17656.33584932516, -6270.401927280656, 11263.89339731853, -4987.232981590389, 43791.09070194849, 14381.626472667036, 30979.674277266775, 4632.019058706648, 24166.460235888986, 4846.886378155516, 38451.16954459781, 25911.550332492632, 37540.559475488604, 30647.795575594377, 26213.947083228482, 24783.23427238873, 0.07500000000000001, 1.0117500000000001, 0.16675, 192.0, 0.0, 0.0, 0.0, 0.0, 0.0, 0.0, 0.0, 0.0, 0.0, 1.7074740377146356E9, 0.0, 2024-02-09 11:20:37.714
52.0, -17639.281468305762, -6247.670203169609, 11285.351071995625, -4991.435109547986, 43661.07060445197, 14384.666309912958, 30928.26526501957, 4589.52839249711, 23859.4813775398, 4733.227757600279, 37969.243582396935, 25821.785726760118, 36893.67763920756, 30392.426895192493, 25970.581289599097, 24525.697472774682, 0.07500000000000001, 1.0117500000000001, 0.16675, 192.0, 0.0, 0.0, 0.0, 0.0, 0.0, 0.0, 0.0, 0.0, 0.0, 1.707474037722629E9, 0.0, 2024-02-09 11:20:37.722
54.0, -17593.90742706149, -6184.168897172081, 11316.397645044046, -4997.827708462204, 43990.960000867846, 14443.831377486156, 31089.264880331146, 4719.347324293533, 24172.53991038083, 4851.9378724024145, 38386.08126474396, 25927.420071055898, 37366.707607115226, 30620.39233689217, 26184.24161484738, 24715.106155288955, 0.07350000000000001, 1.011875, 0.170375, 192.0, 1.0, 32.0, 15.5, 80.0, 2.5, 56.0, 0.0, 0.0, 0.0, 1.7074740377296631E9, 0.0, 2024-02-09 11:20:37.729
56.0, -17668.83047447568, -6300.107395661759, 11246.369629665569, -4991.613923503629, 43590.39438848429, 14350.289326940696, 30883.45001738668, 4555.66549964732, 23983.89118717804, 4773.058566219636, 38200.20415785362, 25847.803157306094, 37249.22683825813, 30500.922262778553, 26082.787046764737, 24663.40657036383, 0.07350000000000001, 1.011875, 0.170375, 192.0, 0.0, 0.0, 0.0, 0.0, 0.0, 0.0, 0.0, 0.0, 0.0, 1.7074740377366853E9, 0.0, 2024-02-09 11:20:37.736
58.0, -17572.583862851126, -6161.548931783311, 11318.699874722943, -5006.678999266505, 43909.577299306075, 14434.734217492845, 31070.087083588493, 4693.374597236467, 23983.153579611015, 4788.458918149343, 38095.19566240259, 25876.636907653443, 36976.69201811457, 30457.470471557437, 26041.503374755786, 24551.066702731456, 0.07350000000000001, 1.011875, 0.170375, 192.0, 0.0, 0.0, 0.0, 0.0, 0.0, 0.0, 0.0, 0.0, 0.0, 1.70747403774568E9, 0.0, 2024-02-09 11:20:37.745
60.0, -17639.750854939324, -6262.109430087738, 11250.929385534453, -5002.387464331086, 43797.97503924072, 14381.134734289019, 30968.543108528032, 4623.3912853469, 24168.941279523526, 4833.944718115892, 38458.120937123414, 25911.25975981471, 37522.96865260228, 30627.34372941777, 26210.594321560184, 24768.929155937334, 0.07350000000000001, 1.011875, 0.170375, 192.0, 0.0, 0.0, 0.0, 0.0, 0.0, 0.0, 0.0, 0.0, 0.0, 1.7074740377536533E9, 0.0, 2024-02-09 11:20:37.753
62.0, -17611.274732503265, -6224.647906380643, 11297.018682601296, -4986.785946701282, 43673.922857513775, 14381.715879644857, 30926.320663251958, 4570.372947498911, 23874.52410155822, 4754.685432277373, 37984.39806513763, 25834.146241443905, 36910.53085452686, 30384.067342766208, 25969.19548144287, 24516.354443592365, 0.07350000000000001, 1.011875, 0.170375, 192.0, 0.0, 0.0, 0.0, 0.0, 0.0, 0.0, 0.0, 0.0, 0.0, 1.7074740377620907E9, 0.0, 2024-02-09 11:20:37.762
64.0, -17577.0989152311, -6174.468240078479, 11322.56672651371, -4993.759690971338, 44008.640230731995, 14436.701171004912, 31093.467008288746, 4698.470794972276, 24175.803265071307, 4856.072945126646, 38393.233822969654, 25936.628989771485, 37365.21004023672, 30610.91519724312, 26188.063763149235, 24709.45116394176, 0.06875, 1.0099375, 0.1741875, 192.0, 1.0, 0.0, 15.5, 64.0, 2.5, 72.0, 0.0, 0.0, 0.0, 1.7074740377697148E9, 0.0, 2024-02-09 11:20:37.769
66.0, -17658.97335517089, -6293.804203725363, 11266.575606653167, -4967.384632514076, 43619.295194065, 14364.885016070011, 30894.849407058886, 4558.9735578267055, 23997.324585595677, 4776.053699976647, 38212.98935568206, 25859.73898884523, 37253.07133830444, 30508.52185589336, 26098.96970975038, 24669.55330008904, 0.06875, 1.0099375, 0.1741875, 192.0, 0.0, 0.0, 0.0, 0.0, 0.0, 0.0, 0.0, 0.0, 0.0, 1.7074740377777488E9, 0.0, 2024-02-09 11:20:37.777
68.0, -17590.57701713765, -6187.32049314028, 11324.690142236966, -4997.961818928936, 43919.1661976774, 14431.359104080095, 31054.016179325128, 4668.966492291271, 23982.79595169973, 4787.028406504203, 38093.765150757456, 25871.183082006348, 36969.49475639996, 30458.54335529129, 26047.180717847434, 24556.81110105647, 0.06875, 1.0099375, 0.1741875, 192.0, 0.0, 0.0, 0.0, 0.0, 0.0, 0.0, 0.0, 0.0, 0.0, 1.707474037785772E9, 0.0, 2024-02-09 11:20:37.785
70.0, -17702.15692545854, -6320.112206949259, 11259.08777226064, -5001.158118386044, 43799.94199275279, 14366.717859115346, 30950.482899008144, 4589.595447730476, 24158.815939285272, 4824.802854633672, 38443.145268338354, 25894.473599728775, 37512.7539053862, 30639.45837491255, 26209.029699448314, 24767.655106503382, 0.06875, 1.0099375, 0.1741875, 192.0, 0.0, 0.0, 0.0, 0.0, 0.0, 0.0, 0.0, 0.0, 0.0, 1.7074740377928157E9, 0.0, 2024-02-09 11:20:37.792
72.0, -17730.208364749953, -6340.385239170223, 11282.870028361087, -4997.715949739927, 43669.05017722252, 14377.357289476073, 30919.16810502626, 4571.177610299303, 23832.256952793236, 4709.64666719993, 37955.87723921266, 25793.890749679897, 36883.5075954804, 30383.55325264374, 25970.156606454446, 24511.57117027893, 0.06875, 1.0099375, 0.1741875, 192.0, 0.0, 0.0, 0.0, 0.0, 0.0, 0.0, 0.0, 0.0, 0.0, 1.7074740378017962E9, 0.0, 2024-02-09 11:20:37.801
74.0, -17758.66213544156, -6343.223910716047, 11288.837944130653, -5021.252336651366, 43996.59264047058, 14427.894583689522, 31084.81688318454, 4689.64185591243, 24100.81316242375, 4799.657142121451, 38345.356386346386, 25878.69326814333, 37321.735897271144, 30598.666441281614, 26180.88885317908, 24695.973062035213, 0.061375, 1.00996875, 0.17209375, 192.0, 0.5, 88.0, 15.5, 72.0, 2.5, 40.0, 0.0, 0.0, 0.0, 1.7074740378097878E9, 0.0, 2024-02-09 11:20:37.809
76.0, -17888.414012004618, -6510.593773197386, 11219.592239808111, -5015.37382785962, 43594.75297865307, 14333.12318719902, 30880.25371792957, 4533.760790081119, 23896.562921591154, 4690.781794879651, 38144.03422403744, 25774.288269792592, 37211.139465706285, 30489.768742295357, 26078.093180429125, 24651.94012545826, 0.061375, 1.00996875, 0.17209375, 192.0, 0.0, 0.0, 0.0, 0.0, 0.0, 0.0, 0.0, 0.0, 0.0, 1.7074740378177648E9, 0.0, 2024-02-09 11:20:37.817
78.0, -17828.57839209776, -6416.872908696283, 11282.579455683168, -5044.989889262902, 43894.109892143, 14411.466051514872, 31045.701330387754, 4672.274550470656, 23863.549395030666, 4684.4115477098885, 38003.218233969004, 25768.81209240104, 36921.57261628778, 30433.68821545699, 26020.58214194562, 24524.80340299647, 0.061375, 1.00996875, 0.17209375, 192.0, 0.0, 0.0, 0.0, 0.0, 0.0, 0.0, 0.0, 0.0, 0.0, 1.7074740378250895E9, 0.0, 2024-02-09 11:20:37.825
80.0, -17904.909599412633, -6521.076741346925, 11233.629135326044, -5025.432112864508, 43801.216042186745, 14369.444771938894, 30975.382742331356, 4629.20273890528, 24056.914336313526, 4717.246260314734, 38376.201793694716, 25810.498095810188, 37482.13201548243, 30612.144543188162, 26199.41844933253, 24758.535594765617, 0.061375, 1.00996875, 0.17209375, 192.0, 0.0, 0.0, 0.0, 0.0, 0.0, 0.0, 0.0, 0.0, 0.0, 1.7074740378338287E9, 0.0, 2024-02-09 11:20:37.833
82.0, -17880.970881101, -6492.555915421953, 11254.058629758196, -5014.703275525961, 43647.05606067849, 14370.22708299483, 30903.700697863187, 4568.785973642584, 23743.006437183194, 4629.985049961216, 37892.10771228167, 25726.209667469226, 36869.58245868474, 30364.8671942791, 25960.254783660745, 24507.4360975547, 0.061375, 1.00996875, 0.17209375, 192.0, 0.0, 0.0, 0.0, 0.0, 0.0, 0.0, 0.0, 0.0, 0.0, 1.707474037841851E9, 0.0, 2024-02-09 11:20:37.841
84.0, -17838.927249780565, -6427.981725690571, 11274.354013723614, -5029.6789443110165, 43995.96679162583, 14427.604011011603, 31089.175473353327, 4703.611696196997, 24043.503289640343, 4737.139312879957, 38289.54408044149, 25825.071433195048, 37316.95262395771, 30591.96091794502, 26160.99580061386, 24685.1771694633, 0.0616875, 1.0099843750000002, 0.173046875, 192.0, 0.5, 120.0, 15.5, 72.0, 2.5, 56.0, 0.0, 0.0, 0.0, 1.707474037848834E9, 0.0, 2024-02-09 11:20:37.848
86.0, -17900.93098889959, -6531.023267629536, 11218.541707818713, -5017.720761027427, 43596.317600764945, 14351.295155441185, 30874.419912626734, 4562.728650895197, 23870.05375266716, 4655.913073529372, 38123.31415692737, 25745.23100200069, 37225.57869262442, 30479.039904956808, 26076.662668783985, 24654.73409351517, 0.0616875, 1.0099843750000002, 0.173046875, 192.0, 0.0, 0.0, 0.0, 0.0, 0.0, 0.0, 0.0, 0.0, 0.0, 1.7074740378578737E9, 0.0, 2024-02-09 11:20:37.857
88.0, -17787.965272422465, -6375.9915680875265, 11294.00119709983, -5039.133732215611, 43897.73087474476, 14432.052008158209, 31052.76448163563, 4680.030605796648, 23872.19952013487, 4684.1209750319695, 38006.34747819274, 25779.16095008385, 36941.73388978647, 30428.34614853217, 26024.0913658251, 24532.42534785573, 0.0616875, 1.0099843750000002, 0.173046875, 192.0, 0.0, 0.0, 0.0, 0.0, 0.0, 0.0, 0.0, 0.0, 0.0, 1.7074740378658853E9, 0.0, 2024-02-09 11:20:37.865
90.0, -17815.323807635763, -6433.055571681925, 11246.012001754285, -5015.485586581896, 43812.16839696984, 14398.837315897623, 30990.89485298334, 4649.341660659512, 24089.123200073624, 4735.954670423826, 38395.625459626375, 25833.006302476682, 37509.08821929553, 30620.325281658803, 26209.543789570784, 24769.063266404068, 0.0616875, 1.0099843750000002, 0.173046875, 192.0, 0.0, 0.0, 0.0, 0.0, 0.0, 0.0, 0.0, 0.0, 0.0, 1.7074740378728478E9, 0.0, 2024-02-09 11:20:37.872
92.0, -17771.492036758904, -6383.457050735599, 11265.837999086143, -5011.4846243243965, 43657.31551138348, 14385.582731435625, 30945.40905301679, 4579.067776092026, 23798.95285355483, 4663.557370133087, 37928.2504830659, 25758.642048673875, 36890.28017405036, 30366.49887162434, 25972.592946600074, 24519.52839130502, 0.0616875, 1.0099843750000002, 0.173046875, 192.0, 0.0, 0.0, 0.0, 0.0, 0.0, 0.0, 0.0, 0.0, 0.0, 1.7074740378809276E9, 0.0, 2024-02-09 11:20:37.880
94.0, -17703.319216170217, -6291.010235668449, 11292.682444176966, -5012.289287124788, 44005.10865510806, 14456.884796248056, 31119.73030802373, 4739.553301281131, 24107.96572064945, 4774.42202263141, 38336.68390949773, 25868.411465693887, 37332.59884507643, 30586.417685320102, 26182.98991715788, 24696.397745179864, 0.06184375, 1.0099921875, 0.1735234375, 192.0, 0.5, 120.0, 15.5, 72.0, 2.5, 56.0, 0.0, 0.0, 0.0, 1.70747403788999E9, 0.0, 2024-02-09 11:20:37.889
96.0, -17769.23451056892, -6394.252943307512, 11225.537803833224, -4993.93850492698, 43614.51192075157, 14378.631338910025, 30902.046668773495, 4590.176593086314, 23946.764939637775, 4720.643725471941, 38183.93208789016, 25806.698299252785, 37252.57959992643, 30490.998088240398, 26098.410916138997, 24676.772913548102, 0.06184375, 1.0099921875, 0.1735234375, 192.0, 0.0, 0.0, 0.0, 0.0, 0.0, 0.0, 0.0, 0.0, 0.0, 1.7074740378969228E9, 0.0, 2024-02-09 11:20:37.896
98.0, -17647.149282354032, -6231.264022739413, 11319.660999734522, -4996.732472983894, 43909.95727896181, 14453.822607257678, 31061.258144528645, 4692.860507113995, 23931.006959796785, 4744.984775183771, 38050.91685663663, 25834.97325598875, 36945.04194796586, 30447.814517952746, 26036.228363064332, 24547.53512710752, 0.06184375, 1.0099921875, 0.1735234375, 192.0, 0.0, 0.0, 0.0, 0.0, 0.0, 0.0, 0.0, 0.0, 0.0, 1.7074740379048653E9, 0.0, 2024-02-09 11:20:37.904
100.0, -17697.999500989856, -6312.356151623268, 11266.709717119898, -4986.785946701282, 43830.094496023004, 14407.398034024005, 30998.583853075965, 4651.196855449302, 24149.607020569685, 4798.137223498491, 38449.96255039723, 25893.132495061458, 37517.827751377554, 30648.48847967249, 26232.76725205985, 24780.485007820727, 0.06184375, 1.0099921875, 0.1735234375, 192.0, 0.0, 0.0, 0.0, 0.0, 0.0, 0.0, 0.0, 0.0, 0.0, 1.707474037913922E9, 0.0, 2024-02-09 11:20:37.913
102.0, -17670.149227398542, -6279.320273318323, 11285.172258039984, -4981.756804198838, 43661.048252707515, 14401.743042676813, 30922.230294016637, 4602.1794798588135, 23844.550412243654, 4704.528117719665, 37968.528326574364, 25798.763429971154, 36905.61347074669, 30393.231557992884, 25987.76978108523, 24529.81019375446, 0.06184375, 1.0099921875, 0.1735234375, 192.0, 0.0, 0.0, 0.0, 0.0, 0.0, 0.0, 0.0, 0.0, 0.0, 1.7074740379219124E9, 0.0, 2024-02-09 11:20:37.921
104.0, -17619.54487795173, -6207.660580594609, 11312.6202002311, -5000.308752096743, 44011.52360576673, 14463.411505629005, 31112.175418397837, 4731.014934899204, 24148.131805435634, 4824.601688933574, 38363.61776156638, 25902.3637655215, 37331.05657470901, 30608.925891986597, 26187.95200442696, 24705.293739473076, 0.063921875, 1.01299609375, 0.17576171875, 192.0, 1.0, 8.0, 15.5, 96.0, 2.5, 72.0, 0.0, 0.0, 0.0, 1.7074740379291024E9, 0.0, 2024-02-09 11:20:37.929
106.0, -17695.16082944403, -6323.084988961815, 11248.761266322288, -4988.775251957804, 43617.551757997484, 14384.643958168503, 30900.25852921707, 4569.769450398619, 23985.99225115684, 4740.313260592611, 38214.4198673272, 25831.084052453527, 37268.18111755623, 30518.55778915379, 26105.898750531527, 24678.337535659975, 0.063921875, 1.01299609375, 0.17576171875, 192.0, 0.0, 0.0, 0.0, 0.0, 0.0, 0.0, 0.0, 0.0, 0.0, 1.7074740379369392E9, 0.0, 2024-02-09 11:20:37.936
108.0, -17604.546857422218, -6188.527487340866, 11318.38695030057, -5015.083255181701, 43906.02337193768, 14459.745819538335, 31056.92190610432, 4685.104451788003, 23957.6055356986, 4762.575598070097, 38063.903220165164, 25838.5495351016, 36950.22755267949, 30457.403416324072, 26036.787156675717, 24540.71784504865, 0.063921875, 1.01299609375, 0.17576171875, 192.0, 0.0, 0.0, 0.0, 0.0, 0.0, 0.0, 0.0, 0.0, 0.0, 1.7074740379460158E9, 0.0, 2024-02-09 11:20:37.946
110.0, -17667.288204108263, -6279.946122163073, 11250.929385534453, -5010.501147568363, 43826.58527214352, 14412.382473037538, 30988.90554772682, 4655.220169451257, 24162.526328864853, 4802.898145067471, 38447.19093408477, 25880.950794333316, 37520.353498501005, 30640.26303771294, 26226.017025234345, 24777.936908952823, 0.063921875, 1.01299609375, 0.17576171875, 192.0, 0.0, 0.0, 0.0, 0.0, 0.0, 0.0, 0.0, 0.0, 0.0, 1.7074740379530482E9, 0.0, 2024-02-09 11:20:37.953
112.0, -17647.283392820766, -6256.365031762723, 11274.644586401533, -4990.7645572143265, 43660.623569562864, 14422.61957199807, 30935.082547078437, 4627.3922476044, 23854.251069337257, 4713.960553879804, 37960.21347763699, 25794.11426712445, 36907.312203325295, 30394.68442138248, 25986.13810373999, 24530.771318766037, 0.063921875, 1.01299609375, 0.17576171875, 192.0, 0.0, 0.0, 0.0, 0.0, 0.0, 0.0, 0.0, 0.0, 0.0, 1.7074740379610708E9, 0.0, 2024-02-09 11:20:37.961
114.0, -17598.422479441462, -6187.722824540476, 11299.924409380486, -5006.299019610765, 44005.913317908446, 14464.216168429395, 31085.263918073648, 4724.398818540432, 24153.518575849364, 4823.797026133183, 38348.68679627023, 25894.3618410065, 37321.735897271144, 30601.929795972086, 26180.93355666799, 24698.36469869193, 0.06496093750000001, 1.012498046875, 0.17788085937499998, 192.0, 1.0, 8.0, 15.5, 80.0, 2.5, 80.0, 0.0, 0.0, 0.0, 1.707474037971108E9, 0.0, 2024-02-09 11:20:37.971
116.0, -17672.183236143977, -6297.983979938505, 11246.213167454383, -4984.215496088922, 43609.50512999357, 14380.531237188727, 30875.38103763831, 4572.988101600183, 24003.80659148772, 4750.550359553142, 38214.33046034938, 25828.87122975245, 37256.379396483826, 30521.508219421892, 26093.135904447547, 24664.07712269749, 0.06496093750000001, 1.012498046875, 0.17788085937499998, 192.0, 0.0, 0.0, 0.0, 0.0, 0.0, 0.0, 0.0, 0.0, 0.0, 1.7074740379780457E9, 0.0, 2024-02-09 11:20:37.978
118.0, -17584.720860090358, -6166.712184752487, 11315.324761310192, -5001.336932341687, 43901.97770619127, 14468.351241153627, 31080.435941271302, 4729.226795342779, 23966.12155033607, 4753.433734587877, 38060.08107186331, 25839.890639768917, 36936.950616473034, 30453.35775057766, 26032.562676973663, 24540.13669969281, 0.06496093750000001, 1.012498046875, 0.17788085937499998, 192.0, 0.0, 0.0, 0.0, 0.0, 0.0, 0.0, 0.0, 0.0, 0.0, 1.7074740379850347E9, 0.0, 2024-02-09 11:20:37.985
120.0, -17639.996724128334, -6247.37963049169, 11266.262682230794, -4985.131917611589, 43834.45308619179, 14418.037464384732, 31008.79860029204, 4671.246370225713, 24182.531140152354, 4822.612383677052, 38458.836192945986, 25893.93715786185, 37508.84235010652, 30647.08031977181, 26229.347435158186, 24778.361592097473, 0.06496093750000001, 1.012498046875, 0.17788085937499998, 192.0, 0.0, 0.0, 0.0, 0.0, 0.0, 0.0, 0.0, 0.0, 0.0, 1.7074740379930508E9, 0.0, 2024-02-09 11:20:37.993
122.0, -17630.87721239057, -6238.505987942933, 11285.172258039984, -4976.928827396492, 43659.729499784655, 14405.006397367288, 30920.03982306002, 4591.182421586803, 23875.39581959198, 4733.272461089189, 37983.369884892694, 25814.029671434128, 36903.69122072354, 30410.26358726783, 25990.04965901967, 24528.647903042784, 0.06496093750000001, 1.012498046875, 0.17788085937499998, 192.0, 0.0, 0.0, 0.0, 0.0, 0.0, 0.0, 0.0, 0.0, 0.0, 1.7074740380020547E9, 0.0, 2024-02-09 11:20:38.002
124.0, -17589.19120898142, -6171.65192027711, 11315.056540376729, -4993.424414804508, 44015.99395465779, 14467.390116142049, 31108.085049162513, 4739.84387395905, 24171.511730135888, 4832.380096004021, 38367.372854634865, 25913.89726566044, 37304.30153659601, 30610.24464490946, 26186.543844526273, 24694.40843992334, 0.06496093750000001, 1.012498046875, 0.17788085937499998, 192.0, 0.0, 0.0, 0.0, 0.0, 0.0, 0.0, 0.0, 0.0, 0.0, 1.7074740380090775E9, 0.0, 2024-02-09 11:20:38.009
126.0, -17674.999555945345, -6298.363959594245, 11252.538711135234, -4984.528420511297, 43619.22813883163, 14374.496266185794, 30904.192436241203, 4575.9385318682835, 24014.580132315175, 4747.957557196326, 38228.79203901196, 25845.277410182647, 37253.56307668246, 30524.52570492336, 26122.573151895187, 24684.55132061855, 0.07200000000000001, 1.004, 0.18, 192.0, 1.0, 32.0, 15.5, 48.0, 2.5, 80.0, 0.0, 0.0, 0.0, 1.7074740380174322E9, 0.0, 2024-02-09 11:20:38.017
128.0, -17598.064851530176, -6180.74908027042, 11326.612392260122, -5005.9637434439355, 43904.54815680363, 14455.364877625094, 31060.14055730588, 4699.230754283757, 23962.92525087896, 4758.79815325715, 38057.15299333966, 25849.77011081816, 36924.88067446717, 30457.69398900199, 26045.370226546554, 24535.822813012936, 0.07200000000000001, 1.004, 0.18, 192.0, 0.0, 0.0, 0.0, 0.0, 0.0, 0.0, 0.0, 0.0, 0.0, 1.7074740380251052E9, 0.0, 2024-02-09 11:20:38.025
130.0, -17679.15698041403, -6282.181296608603, 11264.116914763084, -5000.42051081902, 43835.548321670096, 14404.626417711546, 30991.431294850267, 4650.906282771383, 24174.01512551488, 4799.254810721256, 38455.818707444516, 25895.814704396096, 37509.378791973446, 30642.051177269364, 26233.460156137964, 24776.573452541048, 0.07200000000000001, 1.004, 0.18, 192.0, 0.0, 0.0, 0.0, 0.0, 0.0, 0.0, 0.0, 0.0, 0.0, 1.7074740380341375E9, 0.0, 2024-02-09 11:20:38.034
132.0, -17710.203553462452, -6303.77308175243, 11273.147019523029, -4993.759690971338, 43654.2533223931, 14388.823734381645, 30921.671500405253, 4589.9083721528505, 23834.71564468332, 4693.128728047458, 37964.08032942776, 25790.917967667338, 36895.77870318636, 30400.227654007394, 25985.869882806528, 24519.863667471847, 0.07200000000000001, 1.004, 0.18, 192.0, 0.0, 0.0, 0.0, 0.0, 0.0, 0.0, 0.0, 0.0, 0.0, 1.707474038041109E9, 0.0, 2024-02-09 11:20:38.041
134.0, -17734.8351758522, -6298.051035171871, 11295.94579886744, -5002.4992230533635, 44007.56734699814, 14447.921746721477, 31104.419363071844, 4743.17428388289, 24107.496334015887, 4786.447261148365, 38322.87053142435, 25872.4571314403, 37288.18592884373, 30599.29229012636, 26175.36797229862, 24681.44442813926, 0.07200000000000001, 1.004, 0.18, 192.0, 0.0, 0.0, 0.0, 0.0, 0.0, 0.0, 0.0, 0.0, 0.0, 1.7074740380491197E9, 0.0, 2024-02-09 11:20:38.049
136.0, -17894.761907429925, -6498.9038108472605, 11222.475614842846, -4998.855888707148, 43609.12515033784, 14363.387449191505, 30892.323659935435, 4587.76260468514, 23922.20037248139, 4680.947027319316, 38165.626009181266, 25773.90829013685, 37243.12481202183, 30506.197274470007, 26100.444924884432, 24670.872053011903, 0.068, 1.012, 0.176, 192.0, 1.0, 16.0, 15.5, 80.0, 2.5, 64.0, 0.0, 0.0, 0.0, 1.7074740380571716E9, 0.0, 2024-02-09 11:20:38.057
138.0, -17855.48989242195, -6429.009905935515, 11291.94483660994, -5028.293136154787, 43882.241115837234, 14428.81100521219, 31060.85581312845, 4696.056806571103, 23849.825423935108, 4658.461172397277, 37976.28438190036, 25761.279554519602, 36885.76512167038, 30423.048785096264, 26017.251732021778, 24517.606141281864, 0.068, 1.012, 0.176, 192.0, 0.0, 0.0, 0.0, 0.0, 0.0, 0.0, 0.0, 0.0, 0.0, 1.7074740380651493E9, 0.0, 2024-02-09 11:20:38.065
140.0, -17950.037771467898, -6553.218549873656, 11233.115045203573, -5034.104589713167, 43818.38218192842, 14380.508885444271, 31005.69170781275, 4642.68084081183, 24051.28169671079, 4681.684634886341, 38362.902505743805, 25792.72845896822, 37469.100948464984, 30612.90450249964, 26214.014138461847, 24747.42677777133, 0.068, 1.012, 0.176, 192.0, 0.0, 0.0, 0.0, 0.0, 0.0, 0.0, 0.0, 0.0, 0.0, 1.707474038073389E9, 0.0, 2024-02-09 11:20:38.073
142.0, -17950.64126856819, -6559.007651687581, 11249.476522144858, -5032.092932712189, 43641.69164200922, 14373.289271985206, 30924.30900625098, 4601.844203691984, 23721.749928206198, 4565.120287551915, 37870.29240969329, 25688.099943172925, 36847.945970052, 30354.697150551936, 25974.80576930115, 24494.360327048344, 0.068, 1.012, 0.176, 192.0, 0.0, 0.0, 0.0, 0.0, 0.0, 0.0, 0.0, 0.0, 0.0, 1.7074740380812335E9, 0.0, 2024-02-09 11:20:38.081
144.0, -17915.30316058435, -6503.910601605249, 11267.782600853754, -5054.154104489578, 43995.45270150336, 14433.974258181366, 31108.599139284986, 4735.7758564681835, 24012.076736936182, 4675.292035972123, 38242.13603045178, 25784.704182708763, 37247.59516091289, 30565.876432165678, 26175.2785653208, 24660.50084358464, 0.068, 1.012, 0.176, 192.0, 0.0, 0.0, 0.0, 0.0, 0.0, 0.0, 0.0, 0.0, 0.0, 1.7074740380892198E9, 0.0, 2024-02-09 11:20:38.089
146.0, -17998.764574380468, -6629.236832766156, 11211.210335637372, -5028.069618710234, 43608.18637707071, 14361.97928929082, 30905.488837419613, 4582.465241249232, 23860.129578129003, 4588.790784930085, 38120.07315398135, 25710.630501583877, 37228.618529870335, 30467.640515284602, 26108.916236032994, 24653.1694714033, 0.068, 1.012, 0.178, 192.0, 1.0, 16.0, 15.5, 80.0, 2.5, 72.0, 0.0, 0.0, 0.0, 1.7074740380972037E9, 0.0, 2024-02-09 11:20:38.097
148.0, -17918.275942596905, -6502.234220771101, 11277.57266492518, -5043.224101450933, 43877.50254601271, 14445.977144953866, 31055.804318881554, 4694.1569082924025, 23803.24438849025, 4608.214450861747, 37935.067765124775, 25719.057109243528, 36874.34338025372, 30394.86323533812, 26022.23617103531, 24509.023071411022, 0.068, 1.012, 0.178, 192.0, 0.0, 0.0, 0.0, 0.0, 0.0, 0.0, 0.0, 0.0, 0.0, 1.7074740381052253E9, 0.0, 2024-02-09 11:20:38.105
150.0, -17962.331230918317, -6570.317634381966, 11230.566946335668, -5028.986040232902, 43830.89915882339, 14407.37568227955, 31016.778173062587, 4661.121029987458, 24029.220524933404, 4666.060765512081, 38345.423441579755, 25775.115284337437, 37466.21757343025, 30624.169781705117, 26225.10060371168, 24761.48602503372, 0.068, 1.012, 0.178, 192.0, 0.0, 0.0, 0.0, 0.0, 0.0, 0.0, 0.0, 0.0, 0.0, 1.7074740381132555E9, 0.0, 2024-02-09 11:20:38.113
152.0, -17926.099053156264, -6538.846378188894, 11250.772923323266, -5021.9899442183905, 43641.84810422041, 14397.004472852288, 30942.145698326316, 4602.0006659031715, 23720.74409970571, 4577.078470835504, 37863.43042414551, 25682.534358803554, 36859.01008355738, 30366.409464646516, 25983.299432194166, 24515.639187769793, 0.068, 1.012, 0.178, 192.0, 0.0, 0.0, 0.0, 0.0, 0.0, 0.0, 0.0, 0.0, 0.0, 1.7074740381212325E9, 0.0, 2024-02-09 11:20:38.121
154.0, -17849.76784584139, -6439.671688040697, 11276.924464335974, -5035.177473447022, 44002.04646611768, 14447.228842643362, 31108.28621486261, 4726.254013330223, 24029.198173188946, 4690.491222201732, 38239.789097283974, 25793.91310142435, 37248.958617324664, 30578.683981738566, 26174.719771709417, 24674.604794335937, 0.068, 1.012, 0.178, 192.0, 0.0, 0.0, 0.0, 0.0, 0.0, 0.0, 0.0, 0.0, 0.0, 1.7074740381292195E9, 0.0, 2024-02-09 11:20:38.129
156.0, -17907.480050024995, -6543.137913124313, 11211.635018782023, -5016.111435426645, 43602.598440956885, 14358.648879366981, 30885.528729621023, 4577.436098746789, 23896.272348913237, 4605.688703738297, 38134.98176753304, 25726.299074447048, 37233.06652701694, 30485.052524215287, 26109.609140111108, 24669.64270706686, 0.068, 1.012, 0.176, 192.0, 1.0, 16.0, 15.5, 80.0, 2.5, 64.0, 0.0, 0.0, 0.0, 1.7074740381374433E9, 0.0, 2024-02-09 11:20:38.137
158.0, -17787.741754977913, -6373.68933840863, 11286.111031307106, -5029.477778610919, 43879.31303731359, 14433.415464569982, 31064.09681607447, 4689.552448934609, 23845.310371555137, 4641.429143122333, 37954.93846594554, 25739.84423158696, 36870.342417996224, 30409.861255867632, 26020.649197178984, 24510.766507478536, 0.068, 1.012, 0.176, 192.0, 0.0, 0.0, 0.0, 0.0, 0.0, 0.0, 0.0, 0.0, 0.0, 1.707474038145386E9, 0.0, 2024-02-09 11:20:38.145
160.0, -17812.39572911212, -6417.118777885292, 11247.621327355067, -5014.390351103586, 43835.59302515901, 14404.447603755905, 31007.457495624723, 4675.135573760936, 24093.660604198052, 4731.171397110391, 38387.40001766682, 25813.895560967394, 37481.68498059332, 30626.650825339657, 26228.67688282453, 24767.81156871457, 0.068, 1.012, 0.176, 192.0, 0.0, 0.0, 0.0, 0.0, 0.0, 0.0, 0.0, 0.0, 0.0, 1.7074740381532705E9, 0.0, 2024-02-09 11:20:38.153
162.0, -17769.726248946936, -6378.360852999789, 11277.684423647455, -5000.50991779684, 43661.808212018994, 14398.747908919802, 30971.40413181831, 4625.805273748073, 23797.745859354243, 4645.854788524483, 37929.47982901095, 25746.43799620128, 36887.93324088255, 30382.033334020776, 26004.734755126807, 24525.1386791633, 0.068, 1.012, 0.176, 192.0, 0.0, 0.0, 0.0, 0.0, 0.0, 0.0, 0.0, 0.0, 0.0, 1.7074740381612773E9, 0.0, 2024-02-09 11:20:38.161
164.0, -17699.094736468167, -6280.974302408016, 11306.607580972623, -5013.60804004765, 44022.05127740518, 14462.450380617427, 31128.26867440566, 4751.13150490898, 24106.803429937772, 4762.5979498145525, 38304.944432371194, 25861.54948014611, 37269.879850134836, 30584.29426959685, 26197.540902798286, 24676.996430992658, 0.068, 1.012, 0.176, 192.0, 0.0, 0.0, 0.0, 0.0, 0.0, 0.0, 0.0, 0.0, 0.0, 1.7074740381693254E9, 0.0, 2024-02-09 11:20:38.169
166.0, -17760.13735057561, -6379.970178600572, 11243.575661608656, -4989.579914758196, 43633.376793071846, 14380.17360927744, 30918.810477114974, 4601.464224036244, 23974.279937062256, 4700.6165624399855, 38212.07293415939, 25806.45243006378, 37268.73991116761, 30511.628748372645, 26136.94532357995, 24682.249090939655, 0.07, 1.014, 0.178, 192.0, 1.0, 24.0, 15.5, 88.0, 2.5, 72.0, 0.0, 0.0, 0.0, 1.707474038177363E9, 0.0, 2024-02-09 11:20:38.177
168.0, -17659.44274180445, -6246.105581057737, 11296.23637154536, -5018.8159965057375, 43889.84070895204, 14447.05002868772, 31063.515670718632, 4696.995579838226, 23920.680453858433, 4717.805053926117, 38026.218179013515, 25825.652578550886, 36896.02457237537, 30434.11289860164, 26037.68122645393, 24528.223219898133, 0.07, 1.014, 0.178, 192.0, 0.0, 0.0, 0.0, 0.0, 0.0, 0.0, 0.0, 0.0, 0.0, 1.7074740381853547E9, 0.0, 2024-02-09 11:20:38.185
170.0, -17696.524285855805, -6298.878049716717, 11242.815702297175, -5005.360246343643, 43858.34710101451, 14409.901429403, 31027.171734234304, 4664.227922466746, 24162.794549798316, 4775.249037176256, 38444.12874509439, 25879.721448388274, 37508.46237045078, 30643.21346798104, 26234.845964294193, 24764.727027979738, 0.07, 1.014, 0.178, 192.0, 0.0, 0.0, 0.0, 0.0, 0.0, 0.0, 0.0, 0.0, 0.0, 1.7074740381933825E9, 0.0, 2024-02-09 11:20:38.193
172.0, -17683.157942671533, -6286.517535032933, 11253.678650102454, -4994.005560160346, 43652.867514236874, 14398.65850194198, 30940.98340761464, 4589.640151219386, 23847.478490767302, 4689.239524512234, 37968.57303006328, 25796.371793314433, 36907.312203325295, 30395.891415583064, 25996.554016656166, 24520.75773725006, 0.07, 1.014, 0.178, 192.0, 0.0, 0.0, 0.0, 0.0, 0.0, 0.0, 0.0, 0.0, 0.0, 1.7074740382004142E9, 0.0, 2024-02-09 11:20:38.200
174.0, -17621.176555296966, -6197.870516523185, 11295.655226189521, -4993.804394460249, 44022.900643694484, 14463.143284695541, 31129.87800000644, 4733.7194959782955, 24143.057959444282, 4805.8038718466605, 38332.92881642924, 25908.59990222453, 37285.99545788711, 30607.897711741654, 26185.94034742598, 24688.64168985387, 0.07, 1.014, 0.178, 192.0, 0.0, 0.0, 0.0, 0.0, 0.0, 0.0, 0.0, 0.0, 0.0, 1.7074740382083657E9, 0.0, 2024-02-09 11:20:38.208
176.0, -17695.496105610862, -6319.307544148868, 11237.428931883447, -4976.235923318377, 43635.030822161534, 14376.619681909047, 30922.25264576109, 4579.291293536579, 24006.108821166614, 4733.160702366913, 38239.096193205856, 25846.216183449767, 37299.87589119386, 30534.785155628346, 26132.27380898879, 24695.03428876809, 0.07, 1.016, 0.176, 192.0, 1.0, 24.0, 15.5, 96.0, 2.5, 64.0, 0.0, 0.0, 0.0, 1.7074740382176604E9, 0.0, 2024-02-09 11:20:38.217
178.0, -17595.76262185128, -6181.4643360929895, 11317.068197377706, -4993.737339226883, 43885.48211878325, 14448.502892077315, 31061.414606739832, 4695.185088537346, 23951.324695506657, 4748.292833363156, 38049.218124058025, 25861.035390023637, 36921.237340120955, 30452.687198244003, 26044.096177112602, 24535.442833357196, 0.07, 1.016, 0.176, 192.0, 0.0, 0.0, 0.0, 0.0, 0.0, 0.0, 0.0, 0.0, 0.0, 1.7074740382256317E9, 0.0, 2024-02-09 11:20:38.225
180.0, -17639.30382005022, -6245.435028724079, 11277.125630036073, -4982.203839087944, 43871.82520292106, 14416.092862617119, 31041.387443707878, 4684.053919798604, 24191.561244912296, 4829.8096453916605, 38477.835175732995, 25931.733957735774, 37523.7062601693, 30664.201756024573, 26249.665170868062, 24780.52971130964, 0.07, 1.016, 0.176, 192.0, 0.0, 0.0, 0.0, 0.0, 0.0, 0.0, 0.0, 0.0, 0.0, 1.7074740382324145E9, 0.0, 2024-02-09 11:20:38.232
182.0, -17643.237727074353, -6257.080287585293, 11276.253912002316, -4988.417624046519, 43654.99092996013, 14394.054042584186, 30941.855125648395, 4608.035636906104, 23867.77387473272, 4715.5251759916755, 37998.14438797765, 25833.989779232717, 36937.75527927343, 30410.241235523372, 26013.38488023101, 24544.741159050605, 0.07, 1.016, 0.176, 192.0, 0.0, 0.0, 0.0, 0.0, 0.0, 0.0, 0.0, 0.0, 0.0, 1.7074740382414513E9, 0.0, 2024-02-09 11:20:38.241
184.0, -17589.34767119261, -6174.60235054521, 11304.014778615807, -5004.756749243349, 44016.128065124525, 14459.567005582692, 31133.946017497306, 4745.744734495251, 24149.33879963622, 4828.8708721245375, 38349.04442418151, 25923.97790240978, 37293.41623704627, 30601.505112827435, 26183.61576600263, 24680.192730449766, 0.07, 1.016, 0.176, 192.0, 0.0, 0.0, 0.0, 0.0, 0.0, 0.0, 0.0, 0.0, 0.0, 1.7074740382494335E9, 0.0, 2024-02-09 11:20:38.249
186.0, -17679.514608325317, -6304.108357919259, 11240.736990062833, -4985.981283900891, 43626.87243543535, 14370.249434739286, 30920.77743062704, 4580.900619137361, 24016.032995704772, 4753.6796037768845, 38254.65300734675, 25861.281259212647, 37303.76509472908, 30533.265237005384, 26121.947303050438, 24677.443465881763, 0.07200000000000001, 1.014, 0.18, 192.0, 1.0, 32.0, 15.5, 88.0, 2.5, 80.0, 0.0, 0.0, 0.0, 1.7074740382564943E9, 0.0, 2024-02-09 11:20:38.256
188.0, -17602.356386465595, -6186.873458251173, 11322.454967791435, -4993.469118293419, 43888.27608684017, 14465.825494030178, 31079.67598195982, 4721.69425746134, 23949.827128628152, 4758.596987557053, 38058.06941486233, 25874.826416352564, 36933.84372399375, 30451.234334854405, 26039.983456132824, 24532.067719944447, 0.07200000000000001, 1.014, 0.18, 192.0, 0.0, 0.0, 0.0, 0.0, 0.0, 0.0, 0.0, 0.0, 0.0, 1.707474038264502E9, 0.0, 2024-02-09 11:20:38.264
190.0, -17692.32215789821, -6290.67495950162, 11266.843827586632, -4990.27281883631, 43858.414156247876, 14422.66427548698, 31038.168792506316, 4691.608809424497, 24178.217253472478, 4811.794139360683, 38472.157832641344, 25924.156716365425, 37534.345690530026, 30663.8888316022, 26245.23952546591, 24781.356725854486, 0.07200000000000001, 1.014, 0.18, 192.0, 0.0, 0.0, 0.0, 0.0, 0.0, 0.0, 0.0, 0.0, 0.0, 1.70747403827363E9, 0.0, 2024-02-09 11:20:38.273
192.0, -17745.340495746197, -6336.361925168268, 11274.37636546807, -4976.995882629858, 43637.6012727739, 14404.224086311351, 30941.341035525926, 4609.086168895504, 23844.840984921575, 4701.890611873939, 37984.44276862655, 25821.83043024903, 36931.89912222614, 30421.484162984394, 26004.75710687126, 24543.71297880566, 0.07200000000000001, 1.014, 0.18, 192.0, 0.0, 0.0, 0.0, 0.0, 0.0, 0.0, 0.0, 0.0, 0.0, 1.7074740382814977E9, 0.0, 2024-02-09 11:20:38.281
194.0, -17775.872978672145, -6332.807997799873, 11284.367595239592, -5017.430188349508, 43998.917221893935, 14448.704057777413, 31118.947996967796, 4730.74671396574, 24081.613013936643, 4776.076051721103, 38297.5907084454, 25892.327832261068, 37277.144167082806, 30603.382659361683, 26178.787789200283, 24678.58340484898, 0.07200000000000001, 1.014, 0.18, 192.0, 0.0, 0.0, 0.0, 0.0, 0.0, 0.0, 0.0, 0.0, 0.0, 1.7074740382886815E9, 0.0, 2024-02-09 11:20:38.288
196.0, -17922.701587999058, -6514.013590099048, 11207.388187335515, -5015.9996767043685, 43614.042534118, 14361.375792190527, 30907.50049442059, 4575.893828379372, 23911.426831653935, 4682.198725008813, 38177.003047109014, 25795.455371791766, 37283.022675874556, 30518.311919964784, 26120.002701282825, 24676.907024014836, 0.066, 1.008, 0.178, 192.0, 1.0, 8.0, 15.5, 64.0, 2.5, 72.0, 0.0, 0.0, 0.0, 1.707474038296556E9, 0.0, 2024-02-09 11:20:38.296
198.0, -17874.555930442326, -6432.0497431814365, 11270.688327632944, -5034.8421972801925, 43856.24603703571, 14428.743949978823, 31044.56139142053, 4679.2482947407125, 23829.172412058404, 4655.44368689581, 37948.210590864495, 25778.71391519474, 36884.44636874752, 30421.618273451124, 26010.702670896375, 24514.23102786911, 0.066, 1.008, 0.178, 192.0, 0.0, 0.0, 0.0, 0.0, 0.0, 0.0, 0.0, 0.0, 0.0, 1.707474038305518E9, 0.0, 2024-02-09 11:20:38.305
200.0, -17947.512024344447, -6532.00674438557, 11227.817681767665, -5030.237737922399, 43841.404478717384, 14388.354347748083, 31034.65956862683, 4668.586512635531, 24059.75300785935, 4695.430957726355, 38363.461299355185, 25826.21137216227, 37490.37980918644, 30626.337900917282, 26217.590417574695, 24763.542385523604, 0.066, 1.008, 0.178, 192.0, 0.0, 0.0, 0.0, 0.0, 0.0, 0.0, 0.0, 0.0, 0.0, 1.7074740383126295E9, 0.0, 2024-02-09 11:20:38.312
202.0, -17965.348716419783, -6559.700555765696, 11242.7039435749, -5031.020048978335, 43623.92200516725, 14365.220292236841, 30940.64813144781, 4595.093976866481, 23733.104614389493, 4601.017189147137, 37884.32930521123, 25726.746109336153, 36899.82436893277, 30364.263697178805, 25981.243071704277, 24520.04248142749, 0.066, 1.008, 0.178, 192.0, 0.0, 0.0, 0.0, 0.0, 0.0, 0.0, 0.0, 0.0, 0.0, 1.7074740383205743E9, 0.0, 2024-02-09 11:20:38.320
204.0, -17926.546088045372, -6493.0923572888805, 11279.204342270416, -5045.369868918642, 43999.207794571856, 14429.99564766832, 31120.333805124024, 4722.945955150838, 23997.570454784687, 4691.564105935587, 38216.878559217286, 25810.92277895484, 37236.97808229662, 30551.504260480913, 26154.670256933005, 24655.896384226846, 0.066, 1.008, 0.178, 192.0, 0.0, 0.0, 0.0, 0.0, 0.0, 0.0, 0.0, 0.0, 0.0, 1.707474038328602E9, 0.0, 2024-02-09 11:20:38.328
206.0, -18008.353472751794, -6615.0658267814915, 11213.22199263835, -5023.308697141254, 43620.81511268796, 14358.917100300445, 30926.92416035225, 4594.892811166384, 23880.089685927593, 4617.758645744163, 38144.54831415991, 25751.176566025802, 37272.807928658476, 30504.900873291597, 26115.80057332523, 24674.582442591483, 0.068, 1.01, 0.176, 192.0, 1.0, 16.0, 15.5, 72.0, 2.5, 64.0, 0.0, 0.0, 0.0, 1.7074740383376021E9, 0.0, 2024-02-09 11:20:38.337
208.0, -17909.134079114687, -6476.350900691856, 11284.457002217414, -5031.780008289816, 43861.72221442726, 14431.783787224746, 31059.939391605785, 4703.187013052347, 23804.451382690833, 4625.693515025797, 37924.89772139761, 25751.064807303526, 36870.409473229585, 30404.899168598557, 26012.088479052603, 24513.225199368622, 0.068, 1.01, 0.176, 192.0, 0.0, 0.0, 0.0, 0.0, 0.0, 0.0, 0.0, 0.0, 0.0, 1.7074740383445854E9, 0.0, 2024-02-09 11:20:38.344
210.0, -17927.283695612394, -6515.712322677651, 11254.639775114034, -5008.578897545207, 43869.00888311969, 14410.415519525472, 31049.009388567138, 4702.583515952053, 24073.65579291055, 4700.124824061969, 38375.5088896166, 25827.708939040775, 37494.358419699485, 30646.81209883834, 26232.409624148564, 24777.735743252724, 0.068, 1.01, 0.176, 192.0, 0.0, 0.0, 0.0, 0.0, 0.0, 0.0, 0.0, 0.0, 0.0, 1.7074740383529065E9, 0.0, 2024-02-09 11:20:38.352
212.0, -17903.81436393432, -6494.47816544511, 11255.623251870067, -4997.537135784285, 43644.552665299496, 14396.17745830744, 30961.167032857782, 4633.941308729805, 23764.5088153492, 4614.025904420127, 37906.681049666535, 25740.023045542606, 36909.435619048556, 30397.433685950484, 26004.19831325988, 24548.67506607474, 0.068, 1.01, 0.176, 192.0, 0.0, 0.0, 0.0, 0.0, 0.0, 0.0, 0.0, 0.0, 0.0, 1.7074740383616211E9, 0.0, 2024-02-09 11:20:38.361
214.0, -17825.829127529756, -6390.676664194663, 11285.149906295528, -5018.793644761282, 44018.38559131451, 14454.448456102427, 31140.78565130063, 4758.976967212792, 24033.333245913178, 4723.750617951228, 38246.96400725413, 25839.868288024463, 37248.80215511348, 30572.604307246726, 26172.37283854161, 24684.886596785378, 0.068, 1.01, 0.176, 192.0, 0.0, 0.0, 0.0, 0.0, 0.0, 0.0, 0.0, 0.0, 0.0, 1.707474038368633E9, 0.0, 2024-02-09 11:20:38.368
216.0, -17872.54427344135, -6475.054499513448, 11216.485347328824, -5000.286400352287, 43633.89088319432, 14368.103667271575, 30926.4994772076, 4590.131889597403, 23933.711520875877, 4667.603035879497, 38194.81738743989, 25788.615737988443, 37296.88075743685, 30520.949425810508, 26117.767526837295, 24695.593082379473, 0.064, 1.008, 0.17, 192.0, 1.0, 0.0, 15.5, 64.0, 2.5, 40.0, 0.0, 0.0, 0.0, 1.707474038376639E9, 0.0, 2024-02-09 11:20:38.376
218.0, -17749.9896585929, -6312.8925934901945, 11299.94676112494, -5013.809205747749, 43878.77659544666, 14442.982011196855, 31077.19493832528, 4688.881896600949, 23875.865206225542, 4696.5038414602095, 37980.10653020222, 25806.027746919128, 36900.45021777752, 30419.986596105886, 26010.926188340927, 24521.249475628076, 0.064, 1.008, 0.17, 192.0, 0.0, 0.0, 0.0, 0.0, 0.0, 0.0, 0.0, 0.0, 0.0, 1.7074740383846395E9, 0.0, 2024-02-09 11:20:38.384
220.0, -17770.08387685822, -6356.21027424458, 11263.669879873978, -5003.929734698503, 43881.615266992485, 14408.716786946869, 31056.184298537293, 4671.2687219701675, 24143.01325595537, 4759.580464313086, 38429.734221665174, 25873.44060819633, 37530.03180385015, 30636.664406855634, 26233.460156137964, 24775.344106596007, 0.064, 1.008, 0.17, 192.0, 0.0, 0.0, 0.0, 0.0, 0.0, 0.0, 0.0, 0.0, 0.0, 1.707474038393668E9, 0.0, 2024-02-09 11:20:38.393
222.0, -17750.74961790438, -6347.761314840474, 11275.337490479647, -4993.379711315598, 43652.375775858854, 14384.532199446227, 30950.237029819138, 4592.992912887682, 23837.978999373794, 4672.92275105986, 37973.66922779909, 25795.902406680874, 36953.91559051461, 30397.009002805833, 26003.90774058196, 24546.350484651386, 0.064, 1.008, 0.17, 192.0, 0.0, 0.0, 0.0, 0.0, 0.0, 0.0, 0.0, 0.0, 0.0, 1.7074740384006784E9, 0.0, 2024-02-09 11:20:38.400
224.0, -17675.133666412075, -6246.038525824371, 11319.683351478978, -5002.6780370090055, 44029.472056564344, 14460.326964894173, 31137.522296610154, 4748.158722896424, 24110.759688706363, 4770.733984796284, 38302.86572013685, 25889.08682931505, 37279.13347233933, 30581.455598051027, 26171.165844341023, 24680.25978568313, 0.064, 1.008, 0.17, 192.0, 0.0, 0.0, 0.0, 0.0, 0.0, 0.0, 0.0, 0.0, 0.0, 1.7074740384088397E9, 0.0, 2024-02-09 11:20:38.408
226.0, -17752.716571416448, -6365.799172615907, 11250.392943667524, -4988.238810090877, 43640.73051699764, 14373.55749291867, 30928.98052084214, 4596.792709445084, 24011.18266715797, 4720.196690582835, 38256.217629458624, 25837.767224045663, 37334.476391610675, 30531.074766048765, 26135.850088101637, 24713.452126199263, 0.063, 1.009, 0.17200000000000001, 192.0, 0.5, 120.0, 15.5, 72.0, 2.5, 56.0, 0.0, 0.0, 0.0, 1.7074740384176865E9, 0.0, 2024-02-09 11:20:38.417
228.0, -17661.05206740523, -6228.425351193589, 11323.90783118103, -5000.241696863377, 43871.82520292106, 14440.322153606672, 31049.009388567138, 4685.417376210377, 23906.420040895944, 4710.74190267824, 38013.924719563096, 25828.223029163248, 36904.875863179666, 30428.524962487816, 26021.140935557003, 24528.469089087142, 0.063, 1.009, 0.17200000000000001, 192.0, 0.0, 0.0, 0.0, 0.0, 0.0, 0.0, 0.0, 0.0, 0.0, 1.7074740384248967E9, 0.0, 2024-02-09 11:20:38.424
230.0, -17698.670053323516, -6280.571971007821, 11285.418127228992, -4983.276722821799, 43880.09534836953, 14422.574868509158, 31038.459365184233, 4694.268667014679, 24172.338744680732, 4812.95643007236, 38459.931428424294, 25903.548407977632, 37524.60032994751, 30662.88300310171, 26238.10931898467, 24788.419877102362, 0.063, 1.009, 0.17200000000000001, 192.0, 0.0, 0.0, 0.0, 0.0, 0.0, 0.0, 0.0, 0.0, 0.0, 1.7074740384327936E9, 0.0, 2024-02-09 11:20:38.432
232.0, -17691.45043986445, -6277.755651206452, 11289.32968250867, -4963.562484212218, 43646.34080485592, 14410.884906159034, 30943.82207916046, 4632.399038362389, 23851.032418135695, 4705.422187497877, 37993.495225130944, 25820.511677326165, 36952.485078869475, 30423.674633941013, 26006.3887842165, 24564.05306625999, 0.063, 1.009, 0.17200000000000001, 192.0, 0.0, 0.0, 0.0, 0.0, 0.0, 0.0, 0.0, 0.0, 0.0, 1.7074740384407268E9, 0.0, 2024-02-09 11:20:38.440
234.0, -17628.15029956702, -6183.990083216439, 11324.891307937063, -4982.6061704881395, 44020.41960005994, 14479.214188958907, 31136.181191942836, 4764.073164948602, 24128.685787759518, 4810.9671248158365, 38324.3457465584, 25922.65914948692, 37262.36966399785, 30607.495380341457, 26175.300917065255, 24690.809809066035, 0.063, 1.009, 0.17200000000000001, 192.0, 0.0, 0.0, 0.0, 0.0, 0.0, 0.0, 0.0, 0.0, 0.0, 1.7074740384497907E9, 0.0, 2024-02-09 11:20:38.449
236.0, -17713.377501175106, -6308.4892998324995, 11257.143170493027, -4972.011443616324, 43652.33107236995, 14389.650748926491, 30958.395416545325, 4616.842224221495, 24020.41393761801, 4751.958519453826, 38279.10581578086, 25866.913898815383, 37328.84375200793, 30557.04749310583, 26143.337922494167, 24716.67077740083, 0.0645, 1.0114999999999998, 0.175, 192.0, 1.0, 8.0, 15.5, 88.0, 2.5, 72.0, 0.0, 0.0, 0.0, 1.7074740384567602E9, 0.0, 2024-02-09 11:20:38.456
238.0, -17619.96956109638, -6173.194190644525, 11335.754255742342, -4985.780118200793, 43881.883487925945, 14466.049011474732, 31084.01222038415, 4714.653457957918, 23928.950599306896, 4755.825371244594, 38042.579655954796, 25868.836148838538, 36905.92639516907, 30454.385930822606, 26031.467441495355, 24538.81794676995, 0.0645, 1.0114999999999998, 0.175, 192.0, 0.0, 0.0, 0.0, 0.0, 0.0, 0.0, 0.0, 0.0, 0.0, 1.7074740384648023E9, 0.0, 2024-02-09 11:20:38.464
240.0, -17675.89362572356, -6257.259101540935, 11276.32096723568, -4995.123147383112, 43889.61719150748, 14424.89944993251, 31065.259106786147, 4701.309466518101, 24196.992718814938, 4818.81258711965, 38484.406588602855, 25931.935123435873, 37522.99100434673, 30672.136625306208, 26249.709874356973, 24786.27410963465, 0.0645, 1.0114999999999998, 0.175, 192.0, 0.0, 0.0, 0.0, 0.0, 0.0, 0.0, 0.0, 0.0, 0.0, 1.7074740384729254E9, 0.0, 2024-02-09 11:20:38.472
242.0, -17678.486428080374, -6266.468020256522, 11281.171295782482, -4981.712100709928, 43648.37481360135, 14397.31739727466, 30941.6539599483, 4605.15226187137, 23865.605755520555, 4704.103434575014, 38007.30860320433, 25825.83139250653, 36947.41123287812, 30417.527904215804, 26003.460705692854, 24545.746987551094, 0.0645, 1.0114999999999998, 0.175, 192.0, 0.0, 0.0, 0.0, 0.0, 0.0, 0.0, 0.0, 0.0, 0.0, 1.7074740384798956E9, 0.0, 2024-02-09 11:20:38.479
244.0, -17624.574020454173, -6176.256379634903, 11322.231450346882, -4996.374845072609, 44030.030850175724, 14467.144246953041, 31129.945055239805, 4742.548435038142, 24135.1454419071, 4814.766921373239, 38330.71599372816, 25928.470603045298, 37257.80990812897, 30611.161066432127, 26172.059914119236, 24666.669925054306, 0.0645, 1.0114999999999998, 0.175, 192.0, 0.0, 0.0, 0.0, 0.0, 0.0, 0.0, 0.0, 0.0, 0.0, 1.7074740384888175E9, 0.0, 2024-02-09 11:20:38.488
246.0, -17724.50866991385, -6318.301715648379, 11261.010022283795, -4973.419603517009, 43651.41465084728, 14378.631338910025, 30927.326491752447, 4577.078470835504, 24030.360463900623, 4739.821522214595, 38283.75497862756, 25864.276392969656, 37334.63285382186, 30559.439129762548, 26137.191192768958, 24696.30833820204, 0.06525, 1.0107499999999998, 0.1755, 192.0, 1.0, 8.0, 15.5, 72.0, 2.5, 64.0, 0.0, 0.0, 0.0, 1.7074740384968672E9, 0.0, 2024-02-09 11:20:38.496
248.0, -17666.26002386332, -6218.769397588897, 11333.586136530177, -4985.377786800598, 43873.21101107729, 14459.745819538335, 31059.15708054985, 4689.708911145796, 23917.528857890233, 4734.591214012053, 38030.75558313794, 25855.849785310005, 36891.88949965114, 30447.16631736354, 26023.66668268045, 24524.155202407266, 0.06525, 1.0107499999999998, 0.1755, 192.0, 0.0, 0.0, 0.0, 0.0, 0.0, 0.0, 0.0, 0.0, 0.0, 1.7074740385048227E9, 0.0, 2024-02-09 11:20:38.504
250.0, -17758.75154241938, -6322.9285267506275, 11285.529885951268, -4976.481792507386, 43895.42864506586, 14443.339639108139, 31063.940353863283, 4703.209364796801, 24169.12009347917, 4783.809755302639, 38457.60684700094, 25905.98474812326, 37508.752943128704, 30673.36597125125, 26253.397912192097, 24794.43249636084, 0.06525, 1.0107499999999998, 0.1755, 192.0, 0.0, 0.0, 0.0, 0.0, 0.0, 0.0, 0.0, 0.0, 0.0, 1.707474038512858E9, 0.0, 2024-02-09 11:20:38.512
252.0, -17832.758168310902, -6396.398710775222, 11275.270435246282, -4986.025987389802, 43635.96959542866, 14391.304778016183, 30926.20890452968, 4578.352520269456, 23836.43672900638, 4680.231771496746, 37969.5118033304, 25800.931549183315, 36939.87869499668, 30426.334491531194, 26009.003938317772, 24557.77222606805, 0.06525, 1.0107499999999998, 0.1755, 192.0, 0.0, 0.0, 0.0, 0.0, 0.0, 0.0, 0.0, 0.0, 0.0, 1.7074740385208316E9, 0.0, 2024-02-09 11:20:38.520
254.0, -17862.664802392104, -6400.019693376982, 11285.015795828796, -5038.083200226212, 44010.94246041089, 14445.105426920109, 31113.40476434288, 4721.426036527877, 24041.84926055065, 4731.931356421871, 38240.16907693972, 25852.519375386164, 37219.47666638812, 30575.755903214922, 26153.306800521234, 24652.16364290281, 0.06525, 1.0107499999999998, 0.1755, 192.0, 0.0, 0.0, 0.0, 0.0, 0.0, 0.0, 0.0, 0.0, 0.0, 1.7074740385288951E9, 0.0, 2024-02-09 11:20:38.528
0.0, -17989.443896942605, -6576.06203270698, 11221.648600298, -5016.625525549117, 43644.39620308831, 14362.716896857846, 30926.901808607796, 4578.777203414107, 23917.68532010142, 4641.764419289162, 38190.48114901557, 25772.455426747256, 37313.219882633675, 30528.48196369195, 26126.574114152685, 24682.763181062124, 0.064625, 1.011375, 0.17775, 192.0, 1.0, 0.0, 15.5, 80.0, 2.5, 80.0, 0.0, 0.0, 0.0, 1.7074740385361624E9, 0.0, 2024-02-09 11:20:38.536
2.0, -17942.751102775466, -6493.360578222344, 11278.354975981114, -5039.625470593628, 43853.988510845724, 14436.18708088244, 31066.354342264458, 4704.125786319469, 23804.741955368754, 4619.300916111579, 37923.15428533009, 25752.18239452629, 36866.18499352753, 30410.88943611258, 25999.415039946445, 24499.009489895045, 0.064625, 1.011375, 0.17775, 192.0, 0.0, 0.0, 0.0, 0.0, 0.0, 0.0, 0.0, 0.0, 0.0, 1.707474038544878E9, 0.0, 2024-02-09 11:20:38.544
4.0, -18012.62265594276, -6583.326349654955, 11224.979010221841, -5045.839255552203, 43871.758147687695, 14397.295045530207, 31036.76063260563, 4685.439727954832, 24053.449815922955, 4664.563198633576, 38356.17463066276, 25803.34553758449, 37474.80064330109, 30626.181438706095, 26213.61180706165, 24751.47244351774, 0.064625, 1.011375, 0.17775, 192.0, 0.0, 0.0, 0.0, 0.0, 0.0, 0.0, 0.0, 0.0, 0.0, 1.7074740385528772E9, 0.0, 2024-02-09 11:20:38.552
6.0, -18033.633295730746, -6612.808300591505, 11231.528071347246, -5039.513711871352, 43626.26893833506, 14366.60610039307, 30942.771547171065, 4592.85880242095, 23720.60998923898, 4544.333165208479, 37882.272944721335, 25692.70440253072, 36907.73688646995, 30369.695171081446, 25979.253766447757, 24511.95114993467, 0.064625, 1.011375, 0.17775, 192.0, 0.0, 0.0, 0.0, 0.0, 0.0, 0.0, 0.0, 0.0, 0.0, 1.7074740385608675E9, 0.0, 2024-02-09 11:20:38.560
