%OpenBCI Raw EXG Data
%Number of channels = 16
%Sample Rate = 125 Hz
%Board = OpenBCI_GUI$BoardCytonSerialDaisy
Sample Index, EXG Channel 0, EXG Channel 1, EXG Channel 2, EXG Channel 3, EXG Channel 4, EXG Channel 5, EXG Channel 6, EXG Channel 7, EXG Channel 8, EXG Channel 9, EXG Channel 10, EXG Channel 11, EXG Channel 12, EXG Channel 13, EXG Channel 14, EXG Channel 15, Accel Channel 0, Accel Channel 1, Accel Channel 2, Other, Other, Other, Other, Other, Other, Other, Analog Channel 0, Analog Channel 1, Analog Channel 2, Timestamp, Other, Timestamp (Formatted)
0.0, -8693.57689542495, -14833.824614742354, 20375.805541969006, 400.9455920392981, 47286.81412778069, 20063.037581805896, 36415.372659608445, 11647.53873914942, 0.0, 0.0, 0.0, 0.0, 0.0, 0.0, 0.0, 0.0, 0.0, 0.0, 0.0, 192.0, 0.0, 0.0, 0.0, 0.0, 0.0, 0.0, 0.0, 0.0, 0.0, 1.7074746218959692E9, 0.0, 2024-02-09 11:30:21.895
70.0, -8636.691705786194, -14813.797451710398, 20404.52753359408, 390.1496994673848, 47543.30039540534, 20127.321198859358, 36522.50457078273, 11772.082659254393, 33984.24047043806, 5066.984005806924, 39623.004451156194, 28957.48960465069, 41559.13490761935, 36615.08549631661, 30980.85891972291, 25119.404508996548, 0.0, 0.0, 0.0, 192.0, 0.0, 0.0, 0.0, 0.0, 0.0, 0.0, 0.0, 0.0, 0.0, 1.7074746218960464E9, 0.0, 2024-02-09 11:30:21.896
0.0, -4014.7309320844333, -7382.468269165549, 10356.949014299991, 360.89126597538785, 23744.056969172594, 10089.778612825707, 18308.425642064292, 5967.267568977782, 16978.45214348461, 2513.87834714393, 19827.271381291317, 14461.176331183475, 20841.92882083998, 18307.173944374794, 15493.223427918367, 12578.220674779497, 0.148, 1.024, 0.136, 192.0, 2.0, 80.0, 16.0, 0.0, 2.0, 32.0, 0.0, 0.0, 0.0, 1.7074746219298468E9, 0.0, 2024-02-09 11:30:21.929
2.0, -8020.565869875654, -14750.229090479505, 20726.794985150693, 701.8671276410971, 47391.04031217579, 20150.499957859513, 36552.29944614165, 11847.25157585759, 34153.93491434275, 5691.424690654837, 39443.05055654652, 28725.00911057104, 41432.1769991132, 36433.85755227298, 30842.635732011287, 24891.081439385587, 0.148, 1.024, 0.136, 192.0, 0.0, 0.0, 0.0, 0.0, 0.0, 0.0, 0.0, 0.0, 0.0, 1.7074746219369264E9, 0.0, 2024-02-09 11:30:21.936
4.0, -7921.94997333884, -14704.653883535133, 20782.808456755694, 686.8244036226754, 47730.45155172963, 20256.938964955683, 36745.01618683532, 12030.2900112021, 34391.6680683694, 5737.335173766038, 39691.110216511515, 28802.122628941852, 41669.73133918421, 36572.036036495694, 30958.730692712154, 24969.446655445892, 0.148, 1.024, 0.136, 192.0, 0.0, 0.0, 0.0, 0.0, 0.0, 0.0, 0.0, 0.0, 0.0, 1.7074746219438612E9, 0.0, 2024-02-09 11:30:21.943
6.0, -8041.732971874831, -14770.457419211558, 20698.05064178117, 696.2344880383597, 47431.4969696399, 20171.17532148067, 36608.804656124674, 11911.02110278858, 34340.817849733576, 5703.807557083078, 39684.09176875255, 28766.203375602174, 41754.04211926962, 36549.393719362466, 30960.228259590658, 25004.695356451914, 0.148, 1.024, 0.136, 192.0, 0.0, 0.0, 0.0, 0.0, 0.0, 0.0, 0.0, 0.0, 0.0, 1.7074746219528995E9, 0.0, 2024-02-09 11:30:21.952
8.0, -7923.581650684077, -14701.971674200497, 20776.05822993019, 682.1975925204268, 47610.646201449184, 20231.39092104327, 36701.94437526994, 11966.006394148637, 34213.09998191595, 5703.31581870506, 39452.61710317339, 28754.15578534076, 41382.8690508448, 36436.0480232296, 30855.331522861903, 24871.16603507591, 0.132, 1.006, 0.14200000000000002, 192.0, 2.0, 16.0, 15.5, 56.0, 2.0, 56.0, 0.0, 0.0, 0.0, 1.707474621959895E9, 0.0, 2024-02-09 11:30:21.959
10.0, -7968.888636694985, -14735.901622283653, 20734.3945782655, 680.5435634307341, 47632.75207671548, 20221.086766849374, 36693.24954667682, 11962.385411546877, 34491.602717829075, 5776.227209118272, 39856.91545688098, 28830.509344400092, 41912.136007802015, 36654.06693864667, 31016.599359106942, 25055.970258232388, 0.132, 1.006, 0.14200000000000002, 192.0, 0.0, 0.0, 0.0, 0.0, 0.0, 0.0, 0.0, 0.0, 0.0, 1.7074746219680653E9, 0.0, 2024-02-09 11:30:21.968
12.0, -7993.587314318099, -14745.44581716607, 20728.06903458465, 684.8574501106084, 47415.62723107663, 20177.38910643925, 36594.63365014001, 11863.523645821053, 34177.89598439884, 5691.9164290328545, 39456.32749275297, 28730.507639707048, 41451.846534233875, 36421.385278866925, 30840.333502332393, 24883.9735846488, 0.132, 1.006, 0.14200000000000002, 192.0, 0.0, 0.0, 0.0, 0.0, 0.0, 0.0, 0.0, 0.0, 0.0, 1.70747462197594E9, 0.0, 2024-02-09 11:30:21.975
14.0, -7881.448612385823, -14681.162200112607, 20793.939625494437, 683.3598832321028, 47747.61769147131, 20244.600802016354, 36762.674064955005, 11998.103499186456, 34422.044089084164, 5772.6285782609675, 39722.55912096013, 28827.402451920803, 41713.54075831661, 36581.64728661147, 30963.73748347014, 24979.214367772864, 0.132, 1.006, 0.14200000000000002, 192.0, 0.0, 0.0, 0.0, 0.0, 0.0, 0.0, 0.0, 0.0, 0.0, 1.7074746219849348E9, 0.0, 2024-02-09 11:30:21.984
16.0, -8020.163538475459, -14756.331116715804, 20704.510295928754, 689.484261212857, 47427.898338782594, 20156.937260262643, 36601.51798743224, 11858.427448085244, 34368.33284715806, 5727.478054461248, 39723.49789422726, 28781.179044387227, 41808.245099573745, 36542.79995474815, 30959.51300376809, 25002.303719795196, 0.132, 1.006, 0.14200000000000002, 192.0, 0.0, 0.0, 0.0, 0.0, 0.0, 0.0, 0.0, 0.0, 0.0, 1.7074746219919264E9, 0.0, 2024-02-09 11:30:21.991
18.0, -7918.28428724817, -14686.23604610396, 20775.700602018907, 690.288924013248, 47590.2837622504, 20225.28889480697, 36692.02020073178, 11936.613850189908, 34214.01640343862, 5723.1418160369185, 39467.63747544736, 28757.6873609647, 41402.31506852091, 36453.92941879385, 30847.39665358027, 24859.87840412598, 0.136, 1.01, 0.156, 192.0, 2.0, 32.0, 15.5, 72.0, 2.0, 112.0, 0.0, 0.0, 0.0, 1.7074746219999456E9, 0.0, 2024-02-09 11:30:21.999
20.0, -7964.641805248476, -14722.892907010664, 20738.462595756366, 693.5969821926335, 47607.69577118108, 20214.09067083486, 36690.612040831096, 11964.1735511033, 34475.71062752135, 5752.08732510654, 39864.000959873316, 28822.641530351822, 41909.56555718965, 36669.04260743172, 31024.86950455541, 25061.021752479286, 0.136, 1.01, 0.156, 192.0, 0.0, 0.0, 0.0, 0.0, 0.0, 0.0, 0.0, 0.0, 0.0, 1.7074746220080981E9, 0.0, 2024-02-09 11:30:22.008
22.0, -7999.734044043308, -14734.471110638513, 20732.181755564423, 696.7262264163764, 47398.21522214595, 20164.402742910712, 36578.83096681011, 11849.754971236584, 34184.71326645771, 5665.742536275689, 39462.787146900555, 28722.282197747496, 41436.87086544882, 36417.943110220804, 30841.585200021887, 24882.0736863701, 0.136, 1.01, 0.156, 192.0, 0.0, 0.0, 0.0, 0.0, 0.0, 0.0, 0.0, 0.0, 0.0, 1.7074746220160036E9, 0.0, 2024-02-09 11:30:22.016
24.0, -7884.220228698281, -14671.461543019002, 20808.043576245735, 704.3034677867255, 47731.83735988586, 20256.29076436648, 36746.603160691644, 12016.722502317727, 34417.149057048446, 5750.992089628231, 39717.61938543551, 28813.81259129198, 41691.1890138613, 36574.628838852506, 30956.495518266624, 24976.018068315756, 0.136, 1.01, 0.156, 192.0, 0.0, 0.0, 0.0, 0.0, 0.0, 0.0, 0.0, 0.0, 0.0, 1.7074746220240083E9, 0.0, 2024-02-09 11:30:22.024
26.0, -8019.984724519816, -14748.128026500706, 20723.53163046022, 716.6192789815998, 47438.113085998666, 20186.24039724355, 36596.13121701851, 11899.621713116374, 34376.17830946187, 5731.791941141122, 39731.99155712027, 28784.37534384434, 41823.690154992364, 36585.42473142442, 30982.490597068143, 25030.9586561869, 0.136, 1.01, 0.156, 192.0, 0.0, 0.0, 0.0, 0.0, 0.0, 0.0, 0.0, 0.0, 0.0, 1.7074746220319667E9, 0.0, 2024-02-09 11:30:22.031
28.0, -7918.083121548072, -14690.728746739478, 20777.667555530974, 688.031397823262, 47606.51112872495, 20241.940944426173, 36684.241793661335, 11940.74892291414, 34221.906569231345, 5704.098129760996, 39468.6656556923, 28751.004189372565, 41405.15374006674, 36443.22293319976, 30858.863098485843, 24874.87642465549, 0.134, 1.01, 0.158, 192.0, 2.0, 24.0, 15.5, 72.0, 2.0, 120.0, 0.0, 0.0, 0.0, 1.7074746220407555E9, 0.0, 2024-02-09 11:30:22.040
30.0, -7965.222950604314, -14723.33994189977, 20728.42666249593, 682.130537287061, 47641.98334717553, 20214.314188279415, 36678.31858138068, 11945.912175883315, 34508.187712214916, 5756.691784464334, 39871.08646286565, 28826.195457720216, 41951.29626408771, 36669.46729057637, 31036.738280861176, 25068.889566527556, 0.134, 1.01, 0.158, 192.0, 0.0, 0.0, 0.0, 0.0, 0.0, 0.0, 0.0, 0.0, 0.0, 1.7074746220470324E9, 0.0, 2024-02-09 11:30:22.047
32.0, -7987.373529359524, -14721.10476745424, 20717.3401972461, 693.5299269592675, 47420.25404217888, 20186.218045499092, 36584.70947560185, 11862.383706853832, 34185.67439146929, 5693.45869940027, 39465.37994925737, 28723.645654159267, 41476.92519151273, 36430.39303188241, 30845.072072156916, 24879.03384912418, 0.134, 1.01, 0.158, 192.0, 0.0, 0.0, 0.0, 0.0, 0.0, 0.0, 0.0, 0.0, 0.0, 1.707474622056435E9, 0.0, 2024-02-09 11:30:22.056
34.0, -7881.158039707904, -14668.779333684366, 20778.896901476015, 686.5561826892117, 47747.59533972685, 20272.428723863213, 36769.06666386923, 12024.769130321638, 34429.15194382095, 5759.5975112435235, 39719.65339418095, 28823.781469319045, 41718.18992116331, 36597.36056296356, 30976.74619874313, 24990.47964697834, 0.134, 1.01, 0.158, 192.0, 0.0, 0.0, 0.0, 0.0, 0.0, 0.0, 0.0, 0.0, 0.0, 1.707474622064037E9, 0.0, 2024-02-09 11:30:22.064
36.0, -8026.086750756115, -14745.758741588443, 20676.2800426817, 683.1810692764603, 47418.51060611136, 20144.375579878757, 36580.95438253336, 11858.718020763163, 34347.12104166997, 5717.196252011807, 39718.71462091382, 28783.190701388205, 41796.37632326798, 36588.06223727015, 30955.892021166328, 25013.81486818968, 0.134, 1.01, 0.158, 192.0, 0.0, 0.0, 0.0, 0.0, 0.0, 0.0, 0.0, 0.0, 0.0, 1.7074746220710802E9, 0.0, 2024-02-09 11:30:22.071
38.0, -7898.771214338686, -14663.23610105945, 20783.434305600444, 699.1625665620049, 47603.5383467124, 20244.846671205363, 36717.858817322114, 11958.898539411848, 34226.17575242231, 5707.853222829488, 39474.879440650875, 28760.257811577063, 41409.95936512463, 36443.759375066686, 30849.028330925506, 24868.997915863743, 0.136, 1.008, 0.16, 192.0, 2.0, 32.0, 15.5, 64.0, 2.5, 0.0, 0.0, 0.0, 0.0, 1.7074746220800972E9, 0.0, 2024-02-09 11:30:22.080
40.0, -7950.806075430642, -14698.95418869903, 20747.179776093933, 706.8962701435412, 47655.170876404154, 20222.360816283326, 36727.17949475998, 11988.626359537408, 34532.64052064902, 5784.0726714220855, 39897.349762600636, 28846.692007385733, 41977.24663940032, 36693.69658156593, 31052.4292054688, 25090.52605516029, 0.136, 1.008, 0.16, 192.0, 0.0, 0.0, 0.0, 0.0, 0.0, 0.0, 0.0, 0.0, 0.0, 1.7074746220880637E9, 0.0, 2024-02-09 11:30:22.088
42.0, -7979.684529266898, -14705.637360291168, 20767.07282865916, 724.9564796634293, 47441.48819941142, 20196.589254926355, 36603.95432757787, 11890.323387422966, 34202.86288295542, 5707.1826704958285, 39484.13306285537, 28747.20439281516, 41474.51120311156, 36461.19373574183, 30858.214897896636, 24908.60520703855, 0.136, 1.008, 0.16, 192.0, 0.0, 0.0, 0.0, 0.0, 0.0, 0.0, 0.0, 0.0, 0.0, 1.707474622095116E9, 0.0, 2024-02-09 11:30:22.095
44.0, -7880.308673418603, -14659.90569113561, 20815.687872849452, 698.737883417354, 47757.653624731734, 20249.629944518798, 36741.95399784494, 12009.122909202923, 34445.96045565134, 5767.241807847239, 39741.42399328041, 28830.978731033654, 41744.36381392048, 36598.09817053058, 30978.623745277375, 24992.08897257912, 0.136, 1.008, 0.16, 192.0, 0.0, 0.0, 0.0, 0.0, 0.0, 0.0, 0.0, 0.0, 0.0, 1.7074746221031132E9, 0.0, 2024-02-09 11:30:22.103
46.0, -8022.4881198988105, -14743.411808420637, 20708.645368652986, 701.2412787963485, 47421.192815446004, 20151.617545082278, 36558.80380377815, 11880.198047184713, 34382.99559152074, 5700.164222736862, 39740.57462699111, 28773.288878594507, 41827.28878584967, 36580.86497555554, 30964.340980570436, 25009.545684998713, 0.136, 1.008, 0.16, 192.0, 0.0, 0.0, 0.0, 0.0, 0.0, 0.0, 0.0, 0.0, 0.0, 1.707474622112456E9, 0.0, 2024-02-09 11:30:22.112
48.0, -7909.991790055251, -14673.517903508891, 20787.68113704695, 697.3297235166698, 47597.41396873164, 20219.544496481954, 36630.32938603513, 11928.902498352827, 34214.75401100564, 5707.428539684837, 39464.530582968066, 28750.82537541692, 41386.44532995765, 36429.74483129321, 30833.762089462532, 24858.805520392125, 0.124, 1.052, 0.164, 192.0, 1.5, 112.0, 16.0, 112.0, 2.5, 16.0, 0.0, 0.0, 0.0, 1.7074746221201515E9, 0.0, 2024-02-09 11:30:22.120
50.0, -7969.872113451018, -14725.709226812032, 20719.731833902817, 669.1888772474382, 47620.52567249843, 20199.159705538717, 36640.901761162495, 11954.94228064326, 34523.409250188975, 5694.8445075565, 39886.151538628525, 28826.731899587143, 41971.32342711966, 36639.82887742864, 31027.23878946767, 25058.38424663356, 0.124, 1.052, 0.164, 192.0, 0.0, 0.0, 0.0, 0.0, 0.0, 0.0, 0.0, 0.0, 0.0, 1.7074746221271348E9, 0.0, 2024-02-09 11:30:22.127
52.0, -7988.62522704902, -14718.355502886237, 20723.218706037846, 711.4560260124238, 47393.1860796435, 20187.46974318859, 36538.10608841254, 11866.228206900145, 34195.71032472972, 5628.660992224335, 39473.828908661475, 28729.233590273096, 41470.33142689841, 36454.5552676386, 30832.778612706497, 24885.314689316117, 0.124, 1.052, 0.164, 192.0, 0.0, 0.0, 0.0, 0.0, 0.0, 0.0, 0.0, 0.0, 0.0, 1.7074746221351695E9, 0.0, 2024-02-09 11:30:22.135
54.0, -7892.266856702192, -14683.062098391307, 20776.952299708402, 687.2043832784157, 47719.275679501974, 20243.930249682697, 36690.746151297826, 11976.109382642435, 34413.39396397996, 5750.075668105563, 39718.33464125808, 28828.94472228822, 41691.412531305854, 36604.96015607836, 30954.237992076636, 24974.095818292597, 0.124, 1.052, 0.164, 192.0, 0.0, 0.0, 0.0, 0.0, 0.0, 0.0, 0.0, 0.0, 0.0, 1.707474622144179E9, 0.0, 2024-02-09 11:30:22.144
56.0, -8019.671800097442, -14743.791788076376, 20706.499601185275, 702.6717904414882, 47415.42606537653, 20167.33082143436, 36555.58515257658, 11872.374936625354, 34339.32028285507, 5652.443248324782, 39741.82632468061, 28798.926329484744, 41789.00024759772, 36589.24687972628, 30956.495518266624, 25011.713804210878, 0.124, 1.052, 0.164, 192.0, 0.0, 0.0, 0.0, 0.0, 0.0, 0.0, 0.0, 0.0, 0.0, 1.707474622151172E9, 0.0, 2024-02-09 11:30:22.151
58.0, -7857.7781150076535, -14630.870775088166, 20837.883155093572, 747.9340729634849, 47613.61898346174, 20271.534654085, 36684.46531110589, 11945.308678783022, 34215.335156361485, 5684.965036507254, 39501.88034795289, 28800.759172530077, 41425.694993221165, 36429.700127804295, 30858.97485720812, 24874.898776399947, 0.11, 1.03, 0.17200000000000001, 192.0, 1.5, 56.0, 16.0, 24.0, 2.5, 48.0, 0.0, 0.0, 0.0, 1.707474622159161E9, 0.0, 2024-02-09 11:30:22.159
60.0, -7913.94804882384, -14682.257435590916, 20798.231160429856, 745.0954014176609, 47664.111574186274, 20261.6328312913, 36704.872453793585, 11964.933510414781, 34613.48678034387, 5789.995883702742, 39970.2835047583, 28929.996958970663, 42042.089050065166, 36791.32900134671, 31089.130769864416, 25113.704814160446, 0.11, 1.03, 0.17200000000000001, 192.0, 0.0, 0.0, 0.0, 0.0, 0.0, 0.0, 0.0, 0.0, 0.0, 1.707474622168146E9, 0.0, 2024-02-09 11:30:22.168
62.0, -8002.639770822499, -14773.050221568374, 20722.123470559534, 658.9964817758181, 47378.255114347354, 20166.123827233772, 36566.22458293731, 11825.212755824658, 34216.6762610288, 5601.1683465443075, 39538.53720885959, 28781.849596720887, 41517.627718165844, 36487.0100005877, 30878.82320628443, 24920.74220427778, 0.11, 1.03, 0.17200000000000001, 192.0, 0.0, 0.0, 0.0, 0.0, 0.0, 0.0, 0.0, 0.0, 0.0, 1.7074746221762109E9, 0.0, 2024-02-09 11:30:22.176
64.0, -7966.1393721269815, -14810.6458557422, 20661.84081576357, 521.3544394200372, 47644.822018721345, 20166.90613828971, 36700.111532224604, 11927.583745429964, 34285.653744417876, 5241.774647447425, 39656.442660861336, 28690.162740965217, 41605.98416399767, 36428.26961615916, 30916.463543947168, 24925.659588057948, 0.11, 1.03, 0.17200000000000001, 192.0, 0.0, 0.0, 0.0, 0.0, 0.0, 0.0, 0.0, 0.0, 0.0, 1.707474622183384E9, 0.0, 2024-02-09 11:30:22.183
66.0, -8024.544480388699, -14740.103750241251, 20722.68226417092, 688.3890257345469, 47409.99459147389, 20154.433864883646, 36587.36933319204, 11832.924107661738, 34289.140616552904, 5452.596301149882, 39694.08299852407, 28714.079107532398, 41802.03131461517, 36490.63098318946, 30939.30702678049, 24963.32227746514, 0.11, 1.03, 0.17200000000000001, 192.0, 0.0, 0.0, 0.0, 0.0, 0.0, 0.0, 0.0, 0.0, 0.0, 1.7074746221914237E9, 0.0, 2024-02-09 11:30:22.191
68.0, -7938.043229346661, -14720.322456398304, 20755.047590142203, 686.4891274558458, 47549.201255941545, 20240.801005458954, 36668.506165564795, 11885.96479725418, 34165.557821459515, 5682.439289383804, 39480.132100597875, 28804.648376065303, 41425.67264147671, 36502.09742809504, 30861.411197353747, 24871.88129089848, 0.10400000000000001, 1.01, 0.178, 192.0, 1.5, 32.0, 15.5, 72.0, 2.5, 72.0, 0.0, 0.0, 0.0, 1.707474622200242E9, 0.0, 2024-02-09 11:30:22.200
70.0, -7918.194880270348, -14706.397319602647, 20767.430456570444, 718.4074185380243, 47620.078637609324, 20245.494871794566, 36706.83940730565, 11947.566204973007, 34447.79329869668, 5374.722823467591, 39865.76674768529, 28795.595919560903, 41983.728645292365, 36765.04334986727, 31041.566257663522, 25069.15778746102, 0.10400000000000001, 1.01, 0.178, 192.0, 0.0, 0.0, 0.0, 0.0, 0.0, 0.0, 0.0, 0.0, 0.0, 1.7074746222073133E9, 0.0, 2024-02-09 11:30:22.207
72.0, -8063.704736674397, -14844.84402475882, 20705.3373104736, 636.1529989424943, 47331.65172715804, 20133.311466373383, 36540.2742076247, 11789.852296096362, 34288.58182294152, 5717.017438056164, 39560.4866219147, 28841.484050927647, 41559.3584250639, 36566.71632131533, 30883.762941809055, 24929.83936427109, 0.10400000000000001, 1.01, 0.178, 192.0, 0.0, 0.0, 0.0, 0.0, 0.0, 0.0, 0.0, 0.0, 0.0, 1.707474622215361E9, 0.0, 2024-02-09 11:30:22.215
74.0, -7887.75180432222, -14714.131023184184, 20764.43532281343, 653.8332288066422, 47676.650902825706, 20224.10425235084, 36722.08329702417, 11930.869451864894, 34198.72781023119, 4886.851297241605, 39608.58757598252, 28618.413641263684, 41658.26489427863, 36491.74857041223, 30900.571453639444, 24897.719907488812, 0.10400000000000001, 1.01, 0.178, 192.0, 0.0, 0.0, 0.0, 0.0, 0.0, 0.0, 0.0, 0.0, 0.0, 1.7074746222233927E9, 0.0, 2024-02-09 11:30:22.223
76.0, -8018.733026830319, -14756.353468460258, 20699.727022615316, 709.0196858667954, 47373.56124801174, 20139.480547843046, 36565.71049281484, 11793.607389164852, 34477.94580196688, 5494.125842347842, 39758.21015336635, 28847.407263208304, 41835.49187606476, 36725.72663137038, 30943.240933804627, 25005.41061227448, 0.10400000000000001, 1.01, 0.178, 192.0, 0.0, 0.0, 0.0, 0.0, 0.0, 0.0, 0.0, 0.0, 0.0, 1.7074746222323487E9, 0.0, 2024-02-09 11:30:22.232
78.0, -7845.2164346237705, -14593.230437425429, 20844.722788896896, 760.5404568362782, 47584.76288136994, 20256.15665389975, 36706.25826194981, 11909.411777187799, 34313.10168660899, 5422.8461292798675, 39537.39726989237, 28870.653077441824, 41468.409176875255, 36551.60654206354, 30875.38103763831, 24895.194160365365, 0.10200000000000001, 1.004, 0.182, 192.0, 1.5, 24.0, 15.5, 48.0, 2.5, 88.0, 0.0, 0.0, 0.0, 1.7074746222393963E9, 0.0, 2024-02-09 11:30:22.239
80.0, -8106.4636238174, -14860.5573011109, 20600.88760863395, 517.4875876292691, 47509.97394442248, 20090.776096674934, 36611.263348014756, 11821.43531101171, 34402.44160919686, 5201.407396961141, 39833.6025874141, 28816.04776573751, 41972.01633119778, 36696.1105699671, 30999.679088554276, 25022.375586316062, 0.10200000000000001, 1.004, 0.182, 192.0, 0.0, 0.0, 0.0, 0.0, 0.0, 0.0, 0.0, 0.0, 0.0, 1.7074746222473283E9, 0.0, 2024-02-09 11:30:22.247
82.0, -8122.020437958293, -14860.400838899714, 20582.536826436142, 501.6402008104564, 47276.57702882016, 20037.668351849123, 36510.12170435449, 11725.099292409337, 33955.116147412795, 4765.36956612701, 39323.736944644086, 28547.759777040457, 41417.603661728346, 36365.39415900638, 30738.186030171637, 24756.546289509093, 0.10200000000000001, 1.004, 0.182, 192.0, 0.0, 0.0, 0.0, 0.0, 0.0, 0.0, 0.0, 0.0, 0.0, 1.707474622256601E9, 0.0, 2024-02-09 11:30:22.256
84.0, -7752.926081767808, -14559.188730619995, 20918.550600832772, 838.2574723073808, 47797.573840328914, 20322.295465743002, 36835.741917579406, 12029.038313512601, 34418.93719660487, 5132.58637578325, 39698.64275439295, 28823.84852455241, 41735.758392305186, 36638.89010416152, 30945.11848033887, 24945.440881900893, 0.10200000000000001, 1.004, 0.182, 192.0, 0.0, 0.0, 0.0, 0.0, 0.0, 0.0, 0.0, 0.0, 0.0, 1.7074746222634704E9, 0.0, 2024-02-09 11:30:22.263
86.0, -7939.361982269524, -14674.09904886473, 20777.242872386323, 731.9078721890297, 47447.65728088108, 20157.22783294056, 36629.077688345635, 11841.931860677227, 34630.33999566317, 5022.772255274326, 39873.09811986663, 28891.015516640608, 41983.61688657008, 36741.39520423355, 31039.80046985155, 25072.041162495752, 0.10200000000000001, 1.004, 0.182, 192.0, 0.0, 0.0, 0.0, 0.0, 0.0, 0.0, 0.0, 0.0, 0.0, 1.7074746222713623E9, 0.0, 2024-02-09 11:30:22.271
88.0, -7910.774101111187, -14690.505229294924, 20787.81524751368, 687.8525838676195, 47568.356700939745, 20209.352101010336, 36666.09217716363, 11856.48284631763, 34324.74694547021, 5096.309494532286, 39530.602339577956, 28859.298391258526, 41521.94160484572, 36626.417830755454, 30873.6376015708, 24881.87252067, 0.099, 1.006, 0.176, 192.0, 1.5, 0.0, 15.5, 64.0, 2.5, 40.0, 0.0, 0.0, 0.0, 1.7074746222793744E9, 0.0, 2024-02-09 11:30:22.279
90.0, -7922.776987883686, -14717.416729619114, 20777.689907275428, 670.2617609812929, 47641.98334717553, 20187.42503969968, 36694.97063099988, 11895.620750858874, 34460.846717458575, 4763.290853892667, 39852.73568066784, 28775.30053559548, 41991.484700618355, 36701.430285147464, 30997.779190275574, 25014.574827501157, 0.099, 1.006, 0.176, 192.0, 0.0, 0.0, 0.0, 0.0, 0.0, 0.0, 0.0, 0.0, 0.0, 1.707474622288386E9, 0.0, 2024-02-09 11:30:22.288
92.0, -7925.772121640697, -14682.168028613094, 20791.749154537818, 700.0566363402172, 47406.53007108332, 20153.428036383157, 36584.70947560185, 11807.398415493777, 34350.31734112708, 4743.017821671703, 39557.5361916466, 28778.586242030415, 41648.58658892949, 36557.350940388555, 30879.337296406902, 24899.664509256425, 0.099, 1.006, 0.176, 192.0, 0.0, 0.0, 0.0, 0.0, 0.0, 0.0, 0.0, 0.0, 0.0, 1.7074746222953787E9, 0.0, 2024-02-09 11:30:22.295
94.0, -7814.1028063419835, -14630.334333221237, 20859.720809426406, 750.3927648535687, 47762.88393293428, 20279.29070941099, 36765.02099812281, 11959.591443489962, 34575.645276981035, 4807.256735236256, 39799.4938253753, 28885.271118315595, 41851.24985590576, 36686.007581473306, 30995.454608852222, 24985.31639400916, 0.099, 1.006, 0.176, 192.0, 0.0, 0.0, 0.0, 0.0, 0.0, 0.0, 0.0, 0.0, 0.0, 1.707474622303452E9, 0.0, 2024-02-09 11:30:22.303
96.0, -7962.652499991954, -14705.011511446419, 20768.16806413747, 725.4705697859014, 47445.444458180005, 20149.89646075922, 36590.40917043795, 11804.470336970131, 34501.482188878326, 4722.230699328268, 39820.28094771873, 28852.90579234431, 41979.63827605704, 36769.33488480269, 30998.606204820422, 25032.679740509957, 0.099, 1.006, 0.176, 192.0, 0.0, 0.0, 0.0, 0.0, 0.0, 0.0, 0.0, 0.0, 0.0, 1.7074746223123991E9, 0.0, 2024-02-09 11:30:22.312
98.0, -7870.540961091633, -14653.84836838822, 20836.899678337537, 689.6407234240442, 47579.71138712304, 20183.58053965337, 36659.16313638248, 11824.475148257632, 34340.63903577793, 4679.762384863185, 39533.12808670141, 28805.65420456579, 41555.26805582858, 36560.636646823485, 30858.930153719208, 24843.58398241806, 0.0865, 1.0070000000000001, 0.172, 192.0, 1.0, 40.0, 15.5, 64.0, 2.5, 32.0, 0.0, 0.0, 0.0, 1.7074746223194246E9, 0.0, 2024-02-09 11:30:22.319
100.0, -7927.895537363951, -14705.927932969087, 20779.612157298587, 686.1091478001056, 47634.2943470829, 20178.57374889538, 36681.82780526016, 11856.035811428525, 34615.3196233892, 4613.221241619735, 39928.441039137964, 28862.71820816019, 42103.265774639345, 36809.63508005561, 31042.08034778599, 25040.502851069316, 0.0865, 1.0070000000000001, 0.172, 192.0, 0.0, 0.0, 0.0, 0.0, 0.0, 0.0, 0.0, 0.0, 0.0, 1.7074746223276532E9, 0.0, 2024-02-09 11:30:22.327
102.0, -7972.263750107736, -14718.243744163961, 20760.434360555933, 688.1431565455385, 47375.751718968364, 20131.389216350224, 36556.76979503272, 11756.637603835774, 34285.11730255095, 4474.998053908116, 39522.82393250751, 28747.293799792984, 41628.60412938644, 36537.05555642314, 30848.71540650313, 24858.11261631401, 0.0865, 1.0070000000000001, 0.172, 192.0, 0.0, 0.0, 0.0, 0.0, 0.0, 0.0, 0.0, 0.0, 0.0, 1.7074746223354568E9, 0.0, 2024-02-09 11:30:22.335
104.0, -7869.602187824511, -14669.42753427357, 20817.07368100568, 672.5416389157342, 47709.88794683075, 20224.126604095294, 36717.18826498846, 11914.887954579348, 34493.10028470758, 4486.062167413494, 39739.59115023508, 28828.408280421292, 41811.6202129865, 36684.68882855044, 30952.44985252021, 24936.097852718576, 0.0865, 1.0070000000000001, 0.172, 192.0, 0.0, 0.0, 0.0, 0.0, 0.0, 0.0, 0.0, 0.0, 0.0, 1.7074746223434665E9, 0.0, 2024-02-09 11:30:22.343
106.0, -7989.519296827233, -14729.82194779181, 20740.451901012886, 700.1236915735831, 47414.95667874297, 20144.88967000123, 36587.57049889213, 11823.62578196833, 34452.800089454664, 4426.7853411180195, 39788.40736012547, 28797.719335284157, 41969.89291547453, 36699.64214559104, 30973.058160908004, 24990.524350467247, 0.0865, 1.0070000000000001, 0.172, 192.0, 0.0, 0.0, 0.0, 0.0, 0.0, 0.0, 0.0, 0.0, 0.0, 1.7074746223515482E9, 0.0, 2024-02-09 11:30:22.351
108.0, -7893.94323753634, -14670.276900562872, 20811.709262336408, 689.126633301572, 47558.074898490304, 20211.788441155964, 36681.96191572689, 11877.605244827897, 34288.6935816638, 4379.667863806232, 39506.618917777414, 28778.65329726378, 41537.02903235305, 36564.32468465861, 30858.661932785744, 24849.68600865436, 0.08024999999999999, 1.0005000000000002, 0.16399999999999998, 192.0, 1.0, 40.0, 15.5, 8.0, 2.0, 112.0, 0.0, 0.0, 0.0, 1.7074746223595235E9, 0.0, 2024-02-09 11:30:22.359
110.0, -7930.957726354329, -14698.507153809924, 20769.755037993793, 685.6174094220888, 47618.066980608346, 20192.163609524207, 36693.338953654646, 11898.235904960145, 34583.26722184029, 4393.01185524605, 39926.11645771461, 28855.878574356866, 42096.94023095849, 36798.36980085013, 31045.030778054093, 25043.565040059693, 0.08024999999999999, 1.0005000000000002, 0.16399999999999998, 192.0, 0.0, 0.0, 0.0, 0.0, 0.0, 0.0, 0.0, 0.0, 0.0, 1.7074746223685436E9, 0.0, 2024-02-09 11:30:22.368
112.0, -7981.0479856786715, -14716.276790651893, 20742.530613247232, 688.7243019013765, 47361.983044383895, 20134.049073940405, 36577.422806909424, 11781.04570878097, 34256.372959181426, 4298.37456922228, 39527.450743609756, 28753.842860918387, 41632.493332921666, 36575.09822548607, 30854.19158389468, 24868.260308296718, 0.08024999999999999, 1.0005000000000002, 0.16399999999999998, 192.0, 0.0, 0.0, 0.0, 0.0, 0.0, 0.0, 0.0, 0.0, 0.0, 1.7074746223745663E9, 0.0, 2024-02-09 11:30:22.374
114.0, -7868.909283746396, -14656.284708533849, 20807.753003567817, 680.1412320305386, 47712.19017650964, 20216.95169412514, 36752.50402122784, 11925.616791917897, 34465.048845416175, 4341.736953465575, 39735.210208321834, 28832.789222334533, 41812.581337998075, 36703.79957005973, 30955.042654877027, 24933.12507070602, 0.08024999999999999, 1.0005000000000002, 0.16399999999999998, 192.0, 0.0, 0.0, 0.0, 0.0, 0.0, 0.0, 0.0, 0.0, 0.0, 1.7074746223835273E9, 0.0, 2024-02-09 11:30:22.383
116.0, -8007.847727280585, -14737.48859613998, 20713.115717544046, 681.1917640199381, 47415.62723107663, 20115.295960342402, 36591.37029544953, 11783.035014037492, 34440.797202682166, 4293.524240675479, 39781.27715364422, 28797.831094006433, 41971.18931665293, 36705.87828229407, 30968.543108528032, 24979.70610615088, 0.08024999999999999, 1.0005000000000002, 0.16399999999999998, 192.0, 0.0, 0.0, 0.0, 0.0, 0.0, 0.0, 0.0, 0.0, 0.0, 1.707474622391557E9, 0.0, 2024-02-09 11:30:22.391
118.0, -7906.996656298239, -14681.765697212899, 20788.128171936056, 669.7923743477314, 47565.965064283024, 20165.98971676704, 36681.76075002679, 11843.027096155536, 34261.11152900595, 4262.455315882601, 39489.02809489109, 28761.39775054428, 41527.775410148555, 36562.26832416873, 30841.205220366148, 24824.227371719764, 0.082125, 0.9942500000000001, 0.154, 192.0, 1.0, 80.0, 15.0, 112.0, 2.0, 64.0, 0.0, 0.0, 0.0, 1.7074746223994992E9, 0.0, 2024-02-09 11:30:22.399
120.0, -7954.315299310125, -14723.00466573294, 20739.066092856658, 644.6466618355109, 47624.37017254474, 20135.144309418716, 36706.77235207229, 11878.812239028483, 34555.21578254888, 4302.33082799087, 39897.975611445385, 28834.57736189096, 42084.26679185234, 36764.19398357797, 31026.05414701154, 25013.47959202285, 0.082125, 0.9942500000000001, 0.154, 192.0, 0.0, 0.0, 0.0, 0.0, 0.0, 0.0, 0.0, 0.0, 0.0, 1.7074746224075186E9, 0.0, 2024-02-09 11:30:22.407
122.0, -8007.981837747317, -14732.05712223734, 20724.96214210536, 672.5416389157342, 47377.495155035875, 20119.341626088815, 36600.556862420664, 11794.389700220789, 34213.88229297189, 4208.49820476749, 39485.228298333685, 28711.82158134241, 41573.82000372648, 36507.52890199768, 30826.85540042584, 24833.972732302278, 0.082125, 0.9942500000000001, 0.154, 192.0, 0.0, 0.0, 0.0, 0.0, 0.0, 0.0, 0.0, 0.0, 0.0, 1.707474622415559E9, 0.0, 2024-02-09 11:30:22.415
124.0, -7903.822708585586, -14687.085412393262, 20787.07763994666, 653.6991183399103, 47720.57208068038, 20190.75544962352, 36772.91116391554, 11940.994792103147, 34432.460002000334, 4313.864328129808, 39706.33175448558, 28820.652225095302, 41816.09056187756, 36716.1153812546, 30961.278791580058, 24936.947219007878, 0.082125, 0.9942500000000001, 0.154, 192.0, 0.0, 0.0, 0.0, 0.0, 0.0, 0.0, 0.0, 0.0, 0.0, 1.7074746224235928E9, 0.0, 2024-02-09 11:30:22.423
126.0, -8019.560041375165, -14742.58479387579, 20720.715310658852, 679.1354035300498, 47431.742838828904, 20117.50878304348, 36611.91154860396, 11856.035811428525, 34393.880891070476, 4274.033519510451, 39742.45217352536, 28762.02359938903, 41906.34690598809, 36620.002880096785, 30954.819137432474, 24966.384466455518, 0.082125, 0.9942500000000001, 0.154, 192.0, 0.0, 0.0, 0.0, 0.0, 0.0, 0.0, 0.0, 0.0, 0.0, 1.707474622430637E9, 0.0, 2024-02-09 11:30:22.430
128.0, -7908.807147599119, -14676.155409354616, 20809.1611634685, 698.0226275947842, 47581.0301400459, 20217.108156336326, 36705.1630264715, 11944.816940405004, 34260.150403994376, 4314.020790340995, 39492.89494668185, 28772.283050094018, 41544.94154989023, 36605.07191480064, 30862.10410143186, 24869.266136797207, 0.0860625, 0.998125, 0.14200000000000002, 192.0, 1.0, 104.0, 15.5, 40.0, 2.0, 8.0, 0.0, 0.0, 0.0, 1.7074746224398572E9, 0.0, 2024-02-09 11:30:22.439
130.0, -7935.986868856772, -14699.937665455063, 20790.96684348188, 703.3646945196026, 47669.923027744655, 20227.233496574583, 36751.207620049434, 12016.387226150899, 34551.661855180486, 4396.386968658801, 39917.44398086596, 28851.341170232437, 42074.61083824764, 36789.27264085682, 31057.57010669352, 25074.745723574844, 0.0860625, 0.998125, 0.14200000000000002, 192.0, 0.0, 0.0, 0.0, 0.0, 0.0, 0.0, 0.0, 0.0, 0.0, 1.7074746224476101E9, 0.0, 2024-02-09 11:30:22.447
132.0, -7986.457107836856, -14716.500308096447, 20765.418799569467, 708.3938370220467, 47388.08988190769, 20164.536853377445, 36603.12731303302, 11885.137782709335, 34241.129069462906, 4404.1877274737035, 39539.23011293771, 28750.981837628107, 41630.79460034306, 36574.561783619145, 30879.851386529375, 24919.669320543926, 0.0860625, 0.998125, 0.14200000000000002, 192.0, 0.0, 0.0, 0.0, 0.0, 0.0, 0.0, 0.0, 0.0, 0.0, 1.7074746224557884E9, 0.0, 2024-02-09 11:30:22.455
134.0, -7872.619673325977, -14658.877510890665, 20828.07073927769, 693.5522787037229, 47738.63229020027, 20239.594011258367, 36798.77213225033, 12015.38139765041, 34442.026548627204, 4551.776296112096, 39734.941987388374, 28827.536562387537, 41781.89239286094, 36684.97940122836, 30974.756893486607, 24977.158007282975, 0.0860625, 0.998125, 0.14200000000000002, 192.0, 0.0, 0.0, 0.0, 0.0, 0.0, 0.0, 0.0, 0.0, 0.0, 1.7074746224636593E9, 0.0, 2024-02-09 11:30:22.463
136.0, -8005.858422024063, -14727.229145434994, 20740.809528924172, 705.1081305871166, 47446.785562847326, 20149.717646803576, 36629.18944706791, 11882.746146052617, 34423.452248984846, 4624.620631291942, 39795.87284277354, 28804.98365223213, 41950.44689779841, 36692.57899434317, 30997.80154202003, 25030.53397304225, 0.0860625, 0.998125, 0.14200000000000002, 192.0, 0.0, 0.0, 0.0, 0.0, 0.0, 0.0, 0.0, 0.0, 0.0, 1.7074746224717777E9, 0.0, 2024-02-09 11:30:22.471
138.0, -7920.832386116074, -14681.251607090428, 20786.228273657354, 667.065461524184, 47546.78726754037, 20176.18211223866, 36675.9045929795, 11919.492413937141, 34245.308845676045, 4701.063597329092, 39486.01060938962, 28763.051779633974, 41486.40233116178, 36508.73589619826, 30853.409272838748, 24859.654886681426, 0.08903125, 1.0070625, 0.137, 192.0, 1.0, 112.0, 15.5, 96.0, 2.0, 16.0, 0.0, 0.0, 0.0, 1.7074746224796472E9, 0.0, 2024-02-09 11:30:22.479
140.0, -7954.918796410418, -14708.76660451491, 20768.749209493304, 679.4930314413347, 47638.42941980713, 20173.745772093032, 36711.95795678592, 11955.165798087812, 34524.5491891562, 4821.964183087848, 39897.52857655628, 28833.012739779086, 42013.97055554039, 36712.919081797496, 31041.029815796595, 25042.62626679257, 0.08903125, 1.0070625, 0.137, 192.0, 0.0, 0.0, 0.0, 0.0, 0.0, 0.0, 0.0, 0.0, 0.0, 1.707474622486769E9, 0.0, 2024-02-09 11:30:22.486
142.0, -8000.784576032708, -14725.06102622283, 20751.091331373613, 688.1655082899938, 47390.32505635322, 20136.999504208507, 36590.967964049334, 11863.903625476793, 34223.73941227668, 4863.806648708182, 39529.14947618836, 28752.948791140177, 41594.674181303286, 36546.89032398347, 30882.131264463816, 24899.239826111774, 0.08903125, 1.0070625, 0.137, 192.0, 0.0, 0.0, 0.0, 0.0, 0.0, 0.0, 0.0, 0.0, 0.0, 1.7074746224957066E9, 0.0, 2024-02-09 11:30:22.495
144.0, -7900.9840370397615, -14691.220485117494, 20788.999889969815, 665.2326184788488, 47685.68100758565, 20230.161575098227, 36738.40007047654, 11998.259961397644, 34403.4697894418, 4939.534358922763, 39693.09952176804, 28788.08573342392, 41699.325048843035, 36630.5976069686, 30951.26521006408, 24954.247469216287, 0.08903125, 1.0070625, 0.137, 192.0, 0.0, 0.0, 0.0, 0.0, 0.0, 0.0, 0.0, 0.0, 0.0, 1.7074746225036838E9, 0.0, 2024-02-09 11:30:22.503
146.0, -8034.021620037749, -14765.294166242382, 20719.329502502624, 669.8147260921868, 47425.596109103695, 20143.9061932452, 36587.8834233145, 11868.373974367854, 34412.56694943511, 4953.414792229509, 39770.01187443875, 28770.964297171155, 41922.95425211838, 36646.95908390988, 30988.637326793356, 25029.10346139711, 0.08903125, 1.0070625, 0.137, 192.0, 0.0, 0.0, 0.0, 0.0, 0.0, 0.0, 0.0, 0.0, 0.0, 1.7074746225117629E9, 0.0, 2024-02-09 11:30:22.511
148.0, -7918.440749459357, -14683.57618851378, 20821.812250830204, 703.9458398754406, 47573.29643646436, 20221.15382208274, 36655.095118891615, 11934.803358889027, 34208.137894646876, 4996.508955539341, 39469.38091151487, 28738.442508988683, 41490.11272074136, 36522.258701593724, 30860.807700253452, 24858.939630858855, 0.08051562500000001, 1.01753125, 0.1345, 192.0, 1.0, 32.0, 16.0, 16.0, 2.0, 16.0, 0.0, 0.0, 0.0, 1.7074746225187645E9, 0.0, 2024-02-09 11:30:22.518
150.0, -7955.522293510711, -14708.923066726098, 20782.830808500148, 691.6970839139324, 47656.26611188246, 20210.961426611117, 36677.84919474712, 11977.763411732127, 34582.93194567346, 5194.813632346825, 39940.51098114383, 28877.604469967424, 42063.12204159761, 36729.88405583907, 31083.76635119514, 25074.879834041578, 0.08051562500000001, 1.01753125, 0.1345, 192.0, 0.0, 0.0, 0.0, 0.0, 0.0, 0.0, 0.0, 0.0, 0.0, 1.70747462252797E9, 0.0, 2024-02-09 11:30:22.527
152.0, -8028.791311835207, -14765.852959853764, 20727.979627606826, 654.0567462511952, 47359.99373912737, 20119.118108644263, 36534.46275406632, 11803.106880558358, 34178.343019287946, 5033.746961801882, 39502.75206598664, 28716.135468022287, 41541.32056728847, 36527.37725107399, 30863.713427032642, 24869.713171686315, 0.08051562500000001, 1.01753125, 0.1345, 192.0, 0.0, 0.0, 0.0, 0.0, 0.0, 0.0, 0.0, 0.0, 0.0, 1.7074746225357203E9, 0.0, 2024-02-09 11:30:22.535
154.0, -7907.063711531605, -14680.491647778947, 20806.858933789605, 653.386193917536, 47726.87527261678, 20228.842822175364, 36714.68486960946, 11925.952068084725, 34455.23642960029, 5098.164689322078, 39726.49302798427, 28792.712544526166, 41757.32782570455, 36651.69765373441, 30969.973620173172, 24935.427300384916, 0.08051562500000001, 1.01753125, 0.1345, 192.0, 0.0, 0.0, 0.0, 0.0, 0.0, 0.0, 0.0, 0.0, 0.0, 1.7074746225427587E9, 0.0, 2024-02-09 11:30:22.542
156.0, -8047.186797521926, -14769.026907566418, 20706.991339563294, 642.970281001363, 47430.848769050695, 20120.66037901168, 36581.93785928939, 11840.411942054265, 34379.08403624106, 5000.241696863377, 39764.28982785819, 28746.377378270314, 41905.49753969879, 36696.959936256404, 30985.776303503077, 25003.8012866737, 0.08051562500000001, 1.01753125, 0.1345, 192.0, 0.0, 0.0, 0.0, 0.0, 0.0, 0.0, 0.0, 0.0, 0.0, 1.7074746225517907E9, 0.0, 2024-02-09 11:30:22.551
158.0, -7904.292095219147, -14638.000981569408, 20845.259230763822, 750.2139508979262, 47632.61796624875, 20252.02158117552, 36717.3670789441, 11927.896669852338, 34283.619735672444, 5199.507498682439, 39501.14274038586, 28777.31219259646, 41586.22522189918, 36539.670710524406, 30892.88245354682, 24855.475110468284, 0.0702578125, 1.0167656250000001, 0.14024999999999999, 192.0, 0.5, 112.0, 15.5, 96.0, 2.0, 72.0, 0.0, 0.0, 0.0, 1.7074746225598257E9, 0.0, 2024-02-09 11:30:22.559
160.0, -7965.938206426884, -14733.10765422674, 20813.005663514814, 680.901191342019, 47690.93366753265, 20225.892391907262, 36723.55851215822, 11945.93452762777, 34599.271070870294, 5250.625938251726, 39974.01624608234, 28923.447897845257, 42147.499876916394, 36902.573633500775, 31140.808003045084, 25107.178104779498, 0.0702578125, 1.0167656250000001, 0.14024999999999999, 192.0, 0.0, 0.0, 0.0, 0.0, 0.0, 0.0, 0.0, 0.0, 0.0, 1.7074746225678082E9, 0.0, 2024-02-09 11:30:22.567
162.0, -8127.720132794397, -14903.405595231725, 20607.74959418173, 422.71619113876716, 47323.49334043185, 20012.589694570266, 36508.914710153906, 11752.770752045006, 34131.493762909624, 4398.06334949295, 39460.75313815512, 28512.06404114533, 41545.14271559033, 36311.682917080274, 30865.233345655604, 24822.506287396704, 0.0702578125, 1.0167656250000001, 0.14024999999999999, 192.0, 0.0, 0.0, 0.0, 0.0, 0.0, 0.0, 0.0, 0.0, 0.0, 1.7074746225748453E9, 0.0, 2024-02-09 11:30:22.574
164.0, -7842.534225289134, -14572.108038915163, 20887.101696384158, 779.6959018344762, 47798.46791010713, 20272.16050292975, 36773.55936450474, 11999.712824787239, 34292.783950899124, 5027.644935565583, 39633.9568059393, 28749.953657383165, 41668.94902812827, 36611.732734648314, 30919.77160212655, 24864.39345650595, 0.0702578125, 1.0167656250000001, 0.14024999999999999, 192.0, 0.0, 0.0, 0.0, 0.0, 0.0, 0.0, 0.0, 0.0, 0.0, 1.7074746225837839E9, 0.0, 2024-02-09 11:30:22.583
166.0, -8033.775750848741, -14778.816971637843, 20769.755037993793, 701.3083340297144, 47494.93122040406, 20179.020783784483, 36609.11758054705, 11864.283605132534, 34561.027236107264, 5205.095434796266, 39910.492588340356, 28939.496450364168, 42134.73703083242, 36917.14697088563, 31107.772124740142, 25088.82732258169, 0.0702578125, 1.0167656250000001, 0.14024999999999999, 192.0, 0.0, 0.0, 0.0, 0.0, 0.0, 0.0, 0.0, 0.0, 0.0, 1.7074746225918288E9, 0.0, 2024-02-09 11:30:22.591
168.0, -7961.914892424928, -14724.099901211252, 20758.1991861104, 605.4193503164471, 47543.523912849894, 20160.111207975293, 36634.68797620392, 11861.132009164336, 34242.246656685675, 4554.23498800218, 39472.06312084951, 28639.223115351575, 41528.960052604685, 36405.582595537024, 30875.805720782962, 24805.29544416612, 0.06612890625000001, 1.0153828125, 0.146125, 192.0, 0.5, 120.0, 15.5, 88.0, 2.0, 96.0, 0.0, 0.0, 0.0, 1.707474622599115E9, 0.0, 2024-02-09 11:30:22.599
170.0, -7965.62528200451, -14666.387697027649, 20768.1010089041, 677.7719471182761, 47676.0027022365, 20178.953728551118, 36696.043514733734, 11902.92977129576, 34500.78928480021, 4697.710835660796, 39886.777387473274, 28836.544315403025, 42048.43694549047, 36799.2862223728, 31050.864583356928, 25017.592313002624, 0.06612890625000001, 1.0153828125, 0.146125, 192.0, 0.0, 0.0, 0.0, 0.0, 0.0, 0.0, 0.0, 0.0, 0.0, 1.7074746226078465E9, 0.0, 2024-02-09 11:30:22.607
172.0, -8012.228669193825, -14703.58099980128, 20751.471311029352, 709.7349416893652, 47432.41339116256, 20183.222911742083, 36584.93299304641, 11809.901810872772, 34220.20783665274, 4690.066539057081, 39549.86954329843, 28789.806817746976, 41722.92849098784, 36678.095063936125, 30913.088430534415, 24898.59162552257, 0.06612890625000001, 1.0153828125, 0.146125, 192.0, 0.0, 0.0, 0.0, 0.0, 0.0, 0.0, 0.0, 0.0, 0.0, 1.7074746226158764E9, 0.0, 2024-02-09 11:30:22.615
174.0, -7877.760574550698, -14675.976595398975, 20873.869463666615, 691.5406217027452, 47799.02670371851, 20251.90982245324, 36779.527280274306, 11959.837312678972, 34540.93301784194, 4538.4323046722775, 39769.766005249745, 28841.484050927647, 41939.36043254858, 36727.40301220453, 31033.13965000387, 24973.76054212577, 0.06612890625000001, 1.0153828125, 0.146125, 192.0, 0.0, 0.0, 0.0, 0.0, 0.0, 0.0, 0.0, 0.0, 0.0, 1.7074746226229603E9, 0.0, 2024-02-09 11:30:22.622
176.0, -8031.674686869942, -14746.272831710916, 20727.130261317525, 653.2073799618936, 47470.43370848104, 20119.542791788914, 36597.762894363754, 11805.163241048247, 34400.653469640434, 4254.0957634563165, 39797.28100267422, 28730.90997110724, 42095.353257102164, 36710.952128285426, 31037.632350639386, 24989.13854231102, 0.06612890625000001, 1.0153828125, 0.146125, 192.0, 0.0, 0.0, 0.0, 0.0, 0.0, 0.0, 0.0, 0.0, 0.0, 1.7074746226309469E9, 0.0, 2024-02-09 11:30:22.630
178.0, -7869.5574843356, -14594.526838603835, 20880.440876536475, 773.7279860649093, 47628.28172782442, 20242.611496759833, 36699.08335197966, 11894.905495036304, 34372.400864648924, 4570.752927154652, 39546.1368019744, 28821.300425684505, 41650.598245930465, 36639.13597335052, 30906.62877638683, 24862.87353788299, 0.07006445312500001, 1.01769140625, 0.1510625, 192.0, 1.0, 40.0, 15.5, 112.0, 2.0, 112.0, 0.0, 0.0, 0.0, 1.707474622639946E9, 0.0, 2024-02-09 11:30:22.639
180.0, -7926.286211763169, -14669.740458695944, 20816.313721694198, 712.99829637984, 47708.14451076323, 20220.52797323799, 36721.70331736843, 11938.31258276851, 34659.19609775497, 4464.537437503032, 39991.24944105738, 28912.406136084337, 42255.74937531345, 36844.01206302787, 31122.948959225294, 25082.367668434104, 0.07006445312500001, 1.01769140625, 0.1510625, 192.0, 0.0, 0.0, 0.0, 0.0, 0.0, 0.0, 0.0, 0.0, 0.0, 1.7074746226469307E9, 0.0, 2024-02-09 11:30:22.646
182.0, -7995.598971319077, -14716.589715074268, 20752.410084296476, 680.6106186641, 47403.66904779304, 20158.83715854134, 36583.77070233473, 11826.084473858415, 34313.59342498701, 4207.246507077993, 39567.16979350684, 28731.558171696448, 41770.18007876636, 36609.40815322497, 30913.379003212336, 24898.390459822473, 0.07006445312500001, 1.01769140625, 0.1510625, 192.0, 0.0, 0.0, 0.0, 0.0, 0.0, 0.0, 0.0, 0.0, 0.0, 1.7074746226549668E9, 0.0, 2024-02-09 11:30:22.654
184.0, -7882.186219952849, -14646.069961317775, 20843.18051852948, 685.1480227885274, 47754.50202876354, 20244.19847061616, 36774.565193005226, 11963.905330169837, 34446.87687717401, 4229.55354804439, 39732.81857166512, 28805.341280143417, 41895.26044073825, 36664.393444585025, 30990.5148733276, 24944.815033056144, 0.07006445312500001, 1.01769140625, 0.1510625, 192.0, 0.0, 0.0, 0.0, 0.0, 0.0, 0.0, 0.0, 0.0, 0.0, 1.7074746226630268E9, 0.0, 2024-02-09 11:30:22.663
186.0, -7995.800137019174, -14698.283636365371, 20771.699639761406, 722.900119173541, 47488.67273195657, 20162.927527776665, 36642.82401118565, 11833.527604762032, 34505.05846799117, 4225.619641020256, 39855.79786965822, 28838.108937514895, 42158.80985961078, 36789.585565279194, 31053.05505431355, 25036.323074856173, 0.07006445312500001, 1.01769140625, 0.1510625, 192.0, 0.0, 0.0, 0.0, 0.0, 0.0, 0.0, 0.0, 0.0, 0.0, 1.707474622672006E9, 0.0, 2024-02-09 11:30:22.672
188.0, -7914.1268627794825, -14659.27984229086, 20826.50611716582, 699.6543049400217, 47586.21574475953, 20216.638769702768, 36696.73641881185, 11898.906457293804, 34308.96661388476, 4157.647986131667, 39531.11642970043, 28781.26845136505, 41694.16179587386, 36602.00972581026, 30908.752192110085, 24868.796750163645, 0.0810322265625, 1.015845703125, 0.15753125, 192.0, 1.0, 112.0, 15.5, 88.0, 2.5, 16.0, 0.0, 0.0, 0.0, 1.707474622679007E9, 0.0, 2024-02-09 11:30:22.679
190.0, -7941.9547846263395, -14693.656825263122, 20791.145657437522, 688.1208048010832, 47684.8539930408, 20213.800098156942, 36730.97929131738, 11941.441826992253, 34593.45961731191, 4152.484733162491, 39945.517771901825, 28851.497632443625, 42242.74066004046, 36830.846885543695, 31096.618604256942, 25062.00522923532, 0.0810322265625, 1.015845703125, 0.15753125, 192.0, 0.0, 0.0, 0.0, 0.0, 0.0, 0.0, 0.0, 0.0, 0.0, 1.7074746226870217E9, 0.0, 2024-02-09 11:30:22.687
192.0, -7999.287009154202, -14715.315665640315, 20767.430456570444, 698.514365972801, 47406.28420189431, 20162.81576905439, 36597.87465308603, 11819.937744133204, 34278.7917588701, 4052.1030488137067, 39565.426357439326, 28741.92938112371, 41804.28884080516, 36609.45285671388, 30913.088430534415, 24899.619805767514, 0.0810322265625, 1.015845703125, 0.15753125, 192.0, 0.0, 0.0, 0.0, 0.0, 0.0, 0.0, 0.0, 0.0, 0.0, 1.7074746226970499E9, 0.0, 2024-02-09 11:30:22.697
194.0, -7885.5613333656, -14660.397429513627, 20840.543012683753, 688.7913571347425, 47747.55063623794, 20254.502624810055, 36772.44177728197, 11970.096763383957, 34463.05954015965, 4098.617029025201, 39735.433725766394, 28822.909751285286, 41933.07959235663, 36734.779087874784, 31002.584815333466, 24961.824710586636, 0.0810322265625, 1.015845703125, 0.15753125, 192.0, 0.0, 0.0, 0.0, 0.0, 0.0, 0.0, 0.0, 0.0, 0.0, 1.7074746227040226E9, 0.0, 2024-02-09 11:30:22.704
196.0, -8020.297648942191, -14735.6781048391, 20746.620982482553, 698.7825869062647, 47465.06928981177, 20166.593213867334, 36620.271101030245, 11857.756895751583, 34469.96622919634, 4052.863008125187, 39821.3985349415, 28799.37336437385, 42143.610673381176, 36765.64684696756, 31038.682882628786, 25037.395958590027, 0.0810322265625, 1.015845703125, 0.15753125, 192.0, 0.0, 0.0, 0.0, 0.0, 0.0, 0.0, 0.0, 0.0, 0.0, 1.707474622711023E9, 0.0, 2024-02-09 11:30:22.711
198.0, -7930.71185716532, -14685.029051903375, 20811.44104140294, 686.7349966448542, 47576.00099754346, 20214.42594700169, 36682.31954363818, 11887.574122854963, 34265.82774708602, 4019.067170508763, 39486.30118206754, 28752.702921951168, 41655.493277966176, 36588.35280994807, 30894.73764833661, 24870.562537975617, 0.0810322265625, 1.015845703125, 0.15753125, 192.0, 0.0, 0.0, 0.0, 0.0, 0.0, 0.0, 0.0, 0.0, 0.0, 1.707474622719052E9, 0.0, 2024-02-09 11:30:22.719
200.0, -7954.561168499133, -14713.393415617158, 20787.994061469326, 683.0022553208179, 47676.58384759234, 20215.297665035447, 36724.00554704732, 11940.972440358692, 34575.913497914495, 4066.3411100317376, 39909.24089065086, 28839.27122822657, 42202.596926998725, 36815.02185046933, 31088.77314195313, 25064.06158972521, 0.084, 1.02, 0.158, 192.0, 1.0, 80.0, 15.5, 112.0, 2.0, 120.0, 0.0, 0.0, 0.0, 1.7074746227280307E9, 0.0, 2024-02-09 11:30:22.728
202.0, -8009.479404625822, -14737.399189162159, 20761.3507820786, 688.2996187567256, 47387.486384807395, 20154.433864883646, 36573.62301035202, 11802.771604391528, 34265.06778777454, 3987.6853212935116, 39540.101830971464, 28730.10530830685, 41768.01195955419, 36594.700705373376, 30907.25462523158, 24903.576064536104, 0.084, 1.02, 0.158, 192.0, 0.0, 0.0, 0.0, 0.0, 0.0, 0.0, 0.0, 0.0, 0.0, 1.70747462273534E9, 0.0, 2024-02-09 11:30:22.735
204.0, -7897.675978860377, -14682.056269890818, 20839.60423941663, 678.3754442185693, 47734.27370003149, 20253.58620328739, 36753.28633228378, 11963.860626680926, 34445.7816416957, 4052.7512494029106, 39707.00230681924, 28810.906864512788, 41885.224507477826, 36703.48664563736, 30988.950251215727, 24951.65466685947, 0.084, 1.02, 0.158, 192.0, 0.0, 0.0, 0.0, 0.0, 0.0, 0.0, 0.0, 0.0, 0.0, 1.7074746227430484E9, 0.0, 2024-02-09 11:30:22.743
206.0, -8044.102256787093, -14774.033698324407, 20728.605476451576, 669.8594295810974, 47430.73701032842, 20147.884803758243, 36588.9339553039, 11843.00474441108, 34444.61935098402, 4011.892260538609, 39800.92433702044, 28780.284974609018, 42090.52528029982, 36724.83256159217, 31027.059975512027, 25018.62049324757, 0.084, 1.02, 0.158, 192.0, 0.0, 0.0, 0.0, 0.0, 0.0, 0.0, 0.0, 0.0, 0.0, 1.7074746227510648E9, 0.0, 2024-02-09 11:30:22.751
208.0, -7946.782761428686, -14719.160165686628, 20793.3584801386, 662.7068713553991, 47531.65513654413, 20197.14804853774, 36652.16704036797, 11882.321462907967, 34236.72577580521, 3982.6561787910678, 39457.46743172019, 28724.226799515105, 41560.65482624231, 36531.73584124277, 30863.042874698986, 24829.994121789234, 0.084, 1.02, 0.158, 192.0, 0.0, 0.0, 0.0, 0.0, 0.0, 0.0, 0.0, 0.0, 0.0, 1.7074746227591178E9, 0.0, 2024-02-09 11:30:22.759
210.0, -7960.462029035334, -14727.430311135091, 20794.87839876156, 674.5532959167118, 47683.6022953513, 20221.75731918303, 36722.79855284674, 11951.83538816397, 34562.010712863295, 4054.8523133817093, 39900.5684138022, 28823.870876296864, 42143.63302512563, 36768.17259409101, 31082.96168839475, 25043.319170870684, 0.076, 1.014, 0.16, 192.0, 1.0, 48.0, 15.5, 88.0, 2.5, 0.0, 0.0, 0.0, 0.0, 1.7074746227670977E9, 0.0, 2024-02-09 11:30:22.767
212.0, -8051.858312113084, -14776.246521025483, 20720.20122053638, 648.4464583929132, 47339.832465628686, 20134.27259138496, 36551.11480368552, 11796.960150833149, 34238.759784550646, 3988.6911497940005, 39527.20487442075, 28707.954729551642, 41683.56706900204, 36521.85637019353, 30899.02918327203, 24877.53628224567, 0.076, 1.014, 0.16, 192.0, 0.0, 0.0, 0.0, 0.0, 0.0, 0.0, 0.0, 0.0, 0.0, 1.7074746227751367E9, 0.0, 2024-02-09 11:30:22.775
214.0, -7905.722606864287, -14700.09412766625, 20830.328265467677, 636.8682547650641, 47742.94617688015, 20242.119758381818, 36761.69058819897, 11953.377658531388, 34384.42610316588, 4091.6209330106894, 39672.40180640243, 28771.07605589343, 41792.04008484365, 36580.88732729999, 30964.206870103702, 24917.27768388721, 0.076, 1.014, 0.16, 192.0, 0.0, 0.0, 0.0, 0.0, 0.0, 0.0, 0.0, 0.0, 0.0, 1.7074746227841473E9, 0.0, 2024-02-09 11:30:22.784
216.0, -8036.569718905655, -14769.719811644532, 20743.58114523663, 657.3424526861254, 47483.82240340977, 20150.03057122595, 36630.1952755684, 11845.284622345522, 34477.87874673352, 4147.992032526974, 39810.513235391765, 28749.148994582774, 42082.85863195165, 36547.44911759486, 31046.05895829904, 24996.022879603253, 0.076, 1.014, 0.16, 192.0, 0.0, 0.0, 0.0, 0.0, 0.0, 0.0, 0.0, 0.0, 0.0, 1.707474622791118E9, 0.0, 2024-02-09 11:30:22.791
218.0, -7942.200653815348, -14697.993063687452, 20815.442003660442, 681.6387989090442, 47579.823145845316, 20211.207295800126, 36690.99202048684, 11883.64021583083, 34251.612037612445, 4487.5373825475435, 39474.588867972954, 28751.227706817117, 41557.74909946312, 36486.07122732058, 30897.308098948968, 24842.466395195293, 0.076, 1.014, 0.16, 192.0, 0.0, 0.0, 0.0, 0.0, 0.0, 0.0, 0.0, 0.0, 0.0, 1.7074746227992723E9, 0.0, 2024-02-09 11:30:22.799
220.0, -7969.402726817457, -14742.20481422005, 20777.10876191959, 616.5058155662794, 47674.92981850265, 20179.46781867359, 36722.37386970209, 11933.439902477254, 34533.758107871785, 4508.056283957516, 39880.80947170371, 28789.51624506906, 42075.95194291496, 36558.982617733796, 31075.42915051331, 25027.158859629497, 0.092, 1.024, 0.156, 192.0, 1.0, 112.0, 16.0, 0.0, 2.0, 112.0, 0.0, 0.0, 0.0, 1.7074746228072336E9, 0.0, 2024-02-09 11:30:22.807
222.0, -8012.228669193825, -14713.572229572801, 20782.45082884441, 745.6318432845883, 47400.74096926939, 20207.00516784253, 36578.42863540991, 11841.86480544386, 34273.561450667556, 4674.6661871273745, 39551.92590378832, 28756.92740165322, 41735.26665392717, 36565.01758873673, 30924.241951017615, 24909.25340762775, 0.092, 1.024, 0.156, 192.0, 0.0, 0.0, 0.0, 0.0, 0.0, 0.0, 0.0, 0.0, 0.0, 1.7074746228151636E9, 0.0, 2024-02-09 11:30:22.815
224.0, -7903.934467307862, -14679.798743700832, 20835.536221925762, 684.097490799128, 47726.137665049755, 20270.573529073423, 36756.30381778524, 11995.80126950756, 34410.8235133676, 4725.65051622993, 39702.8225306061, 28819.691100083724, 41798.63384945796, 36619.60054869659, 30989.88902448285, 24958.449597173883, 0.092, 1.024, 0.156, 192.0, 0.0, 0.0, 0.0, 0.0, 0.0, 0.0, 0.0, 0.0, 0.0, 1.707474622823472E9, 0.0, 2024-02-09 11:30:22.823
226.0, -8051.612442924076, -14756.755799860455, 20705.29260698469, 652.8050485616981, 47436.012022019866, 20163.776894065966, 36602.81438861065, 11861.064953930969, 34423.36284200702, 4651.152151960391, 39799.963212008865, 28766.248079091085, 42028.096858036144, 36580.57440287762, 31028.445783668256, 25005.43296401894, 0.092, 1.024, 0.156, 192.0, 0.0, 0.0, 0.0, 0.0, 0.0, 0.0, 0.0, 0.0, 0.0, 1.707474622831169E9, 0.0, 2024-02-09 11:30:22.831
228.0, -7950.917834152918, -14702.686930023066, 20772.88428221754, 645.3619176580809, 47515.60658402522, 20195.941054337152, 36667.36622659758, 11861.44493358671, 34207.8249702245, 4666.35133819, 39439.54133266704, 28710.703994119645, 41480.05443573647, 36428.00139522569, 30856.605572295855, 24809.989310501733, 0.092, 1.024, 0.156, 192.0, 0.0, 0.0, 0.0, 0.0, 0.0, 0.0, 0.0, 0.0, 0.0, 1.7074746228402164E9, 0.0, 2024-02-09 11:30:22.840
230.0, -7941.798322415152, -14708.230162647984, 20790.67627080396, 668.9653598028851, 47724.43893247115, 20222.919609894707, 36758.762509675325, 11948.46027475122, 34588.81045446521, 4755.825371244594, 39903.16121615902, 28823.155620474296, 42100.538861815796, 36691.372000142575, 31085.800359940575, 25033.95378994391, 0.094, 1.014, 0.16, 192.0, 1.0, 120.0, 15.5, 88.0, 2.5, 0.0, 0.0, 0.0, 0.0, 1.707474622846209E9, 0.0, 2024-02-09 11:30:22.846
232.0, -8017.749550074286, -14760.533244673401, 20772.68311651744, 669.0547667807064, 47434.78267607483, 20149.829405525852, 36597.829949597115, 11822.999933123581, 34295.77908465613, 4744.783609483673, 39568.421491196335, 28751.294762050482, 41766.33557872005, 36521.05170739314, 30940.916352381275, 24906.34768084856, 0.094, 1.014, 0.16, 192.0, 0.0, 0.0, 0.0, 0.0, 0.0, 0.0, 0.0, 0.0, 0.0, 1.7074746228552356E9, 0.0, 2024-02-09 11:30:22.855
234.0, -7992.737948028797, -14798.754727691976, 20705.583179662608, 485.97162794728615, 47690.1066529878, 20145.113187445782, 36717.88116906657, 11936.41268448981, 34325.149276870405, 4551.016336800616, 39619.60698599899, 28710.16755225272, 41722.52615958764, 36460.657293874894, 30946.303122795, 24893.07074464211, 0.094, 1.014, 0.16, 192.0, 0.0, 0.0, 0.0, 0.0, 0.0, 0.0, 0.0, 0.0, 0.0, 1.707474622863376E9, 0.0, 2024-02-09 11:30:22.863
236.0, -8000.382244632512, -14715.762700529422, 20750.979572651337, 720.1955580944489, 47499.87095592868, 20169.99067902454, 36617.410077739965, 11870.609148813386, 34327.183285615836, 4576.005587101649, 39724.79429540566, 28649.504917801016, 42021.27957597728, 36439.557247109085, 30985.530434314067, 24938.04245448619, 0.094, 1.014, 0.16, 192.0, 0.0, 0.0, 0.0, 0.0, 0.0, 0.0, 0.0, 0.0, 0.0, 1.707474622871256E9, 0.0, 2024-02-09 11:30:22.871
238.0, -7911.936391822862, -14666.90178715012, 20837.056140548724, 736.4676280579124, 47583.93586682509, 20256.15665389975, 36675.18933715693, 11906.953085297715, 34389.92463230189, 4910.320628919677, 39531.854037267454, 28839.89707707132, 41632.11335326593, 36689.53915709724, 30903.320718207447, 24882.74423870376, 0.094, 1.014, 0.16, 192.0, 0.0, 0.0, 0.0, 0.0, 0.0, 0.0, 0.0, 0.0, 0.0, 1.7074746228793056E9, 0.0, 2024-02-09 11:30:22.879
240.0, -7980.1092124115485, -14750.407904435147, 20768.05630541519, 613.8236062316425, 47681.56828660587, 20193.57176942489, 36711.55562538572, 11936.323277511989, 34593.77254173429, 4720.6884289608515, 39920.12619020059, 28844.725053873666, 42143.43185942553, 36726.687756381965, 31084.705124462263, 25049.354141873617, 0.096, 1.014, 0.166, 192.0, 1.5, 0.0, 15.5, 88.0, 2.5, 24.0, 0.0, 0.0, 0.0, 1.707474622887384E9, 0.0, 2024-02-09 11:30:22.887
242.0, -8022.264602454258, -14757.024020793919, 20745.279877815232, 642.165618200972, 47400.02571344683, 20146.342533390827, 36584.57536513512, 11838.623802497841, 34189.47418802669, 4380.114898695338, 39500.42748456329, 28620.917036642677, 41682.98592364621, 36392.372714563935, 30884.45584588717, 24844.72392138528, 0.096, 1.014, 0.166, 192.0, 0.0, 0.0, 0.0, 0.0, 0.0, 0.0, 0.0, 0.0, 0.0, 1.707474622896336E9, 0.0, 2024-02-09 11:30:22.896
244.0, -7914.28332499067, -14731.72184607051, 20803.88615177705, 624.3065743811816, 47727.14349355024, 20237.470595535113, 36755.99089336287, 11963.70416446974, 34457.002217412264, 4417.3305532134245, 39684.09176875255, 28756.6368289753, 41812.089599620056, 36531.24410286476, 30984.56930930249, 24933.75091955077, 0.096, 1.014, 0.166, 192.0, 0.0, 0.0, 0.0, 0.0, 0.0, 0.0, 0.0, 0.0, 0.0, 1.7074746229023385E9, 0.0, 2024-02-09 11:30:22.902
246.0, -8072.779544923252, -14791.132782832718, 20697.290682469687, 588.9014111639751, 47444.05865002378, 20113.306655085882, 36596.13121701851, 11818.820156910439, 34400.38524870697, 4453.540379231022, 39770.4365575834, 28708.513523163027, 42016.18337824147, 36651.07180488966, 31008.32921365848, 24983.483550963825, 0.096, 1.014, 0.166, 192.0, 0.0, 0.0, 0.0, 0.0, 0.0, 0.0, 0.0, 0.0, 0.0, 1.70747462291133E9, 0.0, 2024-02-09 11:30:22.911
248.0, -7949.822598674607, -14725.597468089756, 20818.83946881765, 666.8866475685415, 47565.54038113837, 20204.457068974625, 36657.956142181894, 11888.378785655355, 34160.61808593489, 4382.037148718494, 39463.681216678764, 28712.06745053142, 41637.2766062351, 36498.1635210709, 30877.705619061664, 24806.547141855615, 0.096, 1.014, 0.166, 192.0, 0.0, 0.0, 0.0, 0.0, 0.0, 0.0, 0.0, 0.0, 0.0, 1.707474622919312E9, 0.0, 2024-02-09 11:30:22.919
250.0, -7938.199691557848, -14720.613029076223, 20795.616006328586, 686.6455896670329, 47710.58085090886, 20233.402578044246, 36737.21542802041, 11946.001582861136, 34594.018410923294, 4243.143408673216, 39892.74530324284, 28759.900183665777, 42171.840926628225, 36731.24751225085, 31065.81790039753, 25028.09763289662, 0.094, 1.014, 0.168, 192.0, 1.0, 120.0, 15.5, 88.0, 2.5, 32.0, 0.0, 0.0, 0.0, 1.7074746229273329E9, 0.0, 2024-02-09 11:30:22.927
252.0, -7984.981892702805, -14684.582017014269, 20762.557776279187, 696.5250607162786, 47393.81192848825, 20171.331783691858, 36580.350885433065, 11824.29633430199, 34371.59620184853, 4546.210711742725, 39609.12401784945, 28830.956379289197, 41804.825282672085, 36662.94058119543, 30942.279808793046, 24935.874335274024, 0.094, 1.014, 0.168, 192.0, 0.0, 0.0, 0.0, 0.0, 0.0, 0.0, 0.0, 0.0, 0.0, 1.707474622934332E9, 0.0, 2024-02-09 11:30:22.934
254.0, -7963.613625003532, -14715.025092962396, 20729.074863085138, 590.5107367647573, 47662.05521369639, 20182.619414641787, 36685.918174495484, 11910.350550454921, 34409.08007730008, 4275.195810222127, 39648.887771235444, 28749.484270749603, 41759.093613516525, 36561.95539974635, 30922.87849460584, 24882.699535214848, 0.094, 1.014, 0.168, 192.0, 0.0, 0.0, 0.0, 0.0, 0.0, 0.0, 0.0, 0.0, 0.0, 1.7074746229435391E9, 0.0, 2024-02-09 11:30:22.943
0.0, -7989.228724149314, -14742.338924686781, 20792.21854117138, 694.513403715301, 47500.02741813987, 20173.186978481648, 36623.556807465175, 11879.661605317784, 34403.04510629715, 4150.7860005838875, 39788.273249658734, 28734.486250220092, 42102.058780438754, 36673.84823248962, 30995.18638791876, 24980.98015558483, 0.094, 1.014, 0.168, 192.0, 0.0, 0.0, 0.0, 0.0, 0.0, 0.0, 0.0, 0.0, 0.0, 1.7074746229503715E9, 0.0, 2024-02-09 11:30:22.950
2.0, -7896.759557337708, -14660.978574869463, 20875.16586484502, 709.578479478178, 47610.221518304534, 20233.46963327761, 36686.07463670667, 11914.418567945788, 34403.22392025279, 4174.6353119177, 39549.78013632061, 28783.83890197741, 41687.70214172627, 36585.5364901467, 30928.242913275113, 24870.048447853143, 0.094, 1.014, 0.168, 192.0, 0.0, 0.0, 0.0, 0.0, 0.0, 0.0, 0.0, 0.0, 0.0, 1.707474622958396E9, 0.0, 2024-02-09 11:30:22.958
4.0, -7922.039380316661, -14688.404165316126, 20810.68108209146, 683.4939936988346, 47727.881101117266, 20226.875868663297, 36744.81502113522, 11953.847045164948, 34672.56244093924, 4309.930421105673, 39963.399167466065, 28879.57142347949, 42235.20812215902, 36745.820849635704, 31116.53400856662, 25051.365798874594, 0.084, 1.012, 0.17, 192.0, 1.0, 80.0, 15.5, 80.0, 2.5, 40.0, 0.0, 0.0, 0.0, 1.7074746229673803E9, 0.0, 2024-02-09 11:30:22.967
6.0, -8044.415181209467, -14771.507951200958, 20713.85332511107, 629.6262895615447, 47386.90523945156, 20124.527230802447, 36568.03507423819, 11791.171049019224, 34240.570275851525, 4043.0729440537625, 39527.6295575654, 28695.504807890036, 41760.23355248375, 36535.91561745592, 30894.178854725225, 24863.678200683382, 0.084, 1.012, 0.17, 192.0, 0.0, 0.0, 0.0, 0.0, 0.0, 0.0, 0.0, 0.0, 0.0, 1.707474622975423E9, 0.0, 2024-02-09 11:30:22.975
8.0, -7857.979280707751, -14647.142845051629, 20847.673219164993, 641.4503623784021, 47780.810031987436, 20238.63288624679, 36776.39803605057, 11987.687586270284, 34510.8475698051, 4107.557726807324, 39708.07519055309, 28775.211128617662, 41896.78035936122, 36634.30799654818, 30988.257347137613, 24917.50120133176, 0.084, 1.012, 0.17, 192.0, 0.0, 0.0, 0.0, 0.0, 0.0, 0.0, 0.0, 0.0, 0.0, 1.7074746229824393E9, 0.0, 2024-02-09 11:30:22.982
10.0, -8000.114023699049, -14735.856918794743, 20767.765732737273, 705.6669241984993, 47518.579366037775, 20164.89448128873, 36627.06603134466, 11868.217512156667, 34531.14295377051, 4098.438215069558, 39854.769689413275, 28816.47244888216, 42162.81082186828, 36759.79068992027, 31052.317446746525, 25026.398900318018, 0.084, 1.012, 0.17, 192.0, 0.0, 0.0, 0.0, 0.0, 0.0, 0.0, 0.0, 0.0, 0.0, 1.707474622990444E9, 0.0, 2024-02-09 11:30:22.990
12.0, -7920.385351226968, -14694.349729341237, 20831.915239324004, 683.8516216101195, 47583.51118368044, 20218.136336581272, 36676.5080900798, 11905.522573652575, 34309.03366911813, 4011.892260538609, 39501.70153399724, 28746.22091605913, 41666.15506007136, 36537.54729480115, 30890.759037823565, 24846.86968885299, 0.084, 1.012, 0.17, 192.0, 0.0, 0.0, 0.0, 0.0, 0.0, 0.0, 0.0, 0.0, 0.0, 1.7074746229994748E9, 0.0, 2024-02-09 11:30:22.999
14.0, -7933.371714755502, -14716.00856971843, 20808.110631479103, 656.515438141279, 47723.8130836264, 20212.10136557834, 36735.22612276389, 11964.978213903692, 34616.3701553786, 4047.5432929448243, 39926.4740856259, 28835.046748524517, 42203.26747933239, 36772.30766681524, 31089.44369428679, 25048.594182562138, 0.084, 1.014, 0.17200000000000001, 192.0, 1.0, 80.0, 15.5, 88.0, 2.5, 48.0, 0.0, 0.0, 0.0, 1.7074746230064805E9, 0.0, 2024-02-09 11:30:23.006
16.0, -8005.880773768517, -14741.154282230651, 20765.217633869368, 669.6582638809996, 47420.43285613452, 20146.588402579833, 36584.2847924572, 11830.174843093735, 34310.330070296535, 3949.106210363652, 39577.1386715339, 28724.852648359854, 41810.636736230466, 36544.85631523804, 30921.35857598288, 24890.902625429946, 0.084, 1.014, 0.17200000000000001, 192.0, 0.0, 0.0, 0.0, 0.0, 0.0, 0.0, 0.0, 0.0, 0.0, 1.7074746230144775E9, 0.0, 2024-02-09 11:30:23.014
18.0, -7886.231885699259, -14676.803609943821, 20846.913259853514, 667.8030690912091, 47770.50587779354, 20253.787368987487, 36765.24451556736, 11986.145315902868, 34451.43663304289, 3997.453033620481, 39701.7719986167, 28794.590091060414, 41870.3829491595, 36641.48290651833, 30987.251518637124, 24930.35345439356, 0.084, 1.014, 0.17200000000000001, 192.0, 0.0, 0.0, 0.0, 0.0, 0.0, 0.0, 0.0, 0.0, 0.0, 1.7074746230235195E9, 0.0, 2024-02-09 11:30:23.023
20.0, -8011.8039860491745, -14751.659602124644, 20762.311907090178, 678.0401680517398, 47498.373389050175, 20167.062600500896, 36621.254577786276, 11849.330288091933, 34510.71345933837, 4029.1478072581062, 39845.672529419964, 28799.03808820702, 42148.37159495016, 36755.43209975149, 31054.977304336706, 25030.019882919776, 0.084, 1.014, 0.17200000000000001, 192.0, 0.0, 0.0, 0.0, 0.0, 0.0, 0.0, 0.0, 0.0, 0.0, 1.7074746230317807E9, 0.0, 2024-02-09 11:30:23.031
22.0, -7935.740999667764, -14710.063005693319, 20818.168916483988, 662.6398161220332, 47581.633637146195, 20214.023615601494, 36664.99694168531, 11891.530381623554, 34280.915174593356, 3980.622170045635, 39484.110711110916, 28733.34631125287, 41630.884007320885, 36537.9719779458, 30889.708505834165, 24841.885249839455, 0.084, 1.014, 0.17200000000000001, 192.0, 0.0, 0.0, 0.0, 0.0, 0.0, 0.0, 0.0, 0.0, 0.0, 1.70747462303852E9, 0.0, 2024-02-09 11:30:23.038
24.0, -7942.513578237722, -14730.313686169826, 20793.090259205135, 649.1840659599384, 47710.51379567549, 20213.040138845463, 36719.60225338963, 11939.787797902562, 34597.75115224733, 4031.450036937003, 39908.19035866146, 28817.299463427004, 42170.56687719427, 36748.61481769262, 31082.022915127625, 25036.077205667163, 0.084, 1.012, 0.17200000000000001, 192.0, 1.0, 80.0, 15.5, 80.0, 2.5, 48.0, 0.0, 0.0, 0.0, 1.707474623046534E9, 0.0, 2024-02-09 11:30:23.046
26.0, -8012.362779660557, -14756.44287543808, 20760.412008811476, 669.904133070008, 47407.31238213926, 20162.078161487363, 36558.64734156696, 11819.870688899839, 34304.049230104596, 3971.972044941431, 39558.87729631392, 28716.604854655845, 41785.379264995965, 36579.926202288414, 30914.83186660193, 24891.26025334123, 0.084, 1.012, 0.17200000000000001, 192.0, 0.0, 0.0, 0.0, 0.0, 0.0, 0.0, 0.0, 0.0, 0.0, 1.7074746230557375E9, 0.0, 2024-02-09 11:30:23.055
28.0, -7890.076385745572, -14696.204924131027, 20839.22425976089, 652.7603450727875, 47746.477752504084, 20256.71544751113, 36743.60802693463, 11978.70218499925, 34449.313217319635, 4033.8640253381764, 39687.824510076585, 28794.567739315957, 41837.77175399921, 36653.30697933519, 30976.857957465407, 24922.26212290074, 0.084, 1.012, 0.17200000000000001, 192.0, 0.0, 0.0, 0.0, 0.0, 0.0, 0.0, 0.0, 0.0, 0.0, 1.707474623062514E9, 0.0, 2024-02-09 11:30:23.062
30.0, -8023.270430954747, -14776.671204170134, 20747.246831327302, 645.6748420804552, 47479.977903363455, 20145.202594423605, 36589.89508031548, 11852.750104993595, 34480.292735134695, 4025.3480107007044, 39830.227474001345, 28769.93611692621, 42096.85082398067, 36688.53332859675, 31038.5264204176, 25011.646748977513, 0.084, 1.012, 0.17200000000000001, 192.0, 0.0, 0.0, 0.0, 0.0, 0.0, 0.0, 0.0, 0.0, 0.0, 1.707474623070562E9, 0.0, 2024-02-09 11:30:23.070
32.0, -7943.318241038113, -14726.312723912326, 20812.089241992147, 647.9547200148965, 47557.292587434364, 20199.785554383463, 36659.74428173832, 11896.537172381542, 34251.38852016789, 4017.9495832859975, 39467.50336498063, 28711.82158134241, 41562.75589022111, 36489.893375622436, 30871.782406781007, 24819.466450150783, 0.084, 1.012, 0.17200000000000001, 192.0, 0.0, 0.0, 0.0, 0.0, 0.0, 0.0, 0.0, 0.0, 0.0, 1.7074746230785728E9, 0.0, 2024-02-09 11:30:23.078
34.0, -7973.135468141493, -14757.560462660846, 20755.53932852022, 599.8314142026203, 47662.47989684104, 20174.639841871245, 36685.69465705093, 11919.671227892784, 34556.10985232709, 4095.1301568901727, 39889.25843110782, 28795.12653292734, 42081.56223077324, 36717.90352081103, 31064.163871307836, 25010.775030943758, 0.09, 1.014, 0.168, 192.0, 1.0, 104.0, 15.5, 88.0, 2.5, 32.0, 0.0, 0.0, 0.0, 1.7074746230876126E9, 0.0, 2024-02-09 11:30:23.087
36.0, -8018.688323341409, -14748.575061389813, 20756.67926748744, 667.4230894354689, 47394.6389430331, 20161.27349868697, 36580.59675462208, 11814.282752786012, 34252.64021785739, 4132.122293963706, 39533.955101246254, 28697.896444546754, 41668.94902812827, 36507.4171432754, 30881.483063874613, 24850.468319710293, 0.09, 1.014, 0.168, 192.0, 0.0, 0.0, 0.0, 0.0, 0.0, 0.0, 0.0, 0.0, 0.0, 1.707474623094707E9, 0.0, 2024-02-09 11:30:23.094
38.0, -7891.305731690613, -14680.737516967954, 20846.957963342426, 655.7554788297986, 47748.578816482885, 20250.032275918995, 36762.830527166196, 11961.60310049094, 34452.06248188764, 4269.518467130479, 39700.56500441611, 28802.547312086503, 41803.640640215956, 36654.469270046866, 30992.12419892838, 24919.26698914373, 0.09, 1.014, 0.168, 192.0, 0.0, 0.0, 0.0, 0.0, 0.0, 0.0, 0.0, 0.0, 0.0, 1.7074746231026464E9, 0.0, 2024-02-09 11:30:23.102
40.0, -8032.948736303894, -14774.726602402521, 20729.67836018543, 646.5242083697568, 47475.70872017249, 20156.64668758472, 36611.37510673703, 11840.501349032087, 34476.26942113274, 4250.586539576833, 39822.71728786436, 28764.750512212577, 42036.61287267362, 36655.49745029181, 31039.44284194027, 24996.022879603253, 0.09, 1.014, 0.168, 192.0, 0.0, 0.0, 0.0, 0.0, 0.0, 0.0, 0.0, 0.0, 0.0, 1.7074746231116278E9, 0.0, 2024-02-09 11:30:23.111
42.0, -7942.558281726633, -14714.600409817745, 20801.382756398056, 668.0712900246727, 47550.18473269758, 20219.924476137698, 36667.321523108665, 11872.419640114265, 34229.304996646046, 4295.759415121009, 39451.99125432864, 28721.030500057997, 41477.68515082421, 36522.48221903828, 30864.026351455017, 24813.72205182577, 0.09, 1.014, 0.168, 192.0, 0.0, 0.0, 0.0, 0.0, 0.0, 0.0, 0.0, 0.0, 0.0, 1.7074746231186435E9, 0.0, 2024-02-09 11:30:23.118
44.0, -7938.0208776022055, -14717.930819741587, 20802.276826176265, 669.7476708588208, 47718.29220274594, 20230.027464631494, 36751.40878574953, 11943.140559570857, 34574.438282780444, 4354.097468149361, 39914.80647502023, 28824.69789084171, 42081.22695460641, 36734.712032641415, 31082.671115716832, 25034.311417855195, 0.094, 1.0150000000000001, 0.168, 192.0, 1.5, 8.0, 15.5, 96.0, 2.5, 32.0, 0.0, 0.0, 0.0, 1.707474623126662E9, 0.0, 2024-02-09 11:30:23.126
46.0, -8013.390959905501, -14752.173692247117, 20757.238061098822, 681.8623163535973, 47387.82166097423, 20162.212271954093, 36590.5879843936, 11825.503328502577, 34285.29611650659, 4330.404619026735, 39576.87045060044, 28738.643674688778, 41709.76331350367, 36551.137155429984, 30924.957206840183, 24907.711137260336, 0.094, 1.0150000000000001, 0.168, 192.0, 0.0, 0.0, 0.0, 0.0, 0.0, 0.0, 0.0, 0.0, 0.0, 1.707474623134712E9, 0.0, 2024-02-09 11:30:23.134
48.0, -7896.446632915335, -14690.14760138364, 20819.666483362496, 657.8565428085975, 47704.72469386157, 20235.7271594676, 36751.94522761646, 11955.590481232462, 34404.67678364239, 4376.985654471595, 39667.79734704463, 28787.92927121273, 41704.01891517865, 36596.86882458554, 30959.758872957096, 24920.004596710754, 0.094, 1.0150000000000001, 0.168, 192.0, 0.0, 0.0, 0.0, 0.0, 0.0, 0.0, 0.0, 0.0, 0.0, 1.7074746231436877E9, 0.0, 2024-02-09 11:30:23.143
50.0, -8017.011942507261, -14776.760611147954, 20767.005773425793, 658.2365224643377, 47518.04292417085, 20161.13938822024, 36647.20495309889, 11873.961910481681, 34482.99729621378, 4404.813576318452, 39846.34308175362, 28813.432611636235, 42070.386358545584, 36693.92009901048, 31056.273705515112, 25031.33863584264, 0.094, 1.0150000000000001, 0.168, 192.0, 0.0, 0.0, 0.0, 0.0, 0.0, 0.0, 0.0, 0.0, 0.0, 1.7074746231507244E9, 0.0, 2024-02-09 11:30:23.150
52.0, -7948.593252729565, -14716.209735418528, 20784.328375378656, 645.3619176580809, 47541.75812503793, 20198.310339249416, 36676.77631101326, 11895.263122947588, 34188.04367638155, 4230.067638166862, 39433.774582597565, 28681.780836794478, 41487.296400939995, 36409.38239209442, 30869.413121868747, 24820.896961795923, 0.094, 1.0150000000000001, 0.168, 192.0, 0.0, 0.0, 0.0, 0.0, 0.0, 0.0, 0.0, 0.0, 0.0, 1.707474623159112E9, 0.0, 2024-02-09 11:30:23.159
54.0, -7942.960613126828, -14716.947342985553, 20805.651939589017, 667.9371795579409, 47709.44091194164, 20233.6260954888, 36756.79555616326, 11961.916024913315, 34595.24775686834, 4572.541066711076, 39917.6227948216, 28874.877557143875, 42096.60495479166, 36802.30370787426, 31102.228892115225, 25065.737970559356, 0.094, 1.0135, 0.17, 192.0, 1.0, 120.0, 15.5, 80.0, 2.5, 48.0, 0.0, 0.0, 0.0, 1.7074746231667023E9, 0.0, 2024-02-09 11:30:23.166
56.0, -8046.2033207658915, -14781.767401905943, 20704.175019761922, 629.5145308392681, 47358.339710037675, 20129.13169016024, 36578.51804238773, 11813.478089985621, 34197.65492649734, 4341.111104620827, 39513.43619983628, 28696.734153835077, 41621.38451592738, 36451.18015422585, 30885.238156943105, 24869.176729819388, 0.094, 1.0135, 0.17, 192.0, 0.0, 0.0, 0.0, 0.0, 0.0, 0.0, 0.0, 0.0, 0.0, 1.7074746231747043E9, 0.0, 2024-02-09 11:30:23.174
58.0, -7898.391234682947, -14721.39534013216, 20835.960905070413, 587.292085563193, 47742.566197224405, 20229.535726253478, 36776.66625698403, 11978.99275767717, 34422.8264001401, 4353.71748849362, 39675.01696050369, 28765.59987850188, 41781.02067482718, 36606.569481679144, 30984.591661046943, 24924.005558968256, 0.094, 1.0135, 0.17, 192.0, 0.0, 0.0, 0.0, 0.0, 0.0, 0.0, 0.0, 0.0, 0.0, 1.7074746231827605E9, 0.0, 2024-02-09 11:30:23.182
60.0, -8112.923277964984, -14852.309507406891, 20585.956643337806, 577.1443935804837, 47376.08699513519, 20103.96362590356, 36574.89705978597, 11823.558726734964, 34318.77902970064, 4460.782344434541, 39736.01487112223, 28713.565017409925, 41948.546999519705, 36582.25078371177, 30983.719943013188, 24961.578841397626, 0.094, 1.0135, 0.17, 192.0, 0.0, 0.0, 0.0, 0.0, 0.0, 0.0, 0.0, 0.0, 0.0, 1.7074746231907284E9, 0.0, 2024-02-09 11:30:23.190
62.0, -8042.984669564327, -14881.143257754238, 20725.58799095011, 459.5742177455685, 47488.29275230083, 20094.68765195461, 36629.3459092791, 11841.730694977128, 33988.397894906746, 3976.107117665663, 39315.980889318096, 28556.40990214466, 41416.396667527755, 36325.42923992029, 30778.41917019119, 24747.985571382713, 0.094, 1.0135, 0.17, 192.0, 0.0, 0.0, 0.0, 0.0, 0.0, 0.0, 0.0, 0.0, 0.0, 1.707474623198788E9, 0.0, 2024-02-09 11:30:23.198
64.0, -7952.1695318424145, -14708.76660451491, 20751.270145329258, 662.1033742551058, 47658.65774853918, 20190.420173456692, 36720.33986095666, 11940.74892291414, 34567.97862863286, 4415.900041568285, 39866.727872696865, 28740.364759011838, 42103.37753336162, 36740.523486199796, 31052.853888613452, 24982.03068757423, 0.091, 1.01075, 0.166, 192.0, 1.0, 96.0, 15.5, 64.0, 2.5, 8.0, 0.0, 0.0, 0.0, 1.7074746232067857E9, 0.0, 2024-02-09 11:30:23.206
66.0, -7952.9294911538955, -14654.56362421079, 20839.201908016435, 817.1797772860263, 47434.71562084146, 20241.426854303703, 36636.67728146044, 11878.096983205913, 34265.179546496816, 4476.674434742265, 39544.4827728847, 28784.263585122062, 41721.833255509526, 36630.23997905731, 30906.87464557584, 24914.260198385742, 0.091, 1.01075, 0.166, 192.0, 0.0, 0.0, 0.0, 0.0, 0.0, 0.0, 0.0, 0.0, 0.0, 1.7074746232148576E9, 0.0, 2024-02-09 11:30:23.214
68.0, -8012.474538382833, -14867.598100614323, 20754.421741297454, 500.72377928778883, 47685.166917463175, 20162.435789398645, 36718.99875628934, 11920.922925582281, 34527.03023279074, 4326.627174213788, 39715.6747836679, 28830.84462056692, 41819.37626831249, 36694.590651344144, 31024.511876644123, 24968.977268812334, 0.091, 1.01075, 0.166, 192.0, 0.0, 0.0, 0.0, 0.0, 0.0, 0.0, 0.0, 0.0, 0.0, 1.7074746232238317E9, 0.0, 2024-02-09 11:30:23.223
70.0, -7995.286046896702, -14705.033863190874, 20683.99139451878, 704.1693573199937, 47454.876894340145, 20158.971269008074, 36635.42558377094, 11892.44680314622, 34164.97667610367, 3915.176262280496, 39627.11717213597, 28563.47305339254, 41822.81843695861, 36478.359875483504, 30910.31681422196, 24886.65579398344, 0.091, 1.01075, 0.166, 192.0, 0.0, 0.0, 0.0, 0.0, 0.0, 0.0, 0.0, 0.0, 0.0, 1.7074746232298236E9, 0.0, 2024-02-09 11:30:23.229
72.0, -7863.567216821578, -14597.521972360848, 20908.693481527982, 785.9767420264176, 47607.38284675871, 20263.800950503464, 36718.909349311514, 11944.45931249372, 34526.2479217348, 4731.640783743952, 39630.04525065962, 28992.6936021678, 41816.336431066564, 36772.41942553752, 30974.063989408492, 24952.481681404315, 0.091, 1.01075, 0.166, 192.0, 0.0, 0.0, 0.0, 0.0, 0.0, 0.0, 0.0, 0.0, 0.0, 1.7074746232391E9, 0.0, 2024-02-09 11:30:23.239
74.0, -8113.817347743196, -14873.096629750327, 20651.648420291953, 512.3243346600932, 47590.77550062841, 20106.779945704933, 36669.26612487628, 11878.007576228092, 34454.47647028881, 4017.681362352534, 39815.22945347184, 28762.001247644574, 42060.350425285156, 36679.32440988116, 31027.641120867866, 24985.785780642724, 0.0925, 1.0113750000000001, 0.161, 192.0, 1.0, 120.0, 15.5, 80.0, 2.0, 112.0, 0.0, 0.0, 0.0, 1.7074746232468424E9, 0.0, 2024-02-09 11:30:23.246
76.0, -8082.524905505766, -14769.317480244337, 20648.85445223504, 628.3522401275922, 47304.06967450019, 20067.574985930325, 36550.1760304184, 11757.486970125077, 34021.612587167336, 4018.5977838752015, 39439.98836755614, 28656.076330670876, 41616.78005656959, 36429.16368593737, 30824.91079865823, 24805.563665099584, 0.0925, 1.0113750000000001, 0.161, 192.0, 0.0, 0.0, 0.0, 0.0, 0.0, 0.0, 0.0, 0.0, 0.0, 1.7074746232548645E9, 0.0, 2024-02-09 11:30:23.254
78.0, -7793.606256676467, -14611.067129500763, 20898.322272100722, 719.6144127386109, 47796.74682578407, 20289.72897407162, 36837.66416760256, 12018.912973274348, 34359.190983675835, 4096.873592957687, 39633.84504721702, 28811.040974979518, 41808.401561784936, 36755.25328579584, 30940.35755876989, 24898.815142967123, 0.0925, 1.0113750000000001, 0.161, 192.0, 0.0, 0.0, 0.0, 0.0, 0.0, 0.0, 0.0, 0.0, 0.0, 1.7074746232628868E9, 0.0, 2024-02-09 11:30:23.262
80.0, -7867.188199423337, -14624.99226629642, 20886.162923117034, 800.6171346446437, 47592.51893669593, 20238.096444379862, 36735.628454164085, 11953.422362020297, 34819.972195621995, 4227.228966621037, 39997.01619112685, 28922.039737944575, 42364.647074299704, 36801.208472395956, 31151.246267705712, 25113.12366880461, 0.0925, 1.0113750000000001, 0.161, 192.0, 0.0, 0.0, 0.0, 0.0, 0.0, 0.0, 0.0, 0.0, 0.0, 1.7074746232709794E9, 0.0, 2024-02-09 11:30:23.270
82.0, -7872.999652981717, -14653.602499199213, 20848.723751154394, 719.1673778495048, 47580.292532478874, 20230.34038905387, 36705.922985782985, 11923.69454189474, 34452.308351076645, 4215.673114737644, 39587.711046661265, 28872.75414142062, 41787.88266037496, 36654.13399388004, 30953.299218809512, 24915.26602688623, 0.0925, 1.0113750000000001, 0.161, 192.0, 0.0, 0.0, 0.0, 0.0, 0.0, 0.0, 0.0, 0.0, 0.0, 1.707474623278913E9, 0.0, 2024-02-09 11:30:23.278
84.0, -7900.067615517094, -14684.67142399209, 20781.02031719927, 669.7923743477314, 47694.48759490104, 20198.600911927333, 36743.742137401365, 11945.398085760842, 34614.33614663317, 4111.9833722094745, 39928.68690832698, 28886.276946816084, 42227.563825555306, 36799.174463650525, 31077.954897636762, 25048.348313373128, 0.09525, 1.0116875, 0.1615, 192.0, 1.5, 8.0, 15.5, 80.0, 2.5, 8.0, 0.0, 0.0, 0.0, 1.7074746232858975E9, 0.0, 2024-02-09 11:30:23.285
86.0, -7993.453203851367, -14724.837508778277, 20750.331372062134, 679.7612523747983, 47383.91010569455, 20125.197783136104, 36572.70658882935, 11819.133081332813, 34372.490271626746, 3968.5969315286798, 39573.808261610066, 28738.017825844032, 41893.181728503914, 36570.00202775026, 30886.378095910324, 24876.195177578353, 0.09525, 1.0116875, 0.1615, 192.0, 0.0, 0.0, 0.0, 0.0, 0.0, 0.0, 0.0, 0.0, 0.0, 1.7074746232949169E9, 0.0, 2024-02-09 11:30:23.294
88.0, -7836.521606030657, -14650.786179397845, 20873.489484010875, 710.0255143672841, 47746.83538041537, 20257.318944611427, 36798.36980085013, 12006.060720212547, 34500.07402897764, 4039.250795751905, 39706.354106230036, 28856.683237157256, 41941.52855176074, 36706.10179973862, 30983.429370335267, 24944.345646422586, 0.09525, 1.0116875, 0.1615, 192.0, 0.0, 0.0, 0.0, 0.0, 0.0, 0.0, 0.0, 0.0, 0.0, 1.707474623302947E9, 0.0, 2024-02-09 11:30:23.302
90.0, -7970.632072762499, -14715.740348784966, 20794.856047017103, 720.0167441388064, 47514.73486599146, 20177.18794073915, 36664.72872075185, 11898.92880903826, 34604.52373081729, 4052.348918002715, 39895.382809088565, 28863.09818781593, 42279.46457618053, 36791.59722228017, 31072.29990628957, 25064.307458914216, 0.09525, 1.0116875, 0.1615, 192.0, 0.0, 0.0, 0.0, 0.0, 0.0, 0.0, 0.0, 0.0, 0.0, 1.7074746233112347E9, 0.0, 2024-02-09 11:30:23.311
92.0, -7906.840194087053, -14675.95424365452, 20832.764605613305, 695.6533426825217, 47536.14783717965, 20192.051850801927, 36693.07073272118, 11884.154305953301, 34321.237721590725, 3959.2986058352717, 39495.4206938053, 28782.006058932075, 41727.3988398789, 36560.994274734774, 30884.25468018707, 24849.68600865436, 0.09525, 1.0116875, 0.1615, 192.0, 0.0, 0.0, 0.0, 0.0, 0.0, 0.0, 0.0, 0.0, 0.0, 1.7074746233179724E9, 0.0, 2024-02-09 11:30:23.317
94.0, -7908.538926665656, -14689.991139172453, 20813.810326315204, 688.2325635233598, 47715.63234515576, 20237.58235425739, 36785.674009999515, 12008.631170824907, 34635.86087654363, 4018.351914686193, 39922.160198946025, 28881.270156058094, 42275.75418660095, 36804.494178830886, 31089.220176842235, 25053.064531453198, 0.098625, 1.00884375, 0.16475, 192.0, 1.5, 24.0, 15.5, 56.0, 2.5, 32.0, 0.0, 0.0, 0.0, 1.7074746233269565E9, 0.0, 2024-02-09 11:30:23.326
96.0, -7995.196639918881, -14734.068779238318, 20762.669535001463, 691.4065112360133, 47397.94700121248, 20165.632088855757, 36626.23901679981, 11867.390497611821, 34337.375681087455, 3909.5436226777583, 39587.10754956097, 28770.003172159573, 41922.52956897373, 36610.32457474763, 30938.591770957923, 24928.11827994803, 0.098625, 1.00884375, 0.16475, 192.0, 0.0, 0.0, 0.0, 0.0, 0.0, 0.0, 0.0, 0.0, 0.0, 1.7074746233349864E9, 0.0, 2024-02-09 11:30:23.334
98.0, -7871.546789592122, -14669.874569162675, 20839.045445805248, 674.3968337055247, 47730.92093836319, 20249.942868941172, 36792.1336641471, 11986.793516492071, 34460.9361244364, 3959.0527366462634, 39666.72446331078, 28831.13519324484, 41925.85997889757, 36675.21168890139, 30980.680105767264, 24930.509916604748, 0.098625, 1.00884375, 0.16475, 192.0, 0.0, 0.0, 0.0, 0.0, 0.0, 0.0, 0.0, 0.0, 0.0, 1.7074746233419852E9, 0.0, 2024-02-09 11:30:23.341
100.0, -8002.080977211115, -14748.083323011795, 20749.9960958953, 676.2073250064045, 47498.82042393928, 20150.544661348424, 36659.72192999386, 11876.644119816317, 34524.16920950046, 3933.8846723895876, 39844.420831730466, 28817.925312271753, 42244.97583448599, 36737.014262320314, 31052.898592102363, 25023.89550493902, 0.098625, 1.00884375, 0.16475, 192.0, 0.0, 0.0, 0.0, 0.0, 0.0, 0.0, 0.0, 0.0, 0.0, 1.707474623351049E9, 0.0, 2024-02-09 11:30:23.351
102.0, -7929.929546109384, -14699.512982310413, 20805.383718655554, 679.2024587634157, 47525.26253762991, 20203.7194614076, 36681.716046537884, 11889.831649044949, 34274.16494776785, 3890.455232912926, 39464.28471377906, 28755.094558607885, 41711.48439782672, 36535.80385873364, 30874.82224402693, 24829.52473515567, 0.098625, 1.00884375, 0.16475, 192.0, 0.0, 0.0, 0.0, 0.0, 0.0, 0.0, 0.0, 0.0, 0.0, 1.7074746233590317E9, 0.0, 2024-02-09 11:30:23.359
104.0, -7921.927621594385, -14701.792860244854, 20798.34291915213, 680.1859355194492, 47694.55465013441, 20232.150880354748, 36759.36600677562, 11968.062754638524, 34594.08546615666, 3936.700992190956, 39894.01935267679, 28861.46651047069, 42244.03706121887, 36784.73523673239, 31070.62352545542, 25039.877002224566, 0.0993125, 1.008421875, 0.165375, 192.0, 1.5, 16.0, 15.5, 64.0, 2.5, 24.0, 0.0, 0.0, 0.0, 1.7074746233671556E9, 0.0, 2024-02-09 11:30:23.367
106.0, -8016.877832040529, -14753.403038192158, 20753.3488575636, 680.8117843641978, 47373.024806144815, 20153.115111960782, 36594.119560017534, 11828.252593070578, 34307.02201211715, 3863.141401188541, 39575.551697677576, 28762.940020911698, 41902.547109430685, 36586.31880120264, 30915.971805569152, 24907.26410237123, 0.0993125, 1.008421875, 0.165375, 192.0, 0.0, 0.0, 0.0, 0.0, 0.0, 0.0, 0.0, 0.0, 0.0, 1.7074746233740752E9, 0.0, 2024-02-09 11:30:23.374
108.0, -7899.307656205614, -14695.824944475287, 20831.579963157175, 650.4581153938908, 47707.183385751654, 20247.640639262278, 36775.45926278344, 11991.241513638677, 34416.947891348354, 3881.2239624528843, 39649.714785780285, 28808.336413900426, 41902.14477803049, 36619.019403340746, 30953.858012420897, 24918.596436810072, 0.0993125, 1.008421875, 0.165375, 192.0, 0.0, 0.0, 0.0, 0.0, 0.0, 0.0, 0.0, 0.0, 0.0, 1.7074746233830242E9, 0.0, 2024-02-09 11:30:23.383
110.0, -8021.68345709842, -14755.72761961551, 20745.92807840444, 668.0489382802175, 47473.94293236052, 20158.054847485408, 36625.926092377435, 11860.863788230872, 34498.01766848775, 3892.9586282919204, 39826.315918721666, 28805.497742354604, 42217.25967136141, 36702.771389814785, 31030.01040578013, 25026.24243810683, 0.0993125, 1.008421875, 0.165375, 192.0, 0.0, 0.0, 0.0, 0.0, 0.0, 0.0, 0.0, 0.0, 0.0, 1.7074746233910599E9, 0.0, 2024-02-09 11:30:23.391
112.0, -7965.24530234877, -14726.357427401237, 20789.02224171427, 651.3968886610137, 47497.0099326384, 20180.94303380764, 36659.54311603822, 11874.096020948413, 34244.99592125368, 3858.0899069416414, 39438.69196637774, 28735.894410120778, 41663.00346410316, 36490.13924481145, 30850.838822226386, 24817.119516982977, 0.0993125, 1.008421875, 0.165375, 192.0, 0.0, 0.0, 0.0, 0.0, 0.0, 0.0, 0.0, 0.0, 0.0, 1.707474623398088E9, 0.0, 2024-02-09 11:30:23.398
114.0, -7960.4396772908785, -14731.408921648137, 20775.92411946346, 651.9109787834858, 47678.729615060045, 20223.09842385035, 36760.3271317872, 11986.078260669501, 34529.779497358744, 3908.426035454993, 39851.1040033226, 28820.540466373026, 42138.26860645635, 36718.26114872231, 31047.757690877643, 25023.269656094275, 0.09765625, 1.0082109375, 0.1646875, 192.0, 1.5, 0.0, 15.5, 64.0, 2.5, 16.0, 0.0, 0.0, 0.0, 1.7074746234070804E9, 0.0, 2024-02-09 11:30:23.407
116.0, -8029.260698468769, -14750.452607924059, 20748.096197616604, 672.5192871712788, 47378.8809631921, 20143.66032405619, 36607.82117936864, 11828.900793659783, 34280.64695365989, 3883.235619453862, 39557.022101524126, 28739.694206678178, 41832.20616962983, 36504.48906475175, 30925.35953824038, 24907.532323304695, 0.09765625, 1.0082109375, 0.1646875, 192.0, 0.0, 0.0, 0.0, 0.0, 0.0, 0.0, 0.0, 0.0, 0.0, 1.7074746234151132E9, 0.0, 2024-02-09 11:30:23.415
118.0, -7918.485452948267, -14701.167011400106, 20804.93668376645, 641.8750455230529, 47702.69068511614, 20237.470595535113, 36768.3290563022, 11956.395144032855, 34380.00045776373, 3946.9380911514872, 39625.28432909064, 28791.192625903208, 41804.17708208288, 36588.57632739262, 30959.043617134528, 24906.79471573767, 0.09765625, 1.0082109375, 0.1646875, 192.0, 0.0, 0.0, 0.0, 0.0, 0.0, 0.0, 0.0, 0.0, 0.0, 1.707474623422125E9, 0.0, 2024-02-09 11:30:23.422
120.0, -8016.542555873699, -14743.724732843011, 20749.929040661937, 683.0469588097285, 47500.69797047353, 20171.443542414134, 36665.48868006333, 11876.666471560773, 34469.63095302951, 4052.1701040470725, 39823.589005898124, 28788.30925086847, 42137.374536678144, 36628.34008077861, 31049.076443800506, 25023.269656094275, 0.09765625, 1.0082109375, 0.1646875, 192.0, 0.0, 0.0, 0.0, 0.0, 0.0, 0.0, 0.0, 0.0, 0.0, 1.7074746234301364E9, 0.0, 2024-02-09 11:30:23.430
122.0, -7952.2812905646915, -14696.473145064492, 20799.907541264005, 690.5124414578011, 47534.04677320085, 20210.201467299637, 36683.54888958322, 11870.117410435369, 34226.71219428923, 4178.055128819362, 39446.93976008174, 28756.45801501966, 41594.808291770016, 36451.76129958168, 30878.91261326225, 24832.944552057335, 0.09765625, 1.0082109375, 0.1646875, 192.0, 0.0, 0.0, 0.0, 0.0, 0.0, 0.0, 0.0, 0.0, 0.0, 1.7074746234391124E9, 0.0, 2024-02-09 11:30:23.439
124.0, -7944.011145116227, -14700.38470034417, 20794.476067361364, 674.6874063834437, 47715.96762132259, 20226.875868663297, 36776.95682966195, 11977.85281870995, 34550.4548609799, 4301.324999490381, 39866.63846571904, 28837.61719913688, 42096.403789091564, 36666.53921205273, 31073.126920834417, 25028.343502085627, 0.096828125, 1.00810546875, 0.16334375, 192.0, 1.5, 0.0, 15.5, 64.0, 2.5, 8.0, 0.0, 0.0, 0.0, 1.707474623447131E9, 0.0, 2024-02-09 11:30:23.447
126.0, -8027.316096701157, -14739.701418841056, 20758.02037215476, 683.4939936988346, 47416.00721073237, 20146.163719435182, 36614.683164916416, 11823.111691845857, 34270.54396516609, 4314.534880463467, 39566.40983419536, 28748.612552715847, 41797.5162622352, 36482.31613425209, 30941.899829137306, 24911.421526839917, 0.096828125, 1.00810546875, 0.16334375, 192.0, 0.0, 0.0, 0.0, 0.0, 0.0, 0.0, 0.0, 0.0, 0.0, 1.7074746234542265E9, 0.0, 2024-02-09 11:30:23.454
128.0, -7899.41941492789, -14683.933816425064, 20831.2670387348, 644.0878682241283, 47735.48069423207, 20230.452147776145, 36794.36883859263, 11970.633205250884, 34404.34150747556, 4400.343227427391, 39639.455335075305, 28801.8991114973, 41750.10821224549, 36561.351902646056, 30971.5605940295, 24910.54980880616, 0.096828125, 1.00810546875, 0.16334375, 192.0, 0.0, 0.0, 0.0, 0.0, 0.0, 0.0, 0.0, 0.0, 0.0, 1.7074746234621925E9, 0.0, 2024-02-09 11:30:23.462
130.0, -8009.948791259384, -14724.368122144715, 20765.932889691936, 715.9263749034852, 47511.650325256625, 20189.302586233927, 36674.22821214535, 11892.223285701668, 34494.4413893749, 4453.562730975477, 39841.71627065138, 28802.636719064325, 42106.8867572411, 36627.4460110004, 31057.011313082137, 25024.364891572583, 0.096828125, 1.00810546875, 0.16334375, 192.0, 0.0, 0.0, 0.0, 0.0, 0.0, 0.0, 0.0, 0.0, 0.0, 1.7074746234711711E9, 0.0, 2024-02-09 11:30:23.471
132.0, -7947.945052140361, -14703.29042712336, 20807.238913445344, 666.7525371018097, 47525.79897949684, 20208.167458554206, 36675.21168890139, 11886.836515287938, 34240.54792410707, 4497.394501852334, 39461.62485618888, 28766.91863142474, 41555.670387228776, 36495.66012569191, 30881.21484294115, 24853.44110172285, 0.096828125, 1.00810546875, 0.16334375, 192.0, 0.0, 0.0, 0.0, 0.0, 0.0, 0.0, 0.0, 0.0, 0.0, 1.7074746234781818E9, 0.0, 2024-02-09 11:30:23.478
134.0, -7940.926604381395, -14697.34486309825, 20795.906579006503, 687.2267350228709, 47701.99778103802, 20252.3792090868, 36773.40290229356, 11997.790574764083, 34541.2012387754, 4526.965859766706, 39875.28859082325, 28827.08952749843, 42078.94707667197, 36691.0590757202, 31071.785816167096, 25034.44552832193, 0.09541406250000001, 1.009052734375, 0.16167187500000002, 192.0, 1.0, 120.0, 15.5, 72.0, 2.5, 0.0, 0.0, 0.0, 0.0, 1.7074746234861858E9, 0.0, 2024-02-09 11:30:23.486
136.0, -8011.379302904524, -14715.472127851503, 20771.073790916656, 712.9759446353847, 47413.079132208724, 20177.120885505785, 36621.05341208618, 11848.257404358079, 34301.79170391461, 4592.322360554023, 39581.698427402785, 28771.16546287125, 41746.7554505772, 36513.56387300061, 30928.935817353227, 24926.866582258535, 0.09541406250000001, 1.009052734375, 0.16167187500000002, 192.0, 0.0, 0.0, 0.0, 0.0, 0.0, 0.0, 0.0, 0.0, 0.0, 1.7074746234952033E9, 0.0, 2024-02-09 11:30:23.495
138.0, -7891.596304368532, -14666.611214472201, 20839.201908016435, 675.9167523284856, 47736.35241226583, 20249.451130563157, 36783.684704743, 11970.789667462072, 34389.745818346244, 4643.01611697866, 39656.017977716685, 28828.765908332578, 41784.39578823993, 36592.666696627944, 30978.84726272193, 24929.191163681888, 0.09541406250000001, 1.009052734375, 0.16167187500000002, 192.0, 0.0, 0.0, 0.0, 0.0, 0.0, 0.0, 0.0, 0.0, 0.0, 1.7074746235022118E9, 0.0, 2024-02-09 11:30:23.502
140.0, -8090.996216654327, -14831.142405407716, 20624.334588567566, 546.3660414655259, 47402.99849545938, 20082.371840759737, 36599.77455136473, 11825.86095641386, 34426.447382741855, 4446.007841349583, 39787.446235113886, 28732.049910074464, 42006.303907192225, 36486.02652383167, 31011.190236948758, 24986.590443443114, 0.09541406250000001, 1.009052734375, 0.16167187500000002, 192.0, 0.0, 0.0, 0.0, 0.0, 0.0, 0.0, 0.0, 0.0, 0.0, 1.7074746235112617E9, 0.0, 2024-02-09 11:30:23.511
142.0, -7999.890506254495, -14734.068779238318, 20707.19250526339, 590.6671989759444, 47460.688347898526, 20135.07725418535, 36645.5509240092, 11852.906567204782, 34108.650280076305, 4373.744651525575, 39335.15868606075, 28617.631330207747, 41413.06625760392, 36344.04824305156, 30783.828292349375, 24753.46174877426, 0.09541406250000001, 1.009052734375, 0.16167187500000002, 192.0, 0.0, 0.0, 0.0, 0.0, 0.0, 0.0, 0.0, 0.0, 0.0, 1.707474623520233E9, 0.0, 2024-02-09 11:30:23.520
144.0, -7938.892595635963, -14709.034825448374, 20801.20394244241, 624.9547749703855, 47703.67416187217, 20213.174249312193, 36767.90437315755, 11960.306699312532, 34504.611433102065, 4560.225255516202, 39835.480133948346, 28767.008038402564, 42032.74602088285, 36642.376976296546, 31029.831591824484, 24985.919891109454, 0.09541406250000001, 1.009052734375, 0.16167187500000002, 192.0, 0.0, 0.0, 0.0, 0.0, 0.0, 0.0, 0.0, 0.0, 0.0, 1.7074746235264547E9, 0.0, 2024-02-09 11:30:23.526
146.0, -8098.416995813489, -14874.437734417646, 20624.55810601212, 509.37390439199265, 47313.390351938055, 20039.81411931683, 36555.29457989867, 11769.087525497382, 34305.97148012775, 4393.34713141288, 39554.362243933945, 28665.352304619828, 41778.31611374809, 36309.02305949009, 30902.44900017369, 24880.911395658422, 0.1, 1.012, 0.158, 192.0, 1.5, 16.0, 15.5, 80.0, 2.0, 120.0, 0.0, 0.0, 0.0, 1.7074746235345812E9, 0.0, 2024-02-09 11:30:23.534
148.0, -7945.508711994734, -14677.697679722034, 20793.514942349786, 656.2919206967259, 47690.754853577004, 20210.38028125528, 36755.23093405139, 11947.297984039544, 34313.615776731465, 4644.670146068353, 39560.732491103714, 28731.82639262991, 41693.804167962575, 36619.86876963005, 30896.704601848676, 24838.0631015376, 0.1, 1.012, 0.158, 192.0, 0.0, 0.0, 0.0, 0.0, 0.0, 0.0, 0.0, 0.0, 0.0, 1.7074746235433333E9, 0.0, 2024-02-09 11:30:23.543
150.0, -7999.957561487861, -14750.519663157424, 20760.166139622466, 651.0839642386394, 47526.827159741784, 20185.681603632165, 36665.17575564096, 11875.727698293651, 34343.544762557125, 4304.141319291749, 39767.4861273153, 28718.191828512172, 42024.811151601214, 36539.89422796896, 30997.42156236429, 24985.897539365, 0.1, 1.012, 0.158, 192.0, 0.0, 0.0, 0.0, 0.0, 0.0, 0.0, 0.0, 0.0, 0.0, 1.7074746235503204E9, 0.0, 2024-02-09 11:30:23.550
152.0, -7931.3824094989795, -14712.924028983598, 20821.700492107928, 594.8246234446316, 47531.364563866206, 20158.635992841246, 36691.14848269802, 11931.204728031724, 34389.47759741278, 4359.484238563089, 39505.68014451029, 28672.77308377899, 41708.53396755862, 36466.73696836674, 30907.12051476485, 24841.169994016887, 0.1, 1.012, 0.158, 192.0, 0.0, 0.0, 0.0, 0.0, 0.0, 0.0, 0.0, 0.0, 0.0, 1.707474623558326E9, 0.0, 2024-02-09 11:30:23.558
154.0, -7932.2094240438255, -14638.22449901396, 20839.961867327915, 820.286669765314, 47746.50010424854, 20326.743462889608, 36795.35231534867, 12033.910993803858, 34602.199149393935, 4475.690957986231, 39904.189396403955, 28884.846435170944, 42172.466775472974, 36939.36460487421, 31091.81297919905, 25064.262755425305, 0.1, 1.012, 0.158, 192.0, 0.0, 0.0, 0.0, 0.0, 0.0, 0.0, 0.0, 0.0, 0.0, 1.7074746235663335E9, 0.0, 2024-02-09 11:30:23.566
156.0, -8038.469617184355, -14727.162090201628, 20753.840595941616, 749.8339712421861, 47387.86636446314, 20207.519257965, 36604.20019676688, 11844.032924656025, 34309.23483481823, 4561.454601461244, 39619.78579995463, 28858.449024969224, 41811.46375077531, 36720.451619678934, 30952.405149031303, 24981.270728262753, 0.096, 1.014, 0.162, 192.0, 1.5, 0.0, 15.5, 88.0, 2.5, 8.0, 0.0, 0.0, 0.0, 1.707474623574344E9, 0.0, 2024-02-09 11:30:23.574
158.0, -7902.638066129454, -14653.736609665944, 20777.01935494177, 631.7050017958882, 47688.519679131474, 20211.967255111605, 36764.10457660015, 11954.763466687617, 34333.17355312986, 3951.8331231871994, 39574.18824126581, 28712.738002865077, 41802.03131461517, 36595.6394786405, 30923.88432310633, 24892.131971374987, 0.096, 1.014, 0.162, 192.0, 0.0, 0.0, 0.0, 0.0, 0.0, 0.0, 0.0, 0.0, 0.0, 1.7074746235823426E9, 0.0, 2024-02-09 11:30:23.582
160.0, -8013.458015138867, -14715.695645296055, 20767.519863548263, 724.1741686074935, 47518.04292417085, 20188.743792622543, 36669.713159765386, 11892.78207931305, 34538.4519742074, 4404.053617006972, 39857.09427083663, 28875.57046122199, 42189.319990792275, 36753.08516658368, 31047.824746111008, 25051.701075041423, 0.096, 1.014, 0.162, 192.0, 0.0, 0.0, 0.0, 0.0, 0.0, 0.0, 0.0, 0.0, 0.0, 1.7074746235907364E9, 0.0, 2024-02-09 11:30:23.590
162.0, -7969.983872173295, -14717.416729619114, 20784.17191316747, 658.191818975427, 47513.59492702424, 20183.55818790891, 36664.5052033073, 11881.248579174111, 34233.35066239246, 4059.8814558841536, 39462.60833294491, 28732.49694496357, 41702.610755277965, 36518.43655329187, 30888.92619477823, 24850.356560988017, 0.096, 1.014, 0.162, 192.0, 0.0, 0.0, 0.0, 0.0, 0.0, 0.0, 0.0, 0.0, 0.0, 1.7074746235983472E9, 0.0, 2024-02-09 11:30:23.598
164.0, -8006.104291213071, -14725.195136689561, 20739.937810890417, 599.0714548911399, 47687.62560935326, 20171.24237671404, 36732.052175051234, 11942.60411770393, 34456.95751392335, 4109.457625086025, 39815.72119184985, 28785.582338044926, 42156.328815976245, 36751.90052412755, 31028.602245879443, 24994.346498769108, 0.096, 1.014, 0.162, 192.0, 0.0, 0.0, 0.0, 0.0, 0.0, 0.0, 0.0, 0.0, 0.0, 1.7074746236063511E9, 0.0, 2024-02-09 11:30:23.606
166.0, -8000.896334754984, -14725.10572971174, 20743.379979536534, 699.0508078397283, 47398.0364081903, 20164.268632443982, 36607.30708924617, 11836.25451758558, 34287.30777350757, 4041.8212463642653, 39558.22909572472, 28714.593197654867, 41920.160284061465, 36603.75316187777, 30905.712354864165, 24890.54499751866, 0.08600000000000001, 1.01, 0.17400000000000002, 192.0, 1.0, 88.0, 15.5, 72.0, 2.5, 56.0, 0.0, 0.0, 0.0, 1.7074746236143374E9, 0.0, 2024-02-09 11:30:23.614
168.0, -7915.825595358086, -14677.362403555204, 20808.02122450128, 610.6273067745336, 47727.70228716163, 20204.47942071908, 36769.89367841407, 11958.183283589278, 34489.21108117236, 4066.005833864908, 39653.93926548234, 28783.883605466322, 41906.90569959947, 36590.5879843936, 30960.429425290757, 24894.657718498438, 0.08600000000000001, 1.01, 0.17400000000000002, 192.0, 0.0, 0.0, 0.0, 0.0, 0.0, 0.0, 0.0, 0.0, 0.0, 1.707474623623468E9, 0.0, 2024-02-09 11:30:23.623
170.0, -8010.552288359677, -14715.807404018333, 20746.173947593445, 722.1848633509712, 47484.20238306551, 20189.28023448947, 36655.81037471419, 11877.672300061262, 34460.556144780654, 4094.4372528120584, 39835.45778220389, 28812.963225002677, 42219.40543882912, 36864.86624060467, 31035.5759901495, 25023.269656094275, 0.08600000000000001, 1.01, 0.17400000000000002, 192.0, 0.0, 0.0, 0.0, 0.0, 0.0, 0.0, 0.0, 0.0, 0.0, 1.7074746236293898E9, 0.0, 2024-02-09 11:30:23.629
172.0, -7952.303642309147, -14715.695645296055, 20752.43243604093, 640.9586240003854, 47515.47247355848, 20178.059658772905, 36662.091214906126, 11856.751067251094, 34284.71497115075, 3886.7001398444345, 39454.44994621872, 28717.811848856432, 41720.89448224241, 36548.81257400663, 30854.61626703933, 24829.189458988843, 0.08600000000000001, 1.01, 0.17400000000000002, 192.0, 0.0, 0.0, 0.0, 0.0, 0.0, 0.0, 0.0, 0.0, 0.0, 1.7074746236385815E9, 0.0, 2024-02-09 11:30:23.638
174.0, -7851.877254471452, -14630.870775088166, 20896.9811674334, 727.0351918977728, 47799.76431128554, 20258.458883578645, 36819.69336506049, 12024.657371599362, 34596.09712315764, 4045.777505132855, 39915.81230352072, 28854.179841778263, 42317.596652221284, 36830.221036698946, 31095.188092611803, 25047.856574995112, 0.08600000000000001, 1.01, 0.17400000000000002, 192.0, 0.0, 0.0, 0.0, 0.0, 0.0, 0.0, 0.0, 0.0, 0.0, 1.7074746236463945E9, 0.0, 2024-02-09 11:30:23.646
176.0, -8004.20439293437, -14691.689871751056, 20725.498583972287, 704.772854420287, 47399.35516111316, 20152.601021838313, 36597.561728663655, 11823.357561034867, 34452.86714468803, 4016.2508507073944, 39642.83044848805, 28782.587204287913, 41992.02114248528, 36669.93667720994, 30949.11944259637, 24940.858774287557, 0.088, 1.012, 0.17, 192.0, 1.0, 96.0, 15.5, 80.0, 2.5, 40.0, 0.0, 0.0, 0.0, 1.7074746236544192E9, 0.0, 2024-02-09 11:30:23.654
178.0, -7850.111466659483, -14615.291609202815, 20861.732466427384, 681.7729093757761, 47740.48748499006, 20231.301514065446, 36783.10355938716, 11962.072487124502, 34459.77383372472, 3994.6590655635678, 39655.861515505494, 28813.209094191683, 41959.521706047264, 36654.335159580136, 30955.713207210687, 24900.044488912165, 0.088, 1.012, 0.17, 192.0, 0.0, 0.0, 0.0, 0.0, 0.0, 0.0, 0.0, 0.0, 0.0, 1.707474623662426E9, 0.0, 2024-02-09 11:30:23.662
180.0, -7971.10145939606, -14689.678214750078, 20798.477029618865, 732.4666658004124, 47562.835820059285, 20200.43375497267, 36698.59161360164, 11925.88501285136, 34566.4587100099, 4026.353839201193, 39885.90566943952, 28846.781414363555, 42307.18073930511, 36834.95960652347, 31076.032647613603, 25057.400769877528, 0.088, 1.012, 0.17, 192.0, 0.0, 0.0, 0.0, 0.0, 0.0, 0.0, 0.0, 0.0, 0.0, 1.7074746236706E9, 0.0, 2024-02-09 11:30:23.670
182.0, -7922.866394861508, -14672.221502330483, 20840.02892256128, 701.3753892630804, 47549.17890419709, 20203.89827536324, 36690.09795070862, 11902.706253851207, 34366.052969223616, 3911.242355256362, 39519.91820572832, 28769.444378548193, 41816.917576422406, 36586.56467039164, 30918.07286954795, 24868.97556411929, 0.088, 1.012, 0.17, 192.0, 0.0, 0.0, 0.0, 0.0, 0.0, 0.0, 0.0, 0.0, 0.0, 1.707474623679464E9, 0.0, 2024-02-09 11:30:23.679
184.0, -7893.5632578806, -14659.90569113561, 20844.521623196797, 693.3511130036251, 47746.09777284834, 20237.33648506838, 36788.065646656236, 11998.438775353286, 34662.05712104525, 3950.7825911978, 39926.89876877055, 28857.040865068542, 42294.462596710044, 36808.606899810664, 31098.406743813368, 25041.508679569804, 0.088, 1.012, 0.17, 192.0, 0.0, 0.0, 0.0, 0.0, 0.0, 0.0, 0.0, 0.0, 0.0, 1.7074746236854727E9, 0.0, 2024-02-09 11:30:23.685
186.0, -7996.358930630557, -14715.20390691804, 20774.15833165149, 689.774833890776, 47404.04902744878, 20149.02474272546, 36610.63749917001, 11838.82496819794, 34380.179271719375, 3901.5640499072138, 39631.6545762604, 28751.428872517215, 42014.14936949604, 36632.788077925215, 30952.427500775757, 24922.39623336747, 0.09, 1.014, 0.166, 192.0, 1.0, 104.0, 15.5, 88.0, 2.5, 24.0, 0.0, 0.0, 0.0, 1.707474623694498E9, 0.0, 2024-02-09 11:30:23.694
188.0, -7868.4622488572895, -14651.859063131698, 20857.910318125527, 677.4813744403571, 47733.0667058309, 20243.416159560224, 36787.55155653376, 11976.355251831443, 34470.32385710762, 3925.4133612410265, 39669.3619691565, 28806.861198766375, 41976.799604511216, 36669.60140104311, 30973.818120219486, 24911.421526839917, 0.09, 1.014, 0.166, 192.0, 0.0, 0.0, 0.0, 0.0, 0.0, 0.0, 0.0, 0.0, 0.0, 1.7074746237024763E9, 0.0, 2024-02-09 11:30:23.702
190.0, -8001.768052788741, -14733.577040860302, 20753.795892452705, 670.0158917922845, 47513.0137816684, 20170.728286591566, 36673.11062492259, 11908.294189965032, 34558.38973026154, 3901.4746429293923, 39868.113680853094, 28800.669765552255, 42322.290518556896, 36767.32322780171, 31058.5312317051, 25039.497022568827, 0.09, 1.014, 0.166, 192.0, 0.0, 0.0, 0.0, 0.0, 0.0, 0.0, 0.0, 0.0, 0.0, 1.7074746237105331E9, 0.0, 2024-02-09 11:30:23.710
192.0, -7934.534005467178, -14682.033918146362, 20825.41088168751, 692.4346914809574, 47520.92629920558, 20214.38124351278, 36681.648991304515, 11900.560486383496, 34274.120244278936, 3888.0188927672975, 39470.18557431526, 28729.97119784012, 41778.89725910393, 36518.52596026969, 30876.945659750185, 24841.795842861637, 0.09, 1.014, 0.166, 192.0, 0.0, 0.0, 0.0, 0.0, 0.0, 0.0, 0.0, 0.0, 0.0, 1.7074746237175333E9, 0.0, 2024-02-09 11:30:23.717
194.0, -7918.954839581828, -14686.124287381685, 20828.92010556699, 694.9157351154965, 47725.265947016, 20258.257717878547, 36784.221146609925, 11995.778917763106, 34609.79874250874, 3971.16738214104, 39902.42360859199, 28852.19053652174, 42294.21672752103, 36838.80410656978, 31087.29792681908, 25054.450339609426, 0.09, 1.014, 0.166, 192.0, 0.0, 0.0, 0.0, 0.0, 0.0, 0.0, 0.0, 0.0, 0.0, 1.7074746237267416E9, 0.0, 2024-02-09 11:30:23.726
196.0, -8014.106215728071, -14729.48667162498, 20774.44890432941, 692.3452845031362, 47395.57771630022, 20164.42509465517, 36607.66471715745, 11838.91437517576, 34342.494230567725, 3893.942105047954, 39617.26005283118, 28748.098462593374, 41999.084293733154, 36633.25746455878, 30952.606314731398, 24941.059939987656, 0.088, 1.014, 0.166, 192.0, 1.0, 96.0, 15.5, 88.0, 2.5, 24.0, 0.0, 0.0, 0.0, 1.7074746237345488E9, 0.0, 2024-02-09 11:30:23.734
198.0, -7891.283379946159, -14669.516941251391, 20854.289335523765, 680.2753424972705, 47722.24846151453, 20252.558023042446, 36778.99083840738, 11979.573903033008, 34423.38519375148, 3951.7884196982886, 39644.953864211304, 28792.04199219251, 41933.14664759, 36654.804546213694, 30969.70539923971, 24917.747070520767, 0.088, 1.014, 0.166, 192.0, 0.0, 0.0, 0.0, 0.0, 0.0, 0.0, 0.0, 0.0, 0.0, 1.7074746237415807E9, 0.0, 2024-02-09 11:30:23.741
200.0, -8005.187869690403, -14734.694628083067, 20776.415857841475, 688.5007844568235, 47513.885499702155, 20174.930414549162, 36659.990150927326, 11897.028910759558, 34541.42475621996, 3959.16449536854, 39870.17004134298, 28803.351974886893, 42313.75215217497, 36760.66240795403, 31073.976287123718, 25048.37066511758, 0.088, 1.014, 0.166, 192.0, 0.0, 0.0, 0.0, 0.0, 0.0, 0.0, 0.0, 0.0, 0.0, 1.7074746237506251E9, 0.0, 2024-02-09 11:30:23.750
202.0, -7943.586461971577, -14696.674310764589, 20819.35355894012, 680.4541564529129, 47510.57744152277, 20206.111098064317, 36659.61017127158, 11875.59358782692, 34265.49247091919, 3948.100381863163, 39463.52475446758, 28730.35117749586, 41745.950787776805, 36525.36559407301, 30884.50054937608, 24839.895944582935, 0.088, 1.014, 0.166, 192.0, 0.0, 0.0, 0.0, 0.0, 0.0, 0.0, 0.0, 0.0, 0.0, 1.7074746237586372E9, 0.0, 2024-02-09 11:30:23.758
204.0, -7920.631220415977, -14687.890075193654, 20829.143623011547, 683.7398628878431, 47730.317441262894, 20250.4793108081, 36779.728445974404, 11996.270656141121, 34585.010657907806, 4044.6152144211787, 39883.5140327828, 28833.169201990273, 42236.19159891506, 36749.77710840429, 31079.54187149309, 25026.533010784748, 0.088, 1.014, 0.166, 192.0, 0.0, 0.0, 0.0, 0.0, 0.0, 0.0, 0.0, 0.0, 0.0, 1.7074746237666688E9, 0.0, 2024-02-09 11:30:23.766
206.0, -8015.246154695292, -14730.336037914281, 20777.57814855315, 693.8652031260972, 47401.5903355587, 20172.717591848086, 36610.32457474763, 11856.68401201773, 34338.89559971042, 4048.8173423787766, 39616.41068654188, 28755.60864873036, 41961.265142114775, 36580.39558892198, 30958.373064800868, 24931.64985557197, 0.082, 1.01, 0.166, 192.0, 1.0, 72.0, 15.5, 72.0, 2.5, 24.0, 0.0, 0.0, 0.0, 1.7074746237736385E9, 0.0, 2024-02-09 11:30:23.773
208.0, -7888.422356655879, -14667.70644995051, 20848.03084707628, 672.6533976380107, 47728.75281915103, 20262.01281094704, 36782.16478612003, 11980.244455366666, 34408.67774589989, 4152.127105251206, 39631.475762304755, 28792.98076545963, 41878.295466696676, 36590.05154252667, 30970.063027150994, 24910.795677995167, 0.082, 1.01, 0.166, 192.0, 0.0, 0.0, 0.0, 0.0, 0.0, 0.0, 0.0, 0.0, 0.0, 1.7074746237826169E9, 0.0, 2024-02-09 11:30:23.782
210.0, -8004.897297012484, -14733.264116437927, 20762.267203601266, 683.6281041655665, 47534.20323541203, 20192.074202546384, 36678.720912780875, 11896.40306191481, 34519.09536350911, 4243.03164995094, 39855.3061312802, 28803.799009776, 42231.72125002399, 36675.16698541248, 31060.967571850728, 25036.81481323419, 0.082, 1.01, 0.166, 192.0, 0.0, 0.0, 0.0, 0.0, 0.0, 0.0, 0.0, 0.0, 0.0, 1.7074746237909024E9, 0.0, 2024-02-09 11:30:23.790
212.0, -7945.329898039091, -14687.532447282369, 20812.424518158976, 689.8195373796866, 47528.48118883147, 20226.138261096272, 36682.006619215805, 11894.21259095819, 34251.76849982363, 4322.223880556093, 39455.791050886044, 28737.906067121756, 41667.92084788333, 36458.80209908511, 30880.09725571838, 24843.06989229559, 0.082, 1.01, 0.166, 192.0, 0.0, 0.0, 0.0, 0.0, 0.0, 0.0, 0.0, 0.0, 0.0, 1.7074746237976873E9, 0.0, 2024-02-09 11:30:23.797
214.0, -7919.893612848951, -14680.446944290037, 20817.543067639243, 686.5561826892117, 47739.414601256205, 20266.95254647166, 36783.572946020715, 11993.119060172923, 34572.627791479565, 4506.670475801287, 39874.349817556125, 28842.065196283485, 42158.09460378821, 36695.52942461126, 31083.900461661873, 25038.938228957442, 0.082, 1.01, 0.166, 192.0, 0.0, 0.0, 0.0, 0.0, 0.0, 0.0, 0.0, 0.0, 0.0, 1.7074746238066535E9, 0.0, 2024-02-09 11:30:23.806
216.0, -8020.856442553573, -14725.552764600847, 20757.3498198211, 687.450252467424, 47411.06747520775, 20174.058696515407, 36606.569481679144, 11830.621877982841, 34314.62160523196, 4552.603310656942, 39606.397105025906, 28753.082901606907, 41868.885382281, 36519.28591958117, 30950.192326330227, 24926.46425085834, 0.08600000000000001, 1.002, 0.166, 192.0, 1.0, 88.0, 15.5, 40.0, 2.5, 24.0, 0.0, 0.0, 0.0, 1.7074746238146913E9, 0.0, 2024-02-09 11:30:23.814
218.0, -7889.338778178547, -14654.787141655344, 20841.906469095527, 678.1072232851056, 47740.12985707878, 20276.29557565398, 36783.81881520973, 11973.56128377453, 34391.08692301356, 4682.668111642374, 39621.39512555541, 28800.312137640973, 41775.70095964682, 36536.96614944532, 30961.904640424807, 24904.13485814749, 0.08600000000000001, 1.002, 0.166, 192.0, 0.0, 0.0, 0.0, 0.0, 0.0, 0.0, 0.0, 0.0, 0.0, 1.7074746238227973E9, 0.0, 2024-02-09 11:30:23.822
220.0, -8007.467747624844, -14731.274811181405, 20755.15934886448, 679.1801070189604, 47538.38301162518, 20190.15195252323, 36664.21463062938, 11877.49348610562, 34517.86601756406, 4767.560037083631, 39854.635578946545, 28812.851466280397, 42133.86531279866, 36639.4488977729, 31068.231888798702, 25040.681665024957, 0.08600000000000001, 1.002, 0.166, 192.0, 0.0, 0.0, 0.0, 0.0, 0.0, 0.0, 0.0, 0.0, 0.0, 1.7074746238297331E9, 0.0, 2024-02-09 11:30:23.829
222.0, -7981.651482778965, -14718.780186030888, 20756.075770387146, 633.4260861189468, 47459.1013740422, 20164.156873721706, 36632.855133158584, 11852.660698015774, 34219.805505252545, 4787.609551860041, 39435.96505355419, 28724.53972393748, 41529.98823284963, 36347.825687864504, 30864.29457238848, 24823.86974380848, 0.08600000000000001, 1.002, 0.166, 192.0, 0.0, 0.0, 0.0, 0.0, 0.0, 0.0, 0.0, 0.0, 0.0, 1.7074746238387237E9, 0.0, 2024-02-09 11:30:23.838
224.0, -7967.681642494398, -14733.10765422674, 20744.743435948305, 617.1763678999387, 47688.34086517583, 20208.90506612123, 36740.523486199796, 11961.334879557477, 34464.28888610469, 4812.755264372261, 39792.18480493841, 28758.424968531726, 41894.61224014905, 36485.69124766484, 30997.555672831022, 24965.825672844134, 0.08600000000000001, 1.002, 0.166, 192.0, 0.0, 0.0, 0.0, 0.0, 0.0, 0.0, 0.0, 0.0, 0.0, 1.70747462384677E9, 0.0, 2024-02-09 11:30:23.846
226.0, -8042.224710252847, -14757.515759171934, 20723.978665349325, 655.9566445298964, 47374.835297445694, 20146.78956827993, 36561.77658579071, 11822.418787767743, 34278.34472398099, 4813.470520194831, 39574.54586917709, 28721.8798663473, 41778.22670677027, 36452.074224004056, 30939.93287562524, 24916.674186786913, 0.084, 1.022, 0.166, 192.0, 1.0, 80.0, 15.5, 120.0, 2.5, 24.0, 0.0, 0.0, 0.0, 1.707474623854153E9, 0.0, 2024-02-09 11:30:23.854
228.0, -7863.790734266131, -14635.98932456843, 20876.03758287878, 715.5687469922003, 47726.33883074985, 20290.4889333831, 36768.08318711319, 12007.602990579962, 34360.35327438751, 4993.782042715793, 39568.08621502951, 28768.080922136418, 41619.216396715216, 36496.01775360319, 30900.92908155073, 24868.90850888592, 0.084, 1.022, 0.166, 192.0, 0.0, 0.0, 0.0, 0.0, 0.0, 0.0, 0.0, 0.0, 0.0, 1.7074746238617418E9, 0.0, 2024-02-09 11:30:23.861
230.0, -7989.139317171493, -14727.027979734896, 20812.55862862571, 688.903115857019, 47597.503375709464, 20197.773897382485, 36673.825880745164, 11925.303867495522, 34627.501324117344, 5080.998549580401, 39935.54889387475, 28857.867879613386, 42240.8184100173, 36659.20783987139, 31142.663197834874, 25084.96047079092, 0.084, 1.022, 0.166, 192.0, 0.0, 0.0, 0.0, 0.0, 0.0, 0.0, 0.0, 0.0, 0.0, 1.7074746238707516E9, 0.0, 2024-02-09 11:30:23.870
232.0, -7957.466895278323, -14710.95707547153, 20818.50419265082, 670.1500022590163, 47536.192540668555, 20223.321941294904, 36655.229229358345, 11889.049337989014, 34223.717060532224, 4994.474946793908, 39443.18466701325, 28720.53876167998, 41534.5032852296, 36400.06171465656, 30885.48402613211, 24820.405223417907, 0.084, 1.022, 0.166, 192.0, 0.0, 0.0, 0.0, 0.0, 0.0, 0.0, 0.0, 0.0, 0.0, 1.7074746238777845E9, 0.0, 2024-02-09 11:30:23.877
234.0, -7933.014086844217, -14675.015470387396, 20812.06689024769, 669.1888772474382, 47745.51662749251, 20262.01281094704, 36763.61283822213, 11957.915062655815, 34534.29454973871, 4992.731510726394, 39867.7113494529, 28807.308233655483, 42063.03263461979, 36651.89881943451, 31088.080237875016, 25016.497077524316, 0.084, 1.022, 0.166, 192.0, 0.0, 0.0, 0.0, 0.0, 0.0, 0.0, 0.0, 0.0, 0.0, 1.7074746238857553E9, 0.0, 2024-02-09 11:30:23.885
236.0, -8018.308343685669, -14716.165031929617, 20774.11362816258, 688.7243019013765, 47438.180141232035, 20187.7156123776, 36634.79973492619, 11816.38381676481, 34313.772238942656, 5048.8120375647595, 39596.71879967675, 28742.756395668555, 41791.682456932365, 36466.37934045545, 30940.491669236624, 24900.335061590085, 0.098, 0.998, 0.164, 192.0, 1.5, 8.0, 15.5, 24.0, 2.5, 16.0, 0.0, 0.0, 0.0, 1.7074746238948517E9, 0.0, 2024-02-09 11:30:23.894
238.0, -7875.570103594077, -14654.295403277327, 20872.774228188304, 686.8467553671308, 47770.01413941552, 20292.21001770616, 36821.548559850286, 11993.789612506584, 34472.91665946444, 5174.205323959032, 39665.942152254844, 28839.42769043776, 41807.88747166246, 36544.632797793485, 31012.620748593898, 24920.853963000056, 0.098, 0.998, 0.164, 192.0, 0.0, 0.0, 0.0, 0.0, 0.0, 0.0, 0.0, 0.0, 0.0, 1.707474623902807E9, 0.0, 2024-02-09 11:30:23.902
240.0, -8074.768850179774, -14845.112245692284, 20656.0740656941, 525.5118638887244, 47497.747540205426, 20130.74101576102, 36648.00961589928, 11863.76951501006, 34501.34807841159, 4796.729063597806, 39838.56467468318, 28708.35706095184, 42130.043164496805, 36563.52002185822, 31076.077351102515, 25024.610760761592, 0.098, 0.998, 0.164, 192.0, 0.0, 0.0, 0.0, 0.0, 0.0, 0.0, 0.0, 0.0, 0.0, 1.7074746239097867E9, 0.0, 2024-02-09 11:30:23.909
242.0, -8014.709712828364, -14734.046427493862, 20711.640502409995, 672.9439703159297, 47457.894379841615, 20185.838065843353, 36638.44306927241, 11884.02019548657, 33981.60296459233, 4878.335282604133, 39283.615563346815, 28616.401984262706, 41378.21988799809, 36313.42635314779, 30778.463873680103, 24767.85627220348, 0.098, 0.998, 0.164, 192.0, 0.0, 0.0, 0.0, 0.0, 0.0, 0.0, 0.0, 0.0, 0.0, 1.7074746239178145E9, 0.0, 2024-02-09 11:30:23.917
244.0, -7937.059752590627, -14699.691796266055, 20802.50034362082, 671.2675894817817, 47704.09884501682, 20233.08965362187, 36756.03559685178, 11993.543743317574, 34515.92141579645, 5068.5933314077065, 39829.84749434561, 28815.332509914937, 42041.93258785398, 36625.456705743876, 31046.99773156616, 24999.174475571454, 0.098, 0.998, 0.164, 192.0, 0.0, 0.0, 0.0, 0.0, 0.0, 0.0, 0.0, 0.0, 0.0, 1.7074746239267888E9, 0.0, 2024-02-09 11:30:23.926
246.0, -8013.659180838965, -14765.405924964658, 20784.238968400834, 650.9051502829969, 47419.56113810076, 20164.492149888534, 36601.58504266561, 11857.712192262674, 34421.39588849496, 5002.432167819997, 39660.73419579675, 28776.686343751713, 41944.97072040686, 36555.20517292085, 30994.64994605183, 24937.394253896982, 0.092, 1.008, 0.17, 192.0, 1.0, 112.0, 15.5, 64.0, 2.5, 40.0, 0.0, 0.0, 0.0, 1.7074746239338937E9, 0.0, 2024-02-09 11:30:23.933
248.0, -7884.153173464915, -14649.936813108543, 20840.766530128305, 675.9391040729408, 47754.16675259671, 20279.447171622178, 36771.95003890396, 12013.079167971513, 34423.295786773655, 4858.8669131835595, 39608.6993347048, 28726.730194894102, 41761.64171238443, 36548.76787051772, 30965.4585677932, 24868.39441876345, 0.092, 1.008, 0.17, 192.0, 0.0, 0.0, 0.0, 0.0, 0.0, 0.0, 0.0, 0.0, 0.0, 1.7074746239420977E9, 0.0, 2024-02-09 11:30:23.942
250.0, -8012.228669193825, -14748.664468367633, 20749.526709261743, 683.5834006766559, 47560.06420374682, 20194.085859547362, 36679.704389536906, 11912.116338266891, 34519.78826758722, 4869.01460516627, 39856.870753392075, 28829.23529496614, 42147.41046993858, 36616.00191783928, 31078.692505203788, 25038.066510923687, 0.092, 1.008, 0.17, 192.0, 0.0, 0.0, 0.0, 0.0, 0.0, 0.0, 0.0, 0.0, 0.0, 1.7074746239508545E9, 0.0, 2024-02-09 11:30:23.950
252.0, -7942.446523004356, -14689.030014160875, 20832.45168119093, 700.9954096073401, 47537.48894184696, 20230.13922335377, 36681.62663956006, 11890.390442656333, 34286.10077930698, 4777.372452899511, 39449.487858949644, 28732.273427519016, 41635.60022540095, 36466.87107883347, 30877.325639405924, 24824.428537419863, 0.092, 1.008, 0.17, 192.0, 0.0, 0.0, 0.0, 0.0, 0.0, 0.0, 0.0, 0.0, 0.0, 1.707474623957899E9, 0.0, 2024-02-09 11:30:23.957
254.0, -7935.919813623406, -14674.8143046873, 20800.801611042218, 666.6854818684437, 47762.05691838943, 20248.400598573757, 36798.59331829468, 12006.038368468091, 34546.18567778893, 4868.2993493437, 39875.48975652335, 28858.314914502495, 42171.86327837268, 36665.04164517423, 31103.435886315812, 25023.448470049916, 0.092, 1.008, 0.17, 192.0, 0.0, 0.0, 0.0, 0.0, 0.0, 0.0, 0.0, 0.0, 0.0, 1.7074746239658928E9, 0.0, 2024-02-09 11:30:23.965
0.0, -8032.9934397928055, -14761.7849423629, 20750.510186017775, 651.933330527941, 47403.98197221541, 20163.106341732306, 36602.36735372154, 11855.141741650314, 34355.905277240905, 4619.77030274514, 39605.39127652541, 28716.001357555553, 41905.58694667661, 36502.3656490285, 30953.813308931985, 24911.220361139818, 0.08499999999999999, 1.008, 0.168, 192.0, 1.0, 56.0, 15.5, 64.0, 2.5, 24.0, 0.0, 0.0, 0.0, 1.7074746239739132E9, 0.0, 2024-02-09 11:30:23.973
2.0, -7921.011200071717, -14693.053328162829, 20809.317625679687, 618.3386586116146, 47706.37872295126, 20229.558077997932, 36746.49140196936, 11972.376641318398, 34398.66416438391, 4552.089220534471, 39584.8947268599, 28744.276314291517, 41753.34921519151, 36487.389980243446, 30926.521828952056, 24851.094168555042, 0.08499999999999999, 1.008, 0.168, 192.0, 0.0, 0.0, 0.0, 0.0, 0.0, 0.0, 0.0, 0.0, 0.0, 1.7074746239829621E9, 0.0, 2024-02-09 11:30:23.982
4.0, -8053.847617369607, -14779.64398618269, 20752.275973829746, 592.6341524880114, 47560.26536944692, 20148.80122528091, 36658.47023230437, 11893.474983391165, 34484.24899390328, 4503.69769378873, 39833.49082869182, 28760.771901699532, 42282.012675048434, 36664.97458994086, 31073.10456908996, 25014.03838563423, 0.08499999999999999, 1.008, 0.168, 192.0, 0.0, 0.0, 0.0, 0.0, 0.0, 0.0, 0.0, 0.0, 0.0, 1.707474623989911E9, 0.0, 2024-02-09 11:30:23.989
6.0, -7970.229741362303, -14689.00766241642, 20771.520825805765, 695.3404182601474, 47506.77764496537, 20209.083880076872, 36652.14468862351, 11883.774326297562, 34134.66771062228, 4409.77566358753, 39387.774692508545, 28670.224984911085, 41538.258378298095, 36451.62718911495, 30835.28200808549, 24765.174062868842, 0.08499999999999999, 1.008, 0.168, 192.0, 0.0, 0.0, 0.0, 0.0, 0.0, 0.0, 0.0, 0.0, 0.0, 1.7074746239982278E9, 0.0, 2024-02-09 11:30:23.998
8.0, -7899.128842249971, -14646.695810162522, 20834.284524236267, 712.6853719574657, 47760.00055789955, 20262.34808711387, 36780.24253609688, 12000.89746724337, 34594.577204534675, 4686.445556455321, 39895.53927129976, 28903.979528424687, 42308.14186431669, 36788.08799840069, 31103.01120317116, 25049.912935485, 0.08499999999999999, 1.008, 0.168, 192.0, 0.0, 0.0, 0.0, 0.0, 0.0, 0.0, 0.0, 0.0, 0.0, 1.707474624006084E9, 0.0, 2024-02-09 11:30:24.006
10.0, -8002.77388128923, -14737.510947884435, 20755.33816282012, 662.9303887999522, 47419.40467588958, 20139.56995482087, 36597.09234203009, 11838.668505986752, 34392.115103258504, 4406.914640297251, 39608.609927726975, 28748.59020097139, 41899.77549311823, 36508.13239909797, 30929.606369686888, 24896.06587839912, 0.08449999999999999, 1.009, 0.172, 192.0, 1.0, 80.0, 15.5, 72.0, 2.5, 64.0, 0.0, 0.0, 0.0, 1.707474624013954E9, 0.0, 2024-02-09 11:30:24.013
