%OpenBCI Raw EXG Data
%Number of channels = 16
%Sample Rate = 125 Hz
%Board = OpenBCI_GUI$BoardCytonSerialDaisy
Sample Index, EXG Channel 0, EXG Channel 1, EXG Channel 2, EXG Channel 3, EXG Channel 4, EXG Channel 5, EXG Channel 6, EXG Channel 7, EXG Channel 8, EXG Channel 9, EXG Channel 10, EXG Channel 11, EXG Channel 12, EXG Channel 13, EXG Channel 14, EXG Channel 15, Accel Channel 0, Accel Channel 1, Accel Channel 2, Other, Other, Other, Other, Other, Other, Other, Analog Channel 0, Analog Channel 1, Analog Channel 2, Timestamp, Other, Timestamp (Formatted)
78.0, -9790.198181891225, -16149.917680015289, 19250.1940429442, -490.37492160498164, 47033.121828212956, 19207.32339707892, 35609.63697548354, 10787.443612509205, 32786.27637461142, 3796.354388756083, 39108.71316298404, 28317.201532983963, 40814.64300330198, 35604.071391114165, 30305.366850539074, 24783.323679366553, 0.0, 0.0, 0.0, 192.0, 0.0, 0.0, 0.0, 0.0, 0.0, 0.0, 0.0, 0.0, 0.0, 1.7074745416072564E9, 0.0, 2024-02-09 11:29:01.607
0.0, -4539.6616506173195, -7767.879398808408, 9843.261223228124, -30.845407348323747, 23694.100820314983, 9797.574257561477, 17975.69757410259, 5591.400634217338, 16403.00648248273, 1928.8661395151782, 19511.754156560204, 14178.113839401465, 20301.91067479976, 17792.346214335706, 15136.511938156122, 12360.11235238461, 0.054, 0.518, 0.049, 192.0, 1.5, 48.0, 16.0, 48.0, 1.5, 8.0, 0.0, 0.0, 0.0, 1.7074745416838963E9, 0.0, 2024-02-09 11:29:01.683
2.0, -9074.025937798731, -15571.163960834023, 19689.159952301976, -103.08624542787618, 47608.075750836826, 19607.7772507402, 36054.83902154434, 11268.542560165235, 33493.373810455065, 3294.6918362011716, 39497.56646127301, 28731.088785062886, 41316.909052957184, 36197.26433721356, 30615.20673217854, 25007.623434975558, 0.054, 0.518, 0.049, 192.0, 0.0, 0.0, 0.0, 0.0, 0.0, 0.0, 0.0, 0.0, 0.0, 1.7074745416905797E9, 0.0, 2024-02-09 11:29:01.690
4.0, -9220.787491892277, -15677.357098741186, 19584.35262255104, -151.20955124015228, 47253.37591807555, 19478.494760810707, 35866.14559485264, 11086.375842854482, 33319.90192173742, 3082.7749470204053, 39390.926288476745, 28624.694481455623, 41300.07818938234, 36075.58144039887, 30563.350685042227, 24977.247414260797, 0.054, 0.518, 0.049, 192.0, 0.0, 0.0, 0.0, 0.0, 0.0, 0.0, 0.0, 0.0, 0.0, 1.7074745416975925E9, 0.0, 2024-02-09 11:29:01.697
6.0, -9123.222127344863, -15629.412606884553, 19657.241661219796, -174.92475210723308, 47476.31221727279, 19556.323535004085, 35981.5923549643, 11190.93730341641, 33208.634937838906, 2944.44000058651, 39182.719788875555, 28583.299050724396, 40966.187830708965, 35967.37664549072, 30469.518061818846, 24848.948401087335, 0.054, 0.518, 0.049, 192.0, 0.0, 0.0, 0.0, 0.0, 0.0, 0.0, 0.0, 0.0, 0.0, 1.707474541706632E9, 0.0, 2024-02-09 11:29:01.706
8.0, -9202.883744583576, -15675.278386506843, 19594.790887211668, -170.63321717181412, 47436.39200167561, 19517.789127563137, 35951.93159007211, 11163.087029825096, 33446.30103663219, 2916.2991543172784, 39544.84040079599, 28634.9092286717, 41502.58499414742, 36197.75607559158, 30629.15422071865, 25022.509696782792, 0.098, 1.03, 0.11, 192.0, 1.5, 8.0, 16.0, 24.0, 1.5, 56.0, 0.0, 0.0, 0.0, 1.7074745417136316E9, 0.0, 2024-02-09 11:29:01.713
10.0, -9205.096567284652, -15675.747773140405, 19598.098945391055, -179.68567367621347, 47258.650929767005, 19485.826132992046, 35864.53626925186, 11083.403060841925, 33128.63804443336, 2820.767798515296, 39114.435209564595, 28538.21558215804, 40973.63096161258, 35950.72459587152, 30427.988520620886, 24826.797822332126, 0.098, 1.03, 0.11, 192.0, 0.0, 0.0, 0.0, 0.0, 0.0, 0.0, 0.0, 0.0, 0.0, 1.7074745417216632E9, 0.0, 2024-02-09 11:29:01.721
12.0, -9137.61665077408, -15647.025781515335, 19648.79270181569, -188.44755750269385, 47580.80662260135, 19568.818160154602, 36061.27632394747, 11258.685440860443, 33390.71224817184, 2817.6609060360083, 39419.98355626864, 28616.960777874086, 41324.10631467179, 36126.43165903469, 30585.09893239724, 24956.192070983896, 0.098, 1.03, 0.11, 192.0, 0.0, 0.0, 0.0, 0.0, 0.0, 0.0, 0.0, 0.0, 0.0, 1.7074745417296479E9, 0.0, 2024-02-09 11:29:01.729
14.0, -9247.475474771914, -15703.463936264985, 19568.438180498862, -178.03164458652074, 47224.810388661674, 19466.60363276048, 35856.28847554785, 11109.286380921172, 33267.01769435617, 2748.1693325244587, 39348.05564261146, 28566.75875982747, 41323.10048617131, 36065.16552748269, 30542.13887955414, 24951.855832559566, 0.098, 1.03, 0.11, 192.0, 0.0, 0.0, 0.0, 0.0, 0.0, 0.0, 0.0, 0.0, 0.0, 1.7074745417386444E9, 0.0, 2024-02-09 11:29:01.738
16.0, -9142.511682809793, -15651.876110062136, 19643.584745357603, -200.87512741984457, 47437.77780983184, 19526.52865964516, 35967.35429374627, 11173.793515419187, 33183.19865264877, 2714.999343752783, 39164.5925241223, 28562.22135570304, 40988.696037375455, 35989.37076203475, 30450.049692398276, 24827.24485722123, 0.098, 1.03, 0.11, 192.0, 0.0, 0.0, 0.0, 0.0, 0.0, 0.0, 0.0, 0.0, 0.0, 1.7074745417456741E9, 0.0, 2024-02-09 11:29:01.745
18.0, -9227.403608251048, -15705.229724076955, 19577.2224160698, -202.99854314309874, 47389.07335866372, 19475.141999142408, 35931.23387470649, 11139.952974313854, 33416.975547906826, 2716.385151909012, 39526.66843255382, 28606.678975424646, 41500.17100574625, 36162.55207807447, 30606.802476263343, 24995.173513313952, 0.096, 1.04, 0.122, 192.0, 1.5, 0.0, 16.0, 64.0, 1.5, 104.0, 0.0, 0.0, 0.0, 1.707474541753893E9, 0.0, 2024-02-09 11:29:01.753
20.0, -9233.863262398632, -15702.033424619845, 19580.195198082354, -198.14821459629712, 47206.03492331922, 19465.79896996009, 35836.66364391609, 11076.898703205432, 33082.392285155336, 2637.014107348217, 39099.2807268239, 28505.89495967567, 40946.607702566114, 35926.91998802662, 30396.897244083553, 24803.82022903207, 0.096, 1.04, 0.122, 192.0, 0.0, 0.0, 0.0, 0.0, 0.0, 0.0, 0.0, 0.0, 0.0, 1.7074745417626934E9, 0.0, 2024-02-09 11:29:01.762
22.0, -9163.745840042335, -15674.808999873281, 19624.518707337225, -210.7545984690903, 47527.810636497816, 19525.34401718903, 35986.35327653328, 11186.668120225444, 33348.310988940124, 2680.3094363581463, 39407.198358440204, 28592.7985421179, 41271.065625079355, 36083.56101316941, 30541.893010365133, 24916.629483298002, 0.096, 1.04, 0.122, 192.0, 0.0, 0.0, 0.0, 0.0, 0.0, 0.0, 0.0, 0.0, 0.0, 1.7074745417698936E9, 0.0, 2024-02-09 11:29:01.769
24.0, -9287.08276594672, -15749.195605420544, 19539.91735457389, -221.05875266298685, 47183.86199281955, 19420.581390927004, 35803.76187607788, 11041.650002199412, 33227.87978981493, 2621.5019966962336, 39325.92741560071, 28531.17478265462, 41260.24738076298, 36022.78661999543, 30496.586024354223, 24899.30688134514, 0.096, 1.04, 0.122, 192.0, 0.0, 0.0, 0.0, 0.0, 0.0, 0.0, 0.0, 0.0, 0.0, 1.7074745417777529E9, 0.0, 2024-02-09 11:29:01.777
26.0, -9181.806049562223, -15690.477572736452, 19615.421547343918, -215.94020318272152, 47409.77107402934, 19503.305197156096, 35920.482685623494, 11118.96468627032, 33141.244428306156, 2608.7615023567087, 39134.52942782992, 28513.159276623643, 40908.83325443664, 35918.873360022706, 30409.280110511794, 24777.91455720837, 0.096, 1.04, 0.122, 192.0, 0.0, 0.0, 0.0, 0.0, 0.0, 0.0, 0.0, 0.0, 0.0, 1.7074745417857444E9, 0.0, 2024-02-09 11:29:01.785
28.0, -9246.06731487123, -15729.079035410767, 19571.098038089043, -204.56316525497024, 47379.05977714775, 19484.641490535916, 35894.64406903316, 11114.516689123713, 33393.550919717665, 2684.2433433822803, 39510.61988003491, 28581.13093151223, 41432.624034002314, 36126.990452646074, 30583.444903307547, 24969.625469401537, 0.092, 1.044, 0.134, 192.0, 1.0, 112.0, 16.0, 80.0, 2.0, 24.0, 0.0, 0.0, 0.0, 1.7074745417937565E9, 0.0, 2024-02-09 11:29:01.793
30.0, -9252.54932076327, -15726.754453987414, 19585.15728535143, -199.7128367081686, 47211.06406582166, 19476.930138698834, 35815.87652157265, 11047.841435413533, 33059.928781977746, 2661.3328053155906, 39093.111645354234, 28493.132113591688, 40878.56899244416, 35886.083350906774, 30393.81270334872, 24789.62687130295, 0.092, 1.044, 0.134, 192.0, 0.0, 0.0, 0.0, 0.0, 0.0, 0.0, 0.0, 0.0, 0.0, 1.7074745418017893E9, 0.0, 2024-02-09 11:29:01.801
32.0, -9186.946950786943, -15701.92166589757, 19623.937561981387, -221.93047069674384, 47534.82908425678, 19528.808537579604, 35973.07634032683, 11140.735285369788, 33320.84069500455, 2787.0837196211482, 39403.84559677191, 28578.918108811155, 41188.833557228274, 36061.38808266975, 30543.792908643834, 24901.475000557304, 0.092, 1.044, 0.134, 192.0, 0.0, 0.0, 0.0, 0.0, 0.0, 0.0, 0.0, 0.0, 0.0, 1.7074745418098223E9, 0.0, 2024-02-09 11:29:01.809
34.0, -9288.26740840285, -15756.50462585743, 19553.48486345826, -200.51749950855967, 47198.14475752649, 19462.155635613875, 35814.33425120524, 11024.863842113476, 33205.77391454863, 2836.056391722726, 39330.30835751395, 28523.776355239912, 41178.507051289926, 35994.086980114815, 30509.08064950474, 24899.17277087841, 0.092, 1.044, 0.134, 192.0, 0.0, 0.0, 0.0, 0.0, 0.0, 0.0, 0.0, 0.0, 0.0, 1.7074745418187635E9, 0.0, 2024-02-09 11:29:01.818
36.0, -9180.19672396144, -15700.133526341144, 19626.239791660286, -218.0412671615204, 47420.25404217888, 19528.786185835146, 35946.16484000264, 11114.181412956885, 33131.61082644592, 2957.7169367929623, 39145.548837846385, 28533.23114314451, 40826.645890074484, 35903.562415070824, 30434.26936081283, 24791.9514527263, 0.092, 1.044, 0.134, 192.0, 0.0, 0.0, 0.0, 0.0, 0.0, 0.0, 0.0, 0.0, 0.0, 1.707474541824791E9, 0.0, 2024-02-09 11:29:01.824
38.0, -9266.11682964764, -15749.352067631731, 19555.094189059044, -226.02083993206503, 47371.25901833284, 19481.847522479, 35913.285423908885, 11079.983243940263, 33369.67925663939, 3081.2550283974447, 39512.58683354698, 28582.874367579745, 41338.63494856774, 36085.21504225911, 30600.38752560467, 24972.531196180727, 0.084, 1.014, 0.148, 192.0, 1.0, 80.0, 15.5, 88.0, 2.0, 80.0, 0.0, 0.0, 0.0, 1.707474541834048E9, 0.0, 2024-02-09 11:29:01.834
40.0, -9368.018432619385, -15813.166298051632, 19406.61155064244, -301.8826606133772, 47064.68249138385, 19403.728175607703, 35772.67059954054, 10958.859140736955, 32980.378923461314, 3077.723452773506, 39044.60835988622, 28453.39071195015, 40699.129187956954, 35813.68605061604, 30359.793348287745, 24763.542385523604, 0.084, 1.014, 0.148, 192.0, 0.0, 0.0, 0.0, 0.0, 0.0, 0.0, 0.0, 0.0, 0.0, 1.7074745418418295E9, 0.0, 2024-02-09 11:29:01.841
42.0, -9256.818503954233, -15762.0702102268, 19493.13515342893, -346.07205940151925, 47426.26666143735, 19453.058475620568, 35963.59920067778, 11103.474927362791, 33050.004607439594, 3127.232566742011, 39216.29210904743, 28457.682246885568, 40838.02292800223, 35866.19029834155, 30405.904997099045, 24817.0077582607, 0.084, 1.014, 0.148, 192.0, 0.0, 0.0, 0.0, 0.0, 0.0, 0.0, 0.0, 0.0, 0.0, 1.7074745418497899E9, 0.0, 2024-02-09 11:29:01.849
44.0, -9280.444297843493, -15742.512433828406, 19518.549086874616, -209.1899763572188, 47177.46939390533, 19442.195527815285, 35857.60722847071, 11021.533432189635, 33179.71178051374, 3122.628107384218, 39259.766252013, 28408.03902245033, 40957.22478118238, 35794.37414340665, 30436.79510793628, 24820.651092606913, 0.084, 1.014, 0.148, 192.0, 0.0, 0.0, 0.0, 0.0, 0.0, 0.0, 0.0, 0.0, 0.0, 1.7074745418578775E9, 0.0, 2024-02-09 11:29:01.857
46.0, -9133.503929794304, -15638.129787222122, 19704.113269342575, -150.49429541758246, 47495.49001401544, 19572.953232878834, 36029.15686716519, 11152.916986097931, 33275.39959852691, 3648.3634887174953, 39223.66818471768, 28633.970455404575, 40972.468670900904, 36070.06055951841, 30509.12535299365, 24859.811348892614, 0.084, 1.014, 0.148, 192.0, 0.0, 0.0, 0.0, 0.0, 0.0, 0.0, 0.0, 0.0, 0.0, 1.7074745418658812E9, 0.0, 2024-02-09 11:29:01.865
48.0, -9231.49397748637, -15717.947866672024, 19602.189314626376, -191.42033951524968, 47435.743801086406, 19506.993234991223, 35974.97623860553, 11119.568183370613, 33410.1359141035, 3465.928550473279, 39535.45266812476, 28592.84324560681, 41348.022681238974, 36137.831048706896, 30644.621627881723, 24997.676908692945, 0.062, 1.01, 0.138, 192.0, 0.5, 120.0, 15.5, 72.0, 2.0, 40.0, 0.0, 0.0, 0.0, 1.707474541873908E9, 0.0, 2024-02-09 11:29:01.873
50.0, -9234.645573454569, -15688.510619224386, 19601.63052101499, -177.249333530585, 47239.853112680095, 19480.32760385604, 35886.30686835133, 11022.51690894567, 33084.42629390077, 3522.433760456295, 39117.89972995517, 28541.814213015346, 40796.11340714853, 35901.05901969183, 30437.420956781025, 24796.555912084095, 0.062, 1.01, 0.138, 192.0, 0.0, 0.0, 0.0, 0.0, 0.0, 0.0, 0.0, 0.0, 0.0, 1.7074745418810976E9, 0.0, 2024-02-09 11:29:01.881
52.0, -9212.91967784401, -15753.174215933588, 19571.053334600132, -305.3024775150392, 47503.000200152426, 19473.37621133044, 36017.75747749299, 11108.973456498798, 33320.2148461598, 3356.2038369421766, 39383.90784071777, 28566.26702144945, 41109.39545743412, 35962.414558221644, 30558.43330126206, 24874.183520577375, 0.062, 1.01, 0.138, 192.0, 0.0, 0.0, 0.0, 0.0, 0.0, 0.0, 0.0, 0.0, 0.0, 1.7074745418900707E9, 0.0, 2024-02-09 11:29:01.890
54.0, -9373.338147799748, -15844.101112377777, 19403.012919785135, -341.0429168990752, 47110.66002972842, 19371.83223626998, 35826.51595193338, 10963.284786139106, 33124.950006598236, 2878.4352992099884, 39231.29012957694, 28328.623274400627, 41042.1390583681, 35728.05651760775, 30454.162413378053, 24819.66761585088, 0.062, 1.01, 0.138, 192.0, 0.0, 0.0, 0.0, 0.0, 0.0, 0.0, 0.0, 0.0, 0.0, 1.707474541898057E9, 0.0, 2024-02-09 11:29:01.898
56.0, -9201.877916083087, -15671.590348671718, 19571.43331425587, -210.7993019580009, 47400.47274833593, 19508.11082221399, 35993.08115161433, 11072.7636304812, 32955.210859204635, 3337.830702999914, 39049.1681157551, 28508.443058543573, 40763.88219164398, 35974.14922406068, 30375.48427289537, 24763.005943656677, 0.062, 1.01, 0.138, 192.0, 0.0, 0.0, 0.0, 0.0, 0.0, 0.0, 0.0, 0.0, 0.0, 1.7074745419050074E9, 0.0, 2024-02-09 11:29:01.905
58.0, -9384.916351427597, -15906.708348597092, 19374.715611304717, -429.98050808674196, 47269.02213919427, 19382.873998030904, 35915.319432654316, 11059.799618697121, 33329.222599175286, 3053.114182128213, 39477.740463941154, 28505.44792478656, 41346.23454168255, 36069.4123589292, 30579.734513727966, 24966.36211471106, 0.094, 1.004, 0.128, 192.0, 1.0, 120.0, 15.5, 48.0, 2.0, 0.0, 0.0, 0.0, 0.0, 1.7074745419129508E9, 0.0, 2024-02-09 11:29:01.912
60.0, -9268.016727926342, -15748.59210832025, 19492.442249350817, -218.91298519527737, 47115.353896064036, 19421.900143849867, 35849.42649000007, 11034.117464317975, 32694.70127757803, 2521.075608858539, 38885.821567275714, 28236.511735500306, 40510.949851387726, 35601.277423057254, 30228.74507054628, 24665.64174480936, 0.094, 1.004, 0.128, 192.0, 0.0, 0.0, 0.0, 0.0, 0.0, 0.0, 0.0, 0.0, 0.0, 1.7074745419219444E9, 0.0, 2024-02-09 11:29:01.921
62.0, -9056.770391079235, -15533.188347004456, 19793.274377974794, -35.56162542839353, 47681.43417613914, 19644.881146536012, 36132.42192654871, 11289.240275530849, 33558.50679379783, 3165.3422910383097, 39537.956063503756, 28746.265619548038, 41470.53259259851, 36202.137017504814, 30634.406880665647, 24992.781876657235, 0.094, 1.004, 0.128, 192.0, 0.0, 0.0, 0.0, 0.0, 0.0, 0.0, 0.0, 0.0, 0.0, 1.7074745419299684E9, 0.0, 2024-02-09 11:29:01.929
64.0, -9315.760054082877, -15798.324739733309, 19524.069967755077, -198.32702855193958, 47219.46832173685, 19476.773676487646, 35862.6140192287, 11088.298092877638, 33346.38873891696, 2887.7112731589405, 39414.37326841036, 28624.627426222258, 41311.678744754645, 36133.94184517168, 30593.63729877917, 25001.789629672723, 0.094, 1.004, 0.128, 192.0, 0.0, 0.0, 0.0, 0.0, 0.0, 0.0, 0.0, 0.0, 0.0, 1.707474541937004E9, 0.0, 2024-02-09 11:29:01.937
66.0, -9252.750486463367, -15733.169404646089, 19562.11263681801, -304.6095734369247, 47417.63888807761, 19489.782391760637, 35996.32215456035, 11187.673948725933, 32955.59083886038, 2435.781352017087, 39053.906685579626, 28416.175057432065, 40819.873311504525, 35802.08549524373, 30405.837941865677, 24780.57441479855, 0.094, 1.004, 0.128, 192.0, 0.0, 0.0, 0.0, 0.0, 0.0, 0.0, 0.0, 0.0, 0.0, 1.7074745419460025E9, 0.0, 2024-02-09 11:29:01.946
68.0, -9257.153780121062, -15698.099517595712, 19538.017456295187, -122.1299317037978, 47393.61076278815, 19555.474168714783, 35974.104520571775, 11202.828431466633, 33391.06987608312, 2620.9655548293063, 39477.98633313016, 28560.857899291266, 41426.81258044393, 36238.23508480014, 30599.96284246002, 25007.176400086453, 0.08499999999999999, 1.0230000000000001, 0.127, 192.0, 1.0, 48.0, 16.0, 72.0, 1.5, 120.0, 0.0, 0.0, 0.0, 1.7074745419540172E9, 0.0, 2024-02-09 11:29:01.954
70.0, -9176.91101752651, -15602.188182137988, 19679.302832997186, -63.16602983069776, 47300.806319809715, 19565.890081630958, 35923.85779903625, 11153.989869831787, 33089.16486372529, 2753.377288982545, 39119.84433172278, 28605.159056801687, 40936.32590011667, 35995.11516035976, 30434.02349162382, 24880.35260204704, 0.08499999999999999, 1.0230000000000001, 0.127, 192.0, 0.0, 0.0, 0.0, 0.0, 0.0, 0.0, 0.0, 0.0, 0.0, 1.7074745419612105E9, 0.0, 2024-02-09 11:29:01.961
72.0, -9181.113145484107, -15687.86241863518, 19630.307809151152, -213.28034559254, 47549.31301466382, 19558.558709449615, 36001.999497651996, 11221.425082853448, 33502.42626695946, 2593.2046882158147, 39488.42459779079, 28653.81880448089, 41373.92835306268, 36134.85826669434, 30629.467145141025, 24989.093838822108, 0.08499999999999999, 1.0230000000000001, 0.127, 192.0, 0.0, 0.0, 0.0, 0.0, 0.0, 0.0, 0.0, 0.0, 0.0, 1.7074745419690328E9, 0.0, 2024-02-09 11:29:01.969
74.0, -9285.853420001677, -15688.689433180027, 19558.849282127536, -137.41852491122782, 47215.06502807916, 19480.23819687822, 35828.9075885901, 11098.266970904706, 33108.14149476785, 2438.1506369293497, 39297.518348398014, 28515.12623013571, 41268.42811923363, 36048.11114646329, 30518.624844387155, 24929.34762589307, 0.08499999999999999, 1.0230000000000001, 0.127, 192.0, 0.0, 0.0, 0.0, 0.0, 0.0, 0.0, 0.0, 0.0, 0.0, 1.70747454197807E9, 0.0, 2024-02-09 11:29:01.978
76.0, -9167.791505788744, -15657.62050838715, 19622.21647765833, -181.96555161065479, 47398.259925634855, 19521.05248225361, 35910.46910410751, 11131.548718398657, 33158.03058839209, 2493.2923905005923, 39161.060948498365, 28582.114408268262, 40985.81266234072, 35958.27948549741, 30442.11482311664, 24830.35174970052, 0.08499999999999999, 1.0230000000000001, 0.127, 192.0, 0.0, 0.0, 0.0, 0.0, 0.0, 0.0, 0.0, 0.0, 0.0, 1.7074745419861033E9, 0.0, 2024-02-09 11:29:01.986
78.0, -9218.06057906873, -15702.77103218687, 19556.859976871012, -197.03062737353176, 47359.85962866064, 19491.771697017157, 35877.835557202765, 11108.146441953952, 33444.0435104422, 2385.177002570272, 39520.611109806436, 28593.17852177364, 41425.829103687895, 36144.04483366547, 30579.734513727966, 24981.158969540476, 0.0715, 1.0335, 0.1265, 192.0, 0.5, 104.0, 16.0, 80.0, 1.5, 120.0, 0.0, 0.0, 0.0, 1.7074745419931047E9, 0.0, 2024-02-09 11:29:01.993
80.0, -9251.051753884763, -15712.069357880278, 19565.26423278621, -213.21329035917407, 47167.74638506727, 19457.595879744993, 35779.2420124104, 10996.521830144147, 33112.67889889227, 2289.0421496679965, 39098.006677389945, 28495.97078513751, 41002.91174684903, 35904.478836593495, 30392.76217135932, 24785.96118521228, 0.0715, 1.0335, 0.1265, 192.0, 0.0, 0.0, 0.0, 0.0, 0.0, 0.0, 0.0, 0.0, 0.0, 1.7074745420020866E9, 0.0, 2024-02-09 11:29:02.002
82.0, -9113.99085688482, -15628.965571995446, 19712.115193857575, -160.217304255641, 47586.61807615973, 19592.958044166335, 36014.56117803588, 11210.517431559258, 33441.7412807633, 2440.6093288194334, 39457.57919044247, 28633.90340017121, 41416.03903961647, 36099.49780696604, 30597.68296452558, 24934.60028584007, 0.0715, 1.0335, 0.1265, 192.0, 0.0, 0.0, 0.0, 0.0, 0.0, 0.0, 0.0, 0.0, 0.0, 1.7074745420101023E9, 0.0, 2024-02-09 11:29:02.010
84.0, -9280.578408310224, -15746.245175152442, 19516.492726384728, -207.89357517881098, 47172.21673395833, 19458.42289428984, 35799.045657997805, 11026.227298525251, 33314.626910045976, 2322.055676228485, 39369.08863414391, 28549.369102641238, 41321.84878848181, 36033.806030011896, 30542.518859209882, 24923.9832072238, 0.0715, 1.0335, 0.1265, 192.0, 0.0, 0.0, 0.0, 0.0, 0.0, 0.0, 0.0, 0.0, 0.0, 1.7074745420171268E9, 0.0, 2024-02-09 11:29:02.017
86.0, -9163.72348829788, -15673.780819628337, 19641.30486742316, -200.13751985281945, 47419.80700728977, 19536.810462094603, 35939.66048236615, 11118.137671725473, 33172.000428676656, 2296.2394113826053, 39123.867645724735, 28517.98725342599, 40991.847633343656, 35914.87239776521, 30433.01766312333, 24780.95439445429, 0.0715, 1.0335, 0.1265, 192.0, 0.0, 0.0, 0.0, 0.0, 0.0, 0.0, 0.0, 0.0, 0.0, 1.7074745420274036E9, 0.0, 2024-02-09 11:29:02.027
88.0, -9222.776797148801, -15710.862363679691, 19599.30593959164, -198.30467680748427, 47418.28708866681, 19512.558819360594, 35925.1318484702, 11106.224191930794, 33474.33012417914, 2334.0138595120743, 39559.79371783659, 28600.46519046607, 41585.934649221264, 36136.087612639385, 30651.34950296277, 24985.51755970926, 0.057749999999999996, 1.01875, 0.12825, 192.0, 0.5, 48.0, 15.5, 48.0, 2.0, 8.0, 0.0, 0.0, 0.0, 1.7074745420341632E9, 0.0, 2024-02-09 11:29:02.034
90.0, -9242.960422391943, -15717.433776549553, 19561.10680831752, -211.1345781248305, 47197.47420519283, 19475.924310198345, 35845.827859142766, 11029.490653215726, 33123.7206606532, 2264.0305476225076, 39122.01245093494, 28491.187511824075, 40999.89426134757, 35882.08238864927, 30437.689177714492, 24783.748362511204, 0.057749999999999996, 1.01875, 0.12825, 192.0, 0.0, 0.0, 0.0, 0.0, 0.0, 0.0, 0.0, 0.0, 0.0, 1.7074745420411544E9, 0.0, 2024-02-09 11:29:02.041
92.0, -9169.736107556357, -15686.655424434593, 19611.152364152953, -218.15302588379694, 47522.08858991726, 19556.658811170913, 36024.59711129631, 11186.109326614062, 33367.108806027034, 2321.340420405915, 39403.42091362726, 28580.75095185649, 41290.779863688935, 36047.306483662906, 30573.90070842513, 24901.475000557304, 0.057749999999999996, 1.01875, 0.12825, 192.0, 0.0, 0.0, 0.0, 0.0, 0.0, 0.0, 0.0, 0.0, 0.0, 1.7074745420491729E9, 0.0, 2024-02-09 11:29:02.049
94.0, -9285.384033368115, -15746.468692596996, 19528.62972362396, -204.36199955487248, 47193.29442897969, 19465.75426647118, 35857.38371102616, 11057.497389018225, 33261.22859254225, 2270.467850025636, 39348.12269784483, 28524.335148851296, 41311.03054416544, 35985.54861373289, 30550.09610058023, 24909.298111116663, 0.057749999999999996, 1.01875, 0.12825, 192.0, 0.0, 0.0, 0.0, 0.0, 0.0, 0.0, 0.0, 0.0, 0.0, 1.707474542057181E9, 0.0, 2024-02-09 11:29:02.057
96.0, -9172.507723868815, -15681.022784831857, 19608.313692607127, -207.20067110069647, 47408.1393966841, 19540.923183074377, 35974.90918337216, 11152.537006442191, 33158.2764575811, 2278.849754196376, 39140.51969534394, 28522.144677894674, 40952.0168247243, 35877.63439150267, 30466.50057631738, 24793.784295771635, 0.057749999999999996, 1.01875, 0.12825, 192.0, 0.0, 0.0, 0.0, 0.0, 0.0, 0.0, 0.0, 0.0, 0.0, 1.707474542066193E9, 0.0, 2024-02-09 11:29:02.066
98.0, -9232.231585053396, -15719.199564361521, 19561.06210482861, -204.60786874388086, 47412.587393830705, 19517.699720585315, 35974.864479883254, 11154.772180887721, 33414.49450427228, 2312.7126470461667, 39525.5284935866, 28579.052219277888, 41501.95914530267, 36063.511498393, 30644.196944737072, 24983.304737008184, 0.055874999999999994, 1.002375, 0.130125, 192.0, 0.5, 88.0, 15.0, 104.0, 2.0, 16.0, 0.0, 0.0, 0.0, 1.7074745420731792E9, 0.0, 2024-02-09 11:29:02.073
100.0, -9238.177149078507, -15711.39880554662, 19566.426523497885, -195.53306049502618, 47213.94744085639, 19488.396583604408, 35886.083350906774, 11073.344775837038, 33090.93065153726, 2274.8711436833314, 39106.813264705335, 28486.180721066085, 40979.42006342651, 35819.877483830154, 30449.289733086796, 24801.04861271961, 0.055874999999999994, 1.002375, 0.130125, 192.0, 0.0, 0.0, 0.0, 0.0, 0.0, 0.0, 0.0, 0.0, 0.0, 1.7074745420812087E9, 0.0, 2024-02-09 11:29:02.081
102.0, -9161.220092918884, -15672.238549260921, 19622.127070680508, -203.24441233210712, 47553.89512227716, 19568.59464271005, 36064.51732689349, 11217.960562462875, 33350.054425007635, 2361.439449958736, 39393.586146066926, 28576.504120409983, 41277.65938969367, 35976.049122339384, 30589.412819077115, 24914.77428850821, 0.055874999999999994, 1.002375, 0.130125, 192.0, 0.0, 0.0, 0.0, 0.0, 0.0, 0.0, 0.0, 0.0, 0.0, 1.7074745420902772E9, 0.0, 2024-02-09 11:29:02.090
104.0, -9274.878713474121, -15723.535802785851, 19548.299258744628, -189.34162728090612, 47225.25742355078, 19478.628871277437, 35895.314621366815, 11079.536209051157, 33250.991493581714, 2376.4151187437915, 39354.850572925876, 28522.569361039325, 41324.35218386081, 35913.75481054244, 30564.44592052054, 24925.301960146662, 0.055874999999999994, 1.002375, 0.130125, 192.0, 0.0, 0.0, 0.0, 0.0, 0.0, 0.0, 0.0, 0.0, 0.0, 1.707474542097248E9, 0.0, 2024-02-09 11:29:02.097
106.0, -9181.671939095491, -15671.165665527067, 19610.9288467084, -210.62048800235846, 47421.99747824639, 19526.707473600803, 35981.5923549643, 11126.944259040863, 33148.19582083176, 2497.718035902743, 39137.97159647603, 28513.65101500166, 40959.66112132801, 35805.840588312225, 30466.098244917186, 24798.38875512943, 0.055874999999999994, 1.002375, 0.130125, 192.0, 0.0, 0.0, 0.0, 0.0, 0.0, 0.0, 0.0, 0.0, 0.0, 1.7074745421052125E9, 0.0, 2024-02-09 11:29:02.105
108.0, -9253.465742285936, -15727.268544109887, 19539.24680224023, -234.89448248082192, 47406.06068444976, 19495.169162174363, 35984.16280557666, 11180.45433526687, 33374.82015786412, 2668.485363541289, 39498.61699326241, 28549.570268341336, 41436.35677532635, 35956.40193896317, 30619.610025836235, 24960.349495452585, 0.057937499999999996, 0.9981875, 0.1250625, 192.0, 0.5, 112.0, 15.5, 8.0, 1.5, 96.0, 0.0, 0.0, 0.0, 1.7074745421132908E9, 0.0, 2024-02-09 11:29:02.113
110.0, -9247.386067794094, -15706.0567386218, 19566.87355838699, -226.2220056321628, 47235.226301577844, 19472.52684504114, 35906.13286568318, 11112.862660034021, 33062.47688084566, 2716.7874833092073, 39090.85411916424, 28426.38980464814, 40956.040138726254, 35613.660289485495, 30440.527849260314, 24782.60842354398, 0.057937499999999996, 0.9981875, 0.1250625, 192.0, 0.0, 0.0, 0.0, 0.0, 0.0, 0.0, 0.0, 0.0, 0.0, 1.7074745421222632E9, 0.0, 2024-02-09 11:29:02.122
112.0, -9212.20442202144, -15703.307474053798, 19525.478127655762, -241.1529709283079, 47485.56583947728, 19538.95622956231, 36023.14424790672, 11194.267713340249, 33303.67455526287, 3147.0585640738686, 39370.80971846697, 28580.125103011742, 41176.09306288875, 35954.457337195556, 30567.977496144475, 24899.619805767514, 0.057937499999999996, 0.9981875, 0.1250625, 192.0, 0.0, 0.0, 0.0, 0.0, 0.0, 0.0, 0.0, 0.0, 0.0, 1.7074745421292553E9, 0.0, 2024-02-09 11:29:02.129
114.0, -9262.40644006806, -15690.678738436549, 19582.005689383233, -146.4709814156272, 47274.453613096906, 19512.648226338413, 35927.27761593791, 11128.10654975254, 33194.95567023226, 3168.9632736400695, 39318.841912608375, 28502.8774741742, 41215.834464530286, 35872.09115887775, 30532.460574204993, 24921.97155022282, 0.057937499999999996, 0.9981875, 0.1250625, 192.0, 0.0, 0.0, 0.0, 0.0, 0.0, 0.0, 0.0, 0.0, 0.0, 1.7074745421373036E9, 0.0, 2024-02-09 11:29:02.137
116.0, -9182.029567006775, -15661.86733983366, 19626.038625960187, -181.92084812174417, 47418.97999274493, 19561.039753084155, 35996.612727238266, 11200.280332598726, 33118.9150355953, 3385.9093053232796, 39153.439003639105, 28548.072701462832, 40926.58053953416, 35768.17789890503, 30481.23037591343, 24839.694778882837, 0.057937499999999996, 0.9981875, 0.1250625, 192.0, 0.0, 0.0, 0.0, 0.0, 0.0, 0.0, 0.0, 0.0, 0.0, 1.7074745421454442E9, 0.0, 2024-02-09 11:29:02.145
118.0, -9216.8759366126, -15689.695261680516, 19603.50806754924, -164.5535426799706, 47443.76807734586, 19546.9134505884, 35986.17446257764, 11241.206376696395, 33392.343925517074, 3399.677979907749, 39539.78890654909, 28588.50700718248, 41424.443295531666, 36034.6553963012, 30638.743119089977, 25026.533010784748, 0.05996875, 1.0150937500000001, 0.11653125, 192.0, 0.5, 120.0, 16.0, 32.0, 1.5, 48.0, 0.0, 0.0, 0.0, 1.7074745421533751E9, 0.0, 2024-02-09 11:29:02.153
120.0, -9232.991544364875, -15695.640825705628, 19603.575122782604, -176.10939456336433, 47228.34196428561, 19491.794048761614, 35852.5110307349, 11141.562299914634, 33091.28827944854, 3396.2581630060868, 39143.60423607877, 28507.481933531995, 40957.448298626936, 35769.630762294626, 30459.59388728069, 24832.54222065714, 0.05996875, 1.0150937500000001, 0.11653125, 192.0, 0.0, 0.0, 0.0, 0.0, 0.0, 0.0, 0.0, 0.0, 0.0, 1.7074745421613097E9, 0.0, 2024-02-09 11:29:02.161
122.0, -9170.697232567934, -15680.463991220475, 19626.575067827114, -206.5971740004032, 47537.48894184696, 19552.166110535396, 35988.32023004535, 11247.643679099523, 33323.09822119454, 3430.6574977228047, 39409.34412590792, 28570.42444591814, 41190.19701364005, 35906.40108661665, 30579.108664883217, 24910.482753572793, 0.05996875, 1.0150937500000001, 0.11653125, 192.0, 0.0, 0.0, 0.0, 0.0, 0.0, 0.0, 0.0, 0.0, 0.0, 1.7074745421693354E9, 0.0, 2024-02-09 11:29:02.169
124.0, -9333.686153136034, -15803.733861891493, 19471.18574037382, -307.984686849676, 47138.04091668617, 19391.881751046392, 35782.52771884533, 11036.777321908155, 33172.87214671042, 3345.5420548369952, 39314.63978465078, 28472.702619159536, 41101.84056780822, 35815.42948668355, 30499.13412322213, 24879.860863669022, 0.05996875, 1.0150937500000001, 0.11653125, 192.0, 0.0, 0.0, 0.0, 0.0, 0.0, 0.0, 0.0, 0.0, 0.0, 1.7074745421784267E9, 0.0, 2024-02-09 11:29:02.178
126.0, -9182.521305384793, -15706.97316014447, 19641.215460445343, -257.76031705860106, 47448.19372274801, 19517.833831052045, 35952.19981100557, 11144.669192393923, 33124.63708217586, 3317.624726012317, 39133.165971418144, 28438.0127117649, 40907.06746662468, 35568.39800696349, 30432.794145678778, 24731.735853163704, 0.05996875, 1.0150937500000001, 0.11653125, 192.0, 0.0, 0.0, 0.0, 0.0, 0.0, 0.0, 0.0, 0.0, 0.0, 1.707474542186457E9, 0.0, 2024-02-09 11:29:02.186
128.0, -9263.166399379541, -15764.93123351708, 19506.613255335484, -304.00607633663134, 47383.172498127526, 19412.825335601014, 35903.94239472657, 11096.188258670361, 33288.2071480998, 3145.2927762618992, 39460.77548989958, 28447.780424091867, 41275.42421524814, 35908.748019784456, 30572.090217124252, 24908.64991052746, 0.054984375, 1.032546875, 0.11526562500000001, 192.0, 0.5, 72.0, 16.0, 104.0, 1.5, 72.0, 0.0, 0.0, 0.0, 1.7074745421934505E9, 0.0, 2024-02-09 11:29:02.193
130.0, -9206.638837652068, -15658.089895020712, 19674.40780096147, -119.09009445787603, 47278.63338931005, 19547.315781988596, 35869.27483907638, 11084.542999809146, 33156.46596628022, 3473.550495332539, 39169.35344569128, 28500.798761939855, 41075.4431576065, 35829.37697522366, 30471.954401964475, 24799.394583629917, 0.054984375, 1.032546875, 0.11526562500000001, 192.0, 0.0, 0.0, 0.0, 0.0, 0.0, 0.0, 0.0, 0.0, 0.0, 1.707474542201466E9, 0.0, 2024-02-09 11:29:02.201
132.0, -9190.031491521775, -15672.484418449929, 19616.561486311137, -207.15596761178585, 47520.45691257202, 19548.455720955815, 35970.79646239239, 11173.145314829984, 33338.40916614642, 3607.5939068310154, 39424.43155341525, 28618.815972663877, 41242.947130554574, 36016.41637282567, 30584.76365623041, 24912.717928018326, 0.054984375, 1.032546875, 0.11526562500000001, 192.0, 0.0, 0.0, 0.0, 0.0, 0.0, 0.0, 0.0, 0.0, 0.0, 1.7074745422094517E9, 0.0, 2024-02-09 11:29:02.209
134.0, -9326.108911765685, -15755.87877701268, 19504.109859956487, -210.55343276899254, 47183.571420141634, 19458.0429146341, 35806.77936157934, 11057.698554718323, 33177.20838513474, 3317.0212289120236, 39330.04013658049, 28498.49653226096, 41222.137656466686, 35877.209708358016, 30516.255559474896, 24875.9716601338, 0.054984375, 1.032546875, 0.11526562500000001, 192.0, 0.0, 0.0, 0.0, 0.0, 0.0, 0.0, 0.0, 0.0, 0.0, 1.707474542217426E9, 0.0, 2024-02-09 11:29:02.217
136.0, -9204.53777367327, -15706.280256066353, 19601.965797181823, -254.16168620129662, 47385.72059699543, 19519.01847350818, 35906.89282499466, 11138.164834757428, 33131.588474701464, 3263.198228263644, 39132.808343506855, 28517.339052836785, 40874.23275401983, 35837.3118445053, 30440.12551786012, 24762.022466900646, 0.054984375, 1.032546875, 0.11526562500000001, 192.0, 0.0, 0.0, 0.0, 0.0, 0.0, 0.0, 0.0, 0.0, 0.0, 1.7074745422256427E9, 0.0, 2024-02-09 11:29:02.225
138.0, -9374.567493744791, -15939.498357713028, 19349.771064492594, -526.137712733473, 47290.658627827004, 19314.276494297566, 35855.394405769635, 11057.877368673966, 33208.1879029498, 2648.9946423762613, 39390.07692218744, 28336.71460589345, 41235.70516535106, 35778.25853565437, 30524.19042875653, 24834.844450336033, 0.0444921875, 1.0372734375000001, 0.1196328125, 192.0, 0.5, 8.0, 16.0, 72.0, 1.5, 112.0, 0.0, 0.0, 0.0, 1.707474542234422E9, 0.0, 2024-02-09 11:29:02.234
140.0, -9314.955391282487, -15721.68060799606, 19499.66186280988, -227.11607541037506, 47185.3372079536, 19462.155635613875, 35814.155437249596, 11054.703420961312, 32930.48982983707, 2885.9678370914266, 38980.72707423295, 28281.9751837224, 40852.372747942536, 35657.93909525145, 30343.09659517963, 24639.669017752294, 0.0444921875, 1.0372734375000001, 0.1196328125, 192.0, 0.0, 0.0, 0.0, 0.0, 0.0, 0.0, 0.0, 0.0, 0.0, 1.7074745422414296E9, 0.0, 2024-02-09 11:29:02.241
142.0, -9191.998445033842, -15721.859421951704, 19681.336841742617, -191.73326393762397, 47613.55192822837, 19615.712120021835, 36030.117992176776, 11241.139321463028, 33275.041970615624, 2913.728703704918, 39365.13237537532, 28570.312687195863, 41264.04717732038, 36032.353166622306, 30562.836594919754, 24898.099887144555, 0.0444921875, 1.0372734375000001, 0.1196328125, 192.0, 0.0, 0.0, 0.0, 0.0, 0.0, 0.0, 0.0, 0.0, 0.0, 1.707474542249476E9, 0.0, 2024-02-09 11:29:02.249
144.0, -9298.191582941006, -15718.506660283407, 19555.362409992507, -215.11318863787517, 47252.52655178625, 19456.50064426668, 35835.09902180422, 11049.629574969957, 33243.302493489085, 3074.1695254051124, 39395.1507681788, 28561.17082371364, 41326.4532478396, 36041.38327138225, 30600.67809828259, 24934.22030618433, 0.0444921875, 1.0372734375000001, 0.1196328125, 192.0, 0.0, 0.0, 0.0, 0.0, 0.0, 0.0, 0.0, 0.0, 0.0, 1.7074745422575076E9, 0.0, 2024-02-09 11:29:02.257
146.0, -9246.804922438256, -15775.1236289887, 19577.870616659002, -299.4016169788381, 47414.86727176515, 19516.470374640274, 35921.84614203527, 11112.48268037828, 33142.138498084365, 2836.9057580120275, 39119.665517767135, 28491.791008924367, 40909.10147537011, 35917.91223501113, 30441.176049849517, 24747.51618474915, 0.0444921875, 1.0372734375000001, 0.1196328125, 192.0, 0.0, 0.0, 0.0, 0.0, 0.0, 0.0, 0.0, 0.0, 0.0, 1.707474542265536E9, 0.0, 2024-02-09 11:29:02.265
148.0, -9254.605681253157, -15718.484308538951, 19559.58688969456, -231.31820336797279, 47454.94394957351, 19519.890191541934, 35967.488404213, 11155.599195432567, 33329.289654408654, 2389.3567787834145, 39444.14579202483, 28390.023516419355, 41403.678524932686, 35920.57209260132, 30579.533348027868, 24893.11544813102, 0.04624609375, 1.03063671875, 0.12481640625000001, 192.0, 0.5, 64.0, 16.0, 0.0, 2.0, 8.0, 0.0, 0.0, 0.0, 1.707474542273527E9, 0.0, 2024-02-09 11:29:02.273
150.0, -9474.524494948924, -15868.531569067429, 19432.807795144057, -297.65818091132417, 47140.007870198235, 19391.16649522382, 35760.44419532349, 10963.865931494944, 33066.924877992264, 2684.4668608268335, 39141.72668954452, 28543.781166527413, 41070.19049765951, 36027.68165203115, 30464.6900850165, 24804.82605753256, 0.04624609375, 1.03063671875, 0.12481640625000001, 192.0, 0.0, 0.0, 0.0, 0.0, 0.0, 0.0, 0.0, 0.0, 0.0, 1.7074745422825584E9, 0.0, 2024-02-09 11:29:02.282
152.0, -9278.656158287067, -15776.822361567303, 19427.286914263597, -342.89811168886564, 47441.64466162261, 19449.50454825217, 35924.23777869198, 11101.396215128449, 32811.66795631265, 2383.344159524937, 39103.393447803675, 28349.365693255153, 40953.55909509172, 35823.6549286431, 30378.83703456367, 24708.89237033038, 0.04624609375, 1.03063671875, 0.12481640625000001, 192.0, 0.0, 0.0, 0.0, 0.0, 0.0, 0.0, 0.0, 0.0, 0.0, 1.7074745422895684E9, 0.0, 2024-02-09 11:29:02.289
154.0, -9271.078916916718, -15729.503718555417, 19522.840621810035, -242.62818606235817, 47232.96877538786, 19445.45888250576, 35864.402158785124, 11059.7102117193, 33271.91272639188, 2374.47051697618, 39312.561072416436, 28449.59091539275, 41257.11813653924, 35835.63546367115, 30480.76098927987, 24831.089357267545, 0.04624609375, 1.03063671875, 0.12481640625000001, 192.0, 0.0, 0.0, 0.0, 0.0, 0.0, 0.0, 0.0, 0.0, 0.0, 1.7074745422967536E9, 0.0, 2024-02-09 11:29:02.296
156.0, -9196.021759035797, -15676.10540105169, 19674.117228283554, -238.69427903822412, 47476.44632773952, 19511.19536294882, 35986.50973874447, 11129.268840464216, 33304.63568027445, 2518.3039925460807, 39233.212379600096, 28523.463430817537, 41163.129051104675, 35888.810263730324, 30501.905739534588, 24776.260528118673, 0.04624609375, 1.03063671875, 0.12481640625000001, 192.0, 0.0, 0.0, 0.0, 0.0, 0.0, 0.0, 0.0, 0.0, 0.0, 1.7074745423055947E9, 0.0, 2024-02-09 11:29:02.305
158.0, -9169.534941856258, -15673.400839972597, 19621.54592532467, -173.56129569545934, 47510.01864791139, 19552.05435181312, 36014.851750713795, 11168.83142815011, 33432.46530681435, 2466.649111109866, 39583.6430291704, 28591.144513028208, 41623.060896761526, 36196.347915690894, 30692.07438136034, 24966.876204833534, 0.057123046875, 1.022318359375, 0.131408203125, 192.0, 1.0, 16.0, 15.5, 88.0, 2.0, 40.0, 0.0, 0.0, 0.0, 1.7074745423136227E9, 0.0, 2024-02-09 11:29:02.313
160.0, -9219.982829091887, -15677.446505719008, 19578.764686437215, -192.58263022692566, 47243.630557493045, 19456.925327411333, 35873.58872575626, 11045.85213015701, 33244.66594990086, 2522.841396670508, 39162.84908805479, 28524.849238973766, 40977.095482003155, 35949.718767371036, 30461.20321288147, 24794.656013805394, 0.057123046875, 1.022318359375, 0.131408203125, 192.0, 0.0, 0.0, 0.0, 0.0, 0.0, 0.0, 0.0, 0.0, 0.0, 1.7074745423209774E9, 0.0, 2024-02-09 11:29:02.320
162.0, -9099.842202644611, -15615.778042766815, 19694.211446548874, -151.16484775124167, 47621.0397626209, 19599.082422147087, 36080.99056255705, 11241.072266229661, 33468.898650276504, 2406.791139458554, 39427.6055011279, 28584.483693180526, 41345.69809981562, 36054.570800610876, 30590.686868511068, 24898.949253433857, 0.057123046875, 1.022318359375, 0.131408203125, 192.0, 0.0, 0.0, 0.0, 0.0, 0.0, 0.0, 0.0, 0.0, 0.0, 1.7074745423286133E9, 0.0, 2024-02-09 11:29:02.328
164.0, -9236.21019556644, -15703.240418820433, 19614.862753732534, -177.04816783048724, 47293.20672669491, 19497.337281386528, 35905.86464474972, 11107.319427409104, 33421.647062497985, 2446.0855062109836, 39469.09033883695, 28583.99195480251, 41525.13790430283, 36099.520158710504, 30625.73440381699, 24952.392274426496, 0.057123046875, 1.022318359375, 0.131408203125, 192.0, 0.0, 0.0, 0.0, 0.0, 0.0, 0.0, 0.0, 0.0, 0.0, 1.7074745423376336E9, 0.0, 2024-02-09 11:29:02.337
166.0, -9147.71963926788, -15637.928621522025, 19651.877242550523, -172.60017068388115, 47448.50664717038, 19574.003764868234, 35989.95190739058, 11176.654538709467, 33242.34136847751, 2453.9086167703413, 39199.371838494764, 28550.956076497565, 41054.3878143296, 35997.104465616285, 30489.008782983874, 24808.67055757887, 0.057123046875, 1.022318359375, 0.131408203125, 192.0, 0.0, 0.0, 0.0, 0.0, 0.0, 0.0, 0.0, 0.0, 0.0, 1.707474542344648E9, 0.0, 2024-02-09 11:29:02.344
168.0, -9211.980904576887, -15698.188924573533, 19578.00472712573, -207.3347815674283, 47445.10918201318, 19527.556839890105, 35979.200718307584, 11173.055907852162, 33488.38937144153, 2343.021612527563, 39565.71693011725, 28582.784960601923, 41556.51975351808, 36127.75041195755, 30639.994816779476, 24985.182283542432, 0.057123046875, 1.022318359375, 0.131408203125, 192.0, 0.0, 0.0, 0.0, 0.0, 0.0, 0.0, 0.0, 0.0, 0.0, 1.7074745423526645E9, 0.0, 2024-02-09 11:29:02.352
170.0, -9236.277250799805, -15706.526125255363, 19571.81329391161, -204.27259257705126, 47216.83081589113, 19485.96024345878, 35866.57027799729, 11068.80737171261, 33152.979094145194, 2332.4268856557474, 39150.13094545972, 28496.864854915722, 41042.63079674611, 35907.74219128396, 30446.562820263247, 24799.595749330016, 0.08, 1.016, 0.152, 192.0, 1.0, 64.0, 15.5, 96.0, 2.0, 96.0, 0.0, 0.0, 0.0, 1.7074745423616557E9, 0.0, 2024-02-09 11:29:02.361
172.0, -9163.947005742431, -15679.547569697806, 19624.161079425943, -218.42124681726062, 47547.03313672938, 19552.97077333579, 36063.42209141518, 11205.510640801269, 33372.80850086314, 2327.5318536200352, 39396.35776237938, 28568.07751275033, 41291.338657300315, 36048.71464356359, 30570.6150019902, 24889.472113784806, 0.08, 1.016, 0.152, 192.0, 0.0, 0.0, 0.0, 0.0, 0.0, 0.0, 0.0, 0.0, 0.0, 1.7074745423696597E9, 0.0, 2024-02-09 11:29:02.369
174.0, -9291.128431693129, -15747.921555986592, 19540.051465040622, -210.68754323572438, 47215.22149029034, 19443.782501671612, 35893.10179866574, 11044.175749322862, 33285.92727016536, 2276.54752451748, 39373.55898303497, 28521.36236683874, 41373.86129782931, 36026.31819561937, 30559.439129762548, 24909.968663450323, 0.08, 1.016, 0.152, 192.0, 0.0, 0.0, 0.0, 0.0, 0.0, 0.0, 0.0, 0.0, 0.0, 1.7074745423766725E9, 0.0, 2024-02-09 11:29:02.376
176.0, -9182.543657129247, -15686.00722384539, 19620.808317757645, -209.77112171305677, 47392.29200986529, 19524.20407822181, 35986.6438492112, 11152.268785508728, 33153.694349967765, 2274.1335361163065, 39142.30783490036, 28512.734593478992, 40984.33744720667, 35908.36804012871, 30451.457852298958, 24772.304269350087, 0.08, 1.016, 0.152, 192.0, 0.0, 0.0, 0.0, 0.0, 0.0, 0.0, 0.0, 0.0, 0.0, 1.7074745423847E9, 0.0, 2024-02-09 11:29:02.384
178.0, -9235.047904854764, -15725.458052809008, 19571.276852044684, -215.60492701589192, 47409.48050135142, 19489.33535687153, 35979.96067761906, 11139.952974313854, 33422.94346367639, 2306.856489998876, 39541.01825249413, 28583.56727165786, 41534.99502360762, 36121.71544095462, 30632.01524400893, 24971.12303628004, 0.08, 1.016, 0.152, 192.0, 0.0, 0.0, 0.0, 0.0, 0.0, 0.0, 0.0, 0.0, 0.0, 1.7074745423936963E9, 0.0, 2024-02-09 11:29:02.393
180.0, -9246.849625927165, -15723.424044063575, 19574.7190206908, -196.11420585086418, 47183.4373096749, 19480.12643815594, 35880.00367641493, 11094.668340047401, 33101.27950922007, 2245.210378791139, 39133.992985962985, 28493.467389758516, 41026.00109887136, 35885.85983346222, 30442.49480277238, 24791.638528303927, 0.08, 1.016, 0.14200000000000002, 192.0, 1.0, 64.0, 15.5, 96.0, 2.0, 56.0, 0.0, 0.0, 0.0, 1.707474542400715E9, 0.0, 2024-02-09 11:29:02.400
182.0, -9168.104430211119, -15694.63499720514, 19626.373902127016, -215.5602235269813, 47509.54926127783, 19553.373104735983, 36042.970245238575, 11232.489196358823, 33338.05153823514, 2308.1305394328283, 39398.14590193581, 28583.835492591323, 41274.26192453646, 36040.7574225375, 30574.459502036516, 24898.681032500393, 0.08, 1.016, 0.14200000000000002, 192.0, 0.0, 0.0, 0.0, 0.0, 0.0, 0.0, 0.0, 0.0, 0.0, 1.707474542408695E9, 0.0, 2024-02-09 11:29:02.408
184.0, -9279.751393765378, -15762.673707327094, 19545.14766277643, -211.33574382492827, 47185.806594587164, 19448.1410918404, 35870.772405954885, 11071.064897902597, 33265.78834841113, 2261.3930417767815, 39379.57160229345, 28534.46048908955, 41354.43763189765, 36015.634061769735, 30560.221440818485, 24918.30586413215, 0.08, 1.016, 0.14200000000000002, 192.0, 0.0, 0.0, 0.0, 0.0, 0.0, 0.0, 0.0, 0.0, 0.0, 1.707474542417009E9, 0.0, 2024-02-09 11:29:02.417
186.0, -9187.326930442683, -15703.419232776074, 19610.325349608105, -226.6243370323583, 47359.926683894, 19509.80955479259, 35940.889828311185, 11128.128901496995, 33123.899474608836, 2254.6204632068234, 39128.002718448966, 28507.54898876536, 40947.30060664423, 35873.991057156454, 30442.53950626129, 24769.510301293172, 0.08, 1.016, 0.14200000000000002, 192.0, 0.0, 0.0, 0.0, 0.0, 0.0, 0.0, 0.0, 0.0, 0.0, 1.7074745424257667E9, 0.0, 2024-02-09 11:29:02.425
188.0, -9249.040096883786, -15751.363724632709, 19566.225357797786, -223.07040966396448, 47393.499004065874, 19506.52384835766, 35981.45824449757, 11183.270655068238, 33397.41777150843, 2313.0032197240853, 39523.56154007454, 28579.70041986709, 41487.363456173356, 36088.612507416314, 30624.594464849768, 24970.541890924203, 0.08, 1.016, 0.14200000000000002, 192.0, 0.0, 0.0, 0.0, 0.0, 0.0, 0.0, 0.0, 0.0, 0.0, 1.707474542432751E9, 0.0, 2024-02-09 11:29:02.432
190.0, -9281.427774599526, -15761.444361382051, 19550.087398301053, -232.32403186846162, 47162.56078035364, 19460.18868210181, 35871.688827477556, 11082.687805019355, 33067.08134020345, 2220.824625590399, 39104.779255959904, 28465.907688845124, 40971.373435422596, 35824.54899842131, 30438.20326783696, 24799.03695571863, 0.084, 1.018, 0.146, 192.0, 1.0, 80.0, 15.5, 104.0, 2.0, 72.0, 0.0, 0.0, 0.0, 1.7074745424407587E9, 0.0, 2024-02-09 11:29:02.440
192.0, -9194.367729946105, -15716.293837582332, 19601.11643089252, -244.6621948077911, 47499.02158963938, 19531.647209125425, 36035.01302421249, 11202.247286110794, 33297.86310170449, 2328.8282547984427, 39350.089651356895, 28548.60914332976, 41184.45261531504, 35923.52252286941, 30548.889106379644, 24873.580023477083, 0.084, 1.018, 0.146, 192.0, 0.0, 0.0, 0.0, 0.0, 0.0, 0.0, 0.0, 0.0, 0.0, 1.7074745424498143E9, 0.0, 2024-02-09 11:29:02.449
194.0, -9328.053513533296, -15783.639643626171, 19500.1536011879, -241.82352326196713, 47161.420841386425, 19427.353969496962, 35848.66653068859, 11046.500330746214, 33232.70776661727, 2368.793173884532, 39343.02650010902, 28516.199113869563, 41240.801363086866, 35963.64390416669, 30544.95519935551, 24901.340890090574, 0.084, 1.018, 0.146, 192.0, 0.0, 0.0, 0.0, 0.0, 0.0, 0.0, 0.0, 0.0, 0.0, 1.707474542456774E9, 0.0, 2024-02-09 11:29:02.456
196.0, -9222.329762259695, -15714.282180581355, 19571.567424722605, -247.7914390315341, 47339.4748377174, 19494.073926696055, 35945.24841847997, 11113.063825734118, 33074.03273272905, 2411.976744172185, 39070.29051426536, 28456.028217795876, 40772.956999892835, 35728.90588389705, 30405.457962209937, 24730.506507218663, 0.084, 1.018, 0.146, 192.0, 0.0, 0.0, 0.0, 0.0, 0.0, 0.0, 0.0, 0.0, 0.0, 1.707474542464804E9, 0.0, 2024-02-09 11:29:02.464
198.0, -9324.588993142725, -15810.260571272442, 19444.765978427647, -294.372474476394, 47303.64499135554, 19448.722237196238, 35921.08618272378, 11090.019177200697, 33347.327512184085, 2653.2191220783143, 39482.47903376568, 28551.89484976469, 41298.379456803734, 36031.05676544389, 30590.86568246671, 24950.872355803534, 0.084, 1.018, 0.146, 192.0, 0.0, 0.0, 0.0, 0.0, 0.0, 0.0, 0.0, 0.0, 0.0, 1.7074745424728358E9, 0.0, 2024-02-09 11:29:02.472
200.0, -9258.204312110462, -15707.956636900502, 19579.01055562622, -197.8129384294675, 47181.80563232966, 19457.484121022717, 35867.33023730877, 11041.001801610208, 32966.878469810305, 2621.703162396331, 39031.97962426897, 28415.973891731966, 40744.74909839024, 35692.651354390546, 30364.509566367815, 24735.33448402101, 0.076, 1.014, 0.148, 192.0, 1.0, 48.0, 15.5, 88.0, 2.0, 80.0, 0.0, 0.0, 0.0, 1.707474542481885E9, 0.0, 2024-02-09 11:29:02.481
202.0, -9195.015930535308, -15691.416346003574, 19603.64217801597, -209.99463915760987, 47504.5648222643, 19544.186537764854, 36030.56502706588, 11204.974198934342, 33347.90865753993, 2954.475933846943, 39402.05745721549, 28603.259158522986, 41150.880295143164, 35962.079282054816, 30565.25058332093, 24885.20293059384, 0.076, 1.014, 0.148, 192.0, 0.0, 0.0, 0.0, 0.0, 0.0, 0.0, 0.0, 0.0, 0.0, 1.7074745424890516E9, 0.0, 2024-02-09 11:29:02.489
204.0, -9278.633806542612, -15738.936154715557, 19554.289526258653, -189.05105460298714, 47220.11652232606, 19468.168254872355, 35878.66257174761, 11108.414662887415, 33238.36275796447, 2896.987247107893, 39359.65619798377, 28528.49257331998, 41174.930772177075, 35917.15227569965, 30538.94258009703, 24913.030852440697, 0.076, 1.014, 0.148, 192.0, 0.0, 0.0, 0.0, 0.0, 0.0, 0.0, 0.0, 0.0, 0.0, 1.707474542496817E9, 0.0, 2024-02-09 11:29:02.496
206.0, -9192.668997367502, -15694.38912801613, 19607.73254725129, -223.58449978643654, 47368.263884575834, 19509.34016815903, 35950.03169179341, 11152.06761980863, 33130.00150084514, 2916.8355961842058, 39117.20682587705, 28512.801648712357, 40785.0269418987, 35797.21281495247, 30432.280055556304, 24767.833920459023, 0.076, 1.014, 0.148, 192.0, 0.0, 0.0, 0.0, 0.0, 0.0, 0.0, 0.0, 0.0, 0.0, 1.7074745425049248E9, 0.0, 2024-02-09 11:29:02.504
208.0, -9235.673753699512, -15721.97118067398, 19584.665546973414, -211.29104033601766, 47422.62332709114, 19519.15258397491, 35985.079227099326, 11190.199695849384, 33390.71224817184, 2962.075526961747, 39521.236958651185, 28576.258251220974, 41335.28218689945, 35967.91308735765, 30616.972519990508, 24955.09683550559, 0.076, 1.014, 0.148, 192.0, 0.0, 0.0, 0.0, 0.0, 0.0, 0.0, 0.0, 0.0, 0.0, 1.707474542512893E9, 0.0, 2024-02-09 11:29:02.512
210.0, -9269.983681438409, -15728.006151676913, 19553.39545648044, -239.8789214943554, 47183.929048052916, 19462.33444956952, 35870.25831583242, 11051.641231970934, 33064.890869246825, 2893.612133695142, 39109.674287995615, 28474.82603488279, 40825.72946855181, 35758.32077960024, 30438.247971325873, 24788.039897446622, 0.08600000000000001, 1.008, 0.136, 192.0, 1.0, 88.0, 15.5, 64.0, 2.0, 32.0, 0.0, 0.0, 0.0, 1.7074745425209072E9, 0.0, 2024-02-09 11:29:02.520
212.0, -9250.87293992912, -15743.138282673155, 19499.997138976712, -337.53369301959196, 47419.04704797829, 19474.38203983093, 35993.17055859215, 11132.219270732317, 33230.96433054976, 2906.8667181571386, 39306.16847350222, 28504.68796547508, 40997.52497643531, 35866.83849893075, 30509.9523675385, 24829.703549111313, 0.08600000000000001, 1.008, 0.136, 192.0, 0.0, 0.0, 0.0, 0.0, 0.0, 0.0, 0.0, 0.0, 0.0, 1.7074745425289264E9, 0.0, 2024-02-09 11:29:02.528
214.0, -9350.494664966425, -15780.689213358071, 19435.065321334045, -247.97025298717656, 47131.29068986067, 19422.771861883626, 35847.05720508781, 11034.98918235173, 33068.10952044839, 2844.125371471092, 39241.81780121539, 28430.167249461087, 41011.07013357522, 35766.00977969287, 30449.55795402026, 24836.118499769986, 0.08600000000000001, 1.008, 0.136, 192.0, 0.0, 0.0, 0.0, 0.0, 0.0, 0.0, 0.0, 0.0, 0.0, 1.7074745425370753E9, 0.0, 2024-02-09 11:29:02.537
216.0, -9131.693438493425, -15639.940278523003, 19715.020920636765, -141.1289144908088, 47447.21024599198, 19582.58683473907, 36043.03730047194, 11171.40187876247, 33155.571896502006, 3000.11819602468, 39134.08239294081, 28539.959018225556, 40896.91977464197, 35908.748019784456, 30465.584154794713, 24805.518961610673, 0.08600000000000001, 1.008, 0.136, 192.0, 0.0, 0.0, 0.0, 0.0, 0.0, 0.0, 0.0, 0.0, 0.0, 1.707474542544909E9, 0.0, 2024-02-09 11:29:02.544
218.0, -9292.26837066035, -15736.812738992303, 19510.61421759298, -212.47568279214894, 47403.82551000423, 19513.43053739435, 36001.84303544081, 11186.176381847428, 33404.36916403403, 3076.5388103173746, 39546.06974674103, 28599.41465847667, 41408.95353662414, 36035.14713467922, 30665.54286069189, 25001.18613257243, 0.08600000000000001, 1.008, 0.136, 192.0, 0.0, 0.0, 0.0, 0.0, 0.0, 0.0, 0.0, 0.0, 0.0, 1.7074745425529575E9, 0.0, 2024-02-09 11:29:02.552
220.0, -9437.01826775292, -15903.444993906618, 19341.59032602195, -392.6307431019239, 47026.99745023221, 19322.613694979394, 35790.663753827066, 11015.9007925869, 32780.979011175514, 2607.5992116450325, 38952.00508260788, 28344.224792030433, 40657.08555663652, 35720.79220065978, 30343.163650412997, 24726.773765894624, 0.092, 1.024, 0.136, 192.0, 1.0, 112.0, 16.0, 0.0, 2.0, 32.0, 0.0, 0.0, 0.0, 1.7074745425611084E9, 0.0, 2024-02-09 11:29:02.561
222.0, -9265.669794758534, -15799.062347300334, 19528.29444745713, -355.8397717284884, 47446.67380412505, 19480.81934223406, 36009.37557332225, 11199.430966309425, 33090.59537537043, 2603.6876563653536, 39233.81587670039, 28414.0069382199, 40954.43081312547, 35768.423768094035, 30442.584209750203, 24786.743496268213, 0.092, 1.024, 0.136, 192.0, 0.0, 0.0, 0.0, 0.0, 0.0, 0.0, 0.0, 0.0, 0.0, 1.7074745425689476E9, 0.0, 2024-02-09 11:29:02.568
224.0, -9254.002184152863, -15685.24726453391, 19591.281663332185, -109.36708561981746, 47263.747127502815, 19490.788220261125, 35926.33884267078, 11119.143500225962, 33173.92267869981, 2839.5879673466648, 39295.10435999684, 28449.434453181562, 41147.326367774775, 35886.55273754033, 30494.216739441963, 24864.795787906147, 0.092, 1.024, 0.136, 192.0, 0.0, 0.0, 0.0, 0.0, 0.0, 0.0, 0.0, 0.0, 0.0, 1.7074745425769715E9, 0.0, 2024-02-09 11:29:02.576
226.0, -9267.8379139707, -15743.83118675127, 19513.408185649896, -319.22761431069546, 47317.592479895655, 19464.122589125942, 35936.46418290904, 11103.698444807345, 33066.52254659207, 2732.6125183835647, 39080.818185903816, 28508.73363122149, 40885.47568148085, 35858.00955987091, 30444.372349306628, 24785.245929389708, 0.092, 1.024, 0.136, 192.0, 0.0, 0.0, 0.0, 0.0, 0.0, 0.0, 0.0, 0.0, 0.0, 1.7074745425849528E9, 0.0, 2024-02-09 11:29:02.584
228.0, -9309.658027846579, -15816.787280653392, 19492.95633947329, -327.09542835896355, 47360.731346694396, 19422.45893746125, 35944.26494172394, 11102.53615409567, 33381.90566085645, 2511.956097120774, 39454.271132263086, 28478.692886673558, 41415.3237837939, 36007.74389597701, 30558.299190795326, 24897.004651666244, 0.092, 1.024, 0.136, 192.0, 0.0, 0.0, 0.0, 0.0, 0.0, 0.0, 0.0, 0.0, 0.0, 1.707474542593021E9, 0.0, 2024-02-09 11:29:02.593
230.0, -9346.359592242194, -15726.150956887122, 19509.51898211467, -195.48835700611556, 47133.50351256174, 19457.75234195618, 35836.64129217163, 11010.759891362179, 33048.752909750096, 2626.8217118765965, 39083.9250783831, 28469.193395280054, 41071.822175004745, 35897.974478956996, 30394.930290571487, 24770.85140596049, 0.088, 1.022, 0.138, 192.0, 1.0, 96.0, 15.5, 120.0, 2.0, 40.0, 0.0, 0.0, 0.0, 1.7074745426010141E9, 0.0, 2024-02-09 11:29:02.601
232.0, -9358.206016803506, -15836.076836118322, 19371.854588014437, -355.68330951730127, 47338.13373305008, 19431.556097454562, 35918.471028622516, 11094.221305158295, 33092.159997482304, 2472.684082112799, 39184.88790808772, 28465.058322555822, 41011.45011323096, 35940.465145166534, 30396.04787779425, 24786.51997882366, 0.088, 1.022, 0.138, 192.0, 0.0, 0.0, 0.0, 0.0, 0.0, 0.0, 0.0, 0.0, 0.0, 1.707474542609005E9, 0.0, 2024-02-09 11:29:02.609
234.0, -9233.818558909721, -15701.809907175293, 19523.600581121515, -179.59626669839224, 47186.67831262092, 19463.13911236991, 35886.4186270736, 11098.155212182428, 32970.454748923155, 2386.8757351488753, 39202.925765863154, 28419.840743522735, 41198.64597304416, 35888.94437419705, 30415.918578615023, 24831.871668323478, 0.088, 1.022, 0.138, 192.0, 0.0, 0.0, 0.0, 0.0, 0.0, 0.0, 0.0, 0.0, 0.0, 1.7074745426170175E9, 0.0, 2024-02-09 11:29:02.617
236.0, -9050.623661354026, -15557.84232113866, 19796.58243615418, -70.27388456748541, 47516.21008112551, 19610.50416356375, 36072.85452757532, 11246.436684898936, 33537.07147086519, 2582.9228857663734, 39284.19670870265, 28650.62250502378, 41229.08904899228, 36045.18306793965, 30538.76376614139, 24867.74621817425, 0.088, 1.022, 0.138, 192.0, 0.0, 0.0, 0.0, 0.0, 0.0, 0.0, 0.0, 0.0, 0.0, 1.7074745426241655E9, 0.0, 2024-02-09 11:29:02.624
238.0, -9171.43484013496, -15645.61762161465, 19559.653944927926, -178.90336262027773, 47429.507664383375, 19524.069967755077, 36021.4008118392, 11193.26188483976, 33621.60576839516, 2590.678941092365, 39589.47683447324, 28644.229906109562, 41507.45767443868, 36158.86404023934, 30667.576869437322, 25012.719632711367, 0.088, 1.022, 0.138, 192.0, 0.0, 0.0, 0.0, 0.0, 0.0, 0.0, 0.0, 0.0, 0.0, 1.7074745426330369E9, 0.0, 2024-02-09 11:29:02.633
240.0, -9162.874122008578, -15613.766385765837, 19684.600196433094, -125.9520800056553, 47284.44484286843, 19528.115633501486, 35963.59920067778, 11121.736302582778, 33243.41425221136, 2519.823911169042, 39209.18425431064, 28576.995858788, 41238.99087178599, 35961.29697099888, 30503.537416879826, 24855.78803489066, 0.09, 1.022, 0.138, 192.0, 1.0, 104.0, 15.5, 120.0, 2.0, 40.0, 0.0, 0.0, 0.0, 1.7074745426410525E9, 0.0, 2024-02-09 11:29:02.641
242.0, -9145.305650866705, -15663.923700323547, 19670.22802474833, -225.79732248751193, 47567.06029976133, 19552.233165768765, 36075.693199121146, 11211.567963548656, 33522.40872650251, 2483.368215962436, 39452.19242002874, 28636.98794090604, 41429.87476943431, 36133.60656900484, 30630.40591840815, 24944.03272200021, 0.09, 1.022, 0.138, 192.0, 0.0, 0.0, 0.0, 0.0, 0.0, 0.0, 0.0, 0.0, 0.0, 1.7074745426490915E9, 0.0, 2024-02-09 11:29:02.649
244.0, -9213.29965749975, -15668.125828281145, 19598.277759346696, -147.56621689393722, 47258.62857802255, 19494.72212728526, 35932.68673809609, 11118.33883742557, 33380.07281781111, 2275.8099169504544, 39404.78437003903, 28509.247721343963, 41435.7309264816, 35997.19387259411, 30565.272935065383, 24913.813163496634, 0.09, 1.022, 0.138, 192.0, 0.0, 0.0, 0.0, 0.0, 0.0, 0.0, 0.0, 0.0, 0.0, 1.707474542657128E9, 0.0, 2024-02-09 11:29:02.657
246.0, -9129.212394858885, -15619.689598046494, 19658.716876353847, -148.57204539442606, 47414.062608964756, 19557.26230827121, 36015.87993095874, 11185.729346958322, 33279.78054044015, 2444.8338085214864, 39199.505948961494, 28600.934577099633, 41078.84062276371, 35997.21622433856, 30491.534530107325, 24829.48003166676, 0.09, 1.022, 0.138, 192.0, 0.0, 0.0, 0.0, 0.0, 0.0, 0.0, 0.0, 0.0, 0.0, 1.7074745426651356E9, 0.0, 2024-02-09 11:29:02.665
248.0, -9193.63012237908, -15684.353194755698, 19591.9745674103, -196.5165372510597, 47434.0450685078, 19502.746403544716, 36007.498026788, 11163.221140291827, 33514.11622930959, 2370.268389018582, 39572.44480519829, 28609.070612081363, 41583.67712303127, 36133.89714168276, 30638.921933045618, 24987.57392019915, 0.09, 1.022, 0.138, 192.0, 0.0, 0.0, 0.0, 0.0, 0.0, 0.0, 0.0, 0.0, 0.0, 1.707474542673168E9, 0.0, 2024-02-09 11:29:02.673
250.0, -9226.308372772739, -15690.566979714273, 19582.005689383233, -177.69636841969114, 47196.356617970065, 19477.801856732593, 35893.705295766034, 11103.474927362791, 33185.94791721677, 2316.26657441456, 39158.31168393036, 28504.151523608154, 41097.124349728154, 35902.020144703405, 30443.210058594952, 24799.595749330016, 0.08600000000000001, 1.024, 0.138, 192.0, 1.0, 88.0, 16.0, 0.0, 2.0, 40.0, 0.0, 0.0, 0.0, 1.7074745426801517E9, 0.0, 2024-02-09 11:29:02.680
252.0, -9147.09379042313, -15657.084066520223, 19640.433149389406, -192.87320290484465, 47526.760104508416, 19575.68014570238, 36063.95853328211, 11259.579510638656, 33391.04752433867, 2350.8670748313757, 39399.598765325405, 28586.115370525764, 41315.14326514522, 36055.688387833645, 30559.975571629475, 24902.25731161324, 0.08600000000000001, 1.024, 0.138, 192.0, 0.0, 0.0, 0.0, 0.0, 0.0, 0.0, 0.0, 0.0, 0.0, 1.707474542689156E9, 0.0, 2024-02-09 11:29:02.689
254.0, -9269.044908171285, -15724.295762097332, 19556.278831515174, -189.6098482143698, 47205.72199889684, 19475.00788867568, 35894.10762716623, 11110.471023377302, 33337.24687543474, 2306.543565576502, 39415.71437307768, 28543.401186871673, 41437.653176504755, 36037.96345448059, 30561.80841467481, 24938.690655075392, 0.08600000000000001, 1.024, 0.138, 192.0, 0.0, 0.0, 0.0, 0.0, 0.0, 0.0, 0.0, 0.0, 0.0, 1.707474542697157E9, 0.0, 2024-02-09 11:29:02.697
0.0, -9173.714718069401, -15663.901348579091, 19633.861736519546, -194.6389907168139, 47366.92277990851, 19551.67437215738, 35982.50877648697, 11157.610852433545, 33173.45329206625, 2288.5280595455242, 39142.37489013373, 28512.041689400878, 41011.91949986452, 35885.1222258952, 30437.622122481123, 24774.248871117696, 0.08600000000000001, 1.024, 0.138, 192.0, 0.0, 0.0, 0.0, 0.0, 0.0, 0.0, 0.0, 0.0, 0.0, 1.7074745427052608E9, 0.0, 2024-02-09 11:29:02.705
2.0, -9226.7777594063, -15708.82835493426, 19583.92793940639, -235.4532760922046, 47400.51745182484, 19494.163333673874, 35980.944154375095, 11156.314451255137, 33453.163022179964, 2372.7717843975765, 39546.047394996574, 28596.08424855283, 41573.484727559655, 36134.99237716107, 30620.727613059, 24970.810111857667, 0.08600000000000001, 1.024, 0.138, 192.0, 0.0, 0.0, 0.0, 0.0, 0.0, 0.0, 0.0, 0.0, 0.0, 1.7074745427121584E9, 0.0, 2024-02-09 11:29:02.712
4.0, -9260.484190044903, -15720.1606893731, 19572.30503228963, -184.29013303400674, 47168.260475189745, 19488.57539756005, 35889.167891641606, 11076.362261338505, 33120.479657707176, 2270.7360709591, 39131.84721849528, 28473.64139242666, 41084.58502108872, 35912.68192680859, 30425.149849075064, 24777.780446741635, 0.082, 1.022, 0.14400000000000002, 192.0, 1.0, 72.0, 15.5, 120.0, 2.0, 64.0, 0.0, 0.0, 0.0, 1.7074745427212255E9, 0.0, 2024-02-09 11:29:02.721
6.0, -9186.164639731007, -15696.445488506019, 19602.658701259938, -255.88277052435527, 47486.124633088664, 19503.036976222633, 36027.14521016421, 11180.92372190043, 33338.14094521296, 2313.7408272911107, 39360.75143346208, 28557.907469023165, 41306.33667782983, 35980.00538110798, 30544.128184810663, 24873.892947899458, 0.082, 1.022, 0.14400000000000002, 192.0, 0.0, 0.0, 0.0, 0.0, 0.0, 0.0, 0.0, 0.0, 0.0, 1.7074745427292688E9, 0.0, 2024-02-09 11:29:02.729
8.0, -9312.250830203395, -15758.762152047415, 19511.01654899318, -225.55145329850356, 47172.95434152536, 19443.38017027142, 35868.20195534253, 11058.302051818617, 33257.94288610732, 2304.576612064435, 39341.61834020833, 28486.91832863311, 41365.90407680322, 35897.39333360116, 30502.844512801712, 24855.452758723826, 0.082, 1.022, 0.14400000000000002, 192.0, 0.0, 0.0, 0.0, 0.0, 0.0, 0.0, 0.0, 0.0, 0.0, 1.7074745427362416E9, 0.0, 2024-02-09 11:29:02.736
10.0, -9202.615523650113, -15687.951825613001, 19611.845268231067, -208.07238913445346, 47370.32024506572, 19544.186537764854, 35981.12296833074, 11157.007355333251, 33125.03941357606, 2322.502711117591, 39093.46927326552, 28495.680212459592, 40995.35685722314, 35930.339804928284, 30422.7805641628, 24764.503510535185, 0.082, 1.022, 0.14400000000000002, 192.0, 0.0, 0.0, 0.0, 0.0, 0.0, 0.0, 0.0, 0.0, 0.0, 1.7074745427442508E9, 0.0, 2024-02-09 11:29:02.744
12.0, -9257.220835354428, -15729.503718555417, 19546.35465697702, -239.18601741624087, 47399.69043728, 19479.455885822284, 35985.436855010616, 11155.420381476926, 33395.13789357399, 2371.050700074518, 39503.28850785357, 28564.925916782133, 41519.393505977816, 36099.56486219941, 30604.05321169534, 24956.013257028255, 0.082, 1.022, 0.14400000000000002, 192.0, 0.0, 0.0, 0.0, 0.0, 0.0, 0.0, 0.0, 0.0, 0.0, 1.7074745427532837E9, 0.0, 2024-02-09 11:29:02.753
14.0, -9279.349062365183, -15725.569811531284, 19542.085473786054, -213.6379735038249, 47163.18662919839, 19469.442304306307, 35872.78406295586, 11052.624708726968, 33057.47009008766, 2341.8593218158867, 39088.350723785254, 28447.176926991575, 40988.137243764075, 35831.43333571355, 30394.39384870456, 24756.90391742038, 0.08, 1.018, 0.146, 192.0, 1.0, 64.0, 15.5, 104.0, 2.0, 72.0, 0.0, 0.0, 0.0, 1.7074745427602131E9, 0.0, 2024-02-09 11:29:02.760
16.0, -9183.236561207363, -15676.48538070743, 19611.88997171998, -215.98490667163216, 47501.32381931828, 19563.45374148533, 36044.69132956163, 11209.55630654768, 33299.62888951646, 2513.297201788092, 39336.72330817262, 28551.805442786866, 41226.54095012438, 35989.21429982356, 30530.583027670746, 24869.48965424176, 0.08, 1.018, 0.146, 192.0, 0.0, 0.0, 0.0, 0.0, 0.0, 0.0, 0.0, 0.0, 0.0, 1.7074745427682388E9, 0.0, 2024-02-09 11:29:02.768
18.0, -9311.826147058744, -15747.809797264314, 19508.826078036556, -219.3823718288388, 47168.394585656475, 19451.449150019784, 35866.68203671957, 11068.695612990334, 33250.656217414886, 2609.9908483017502, 39359.36562530585, 28511.84052370078, 41327.12380017326, 36001.083076129325, 30528.750184625413, 24902.88316045799, 0.08, 1.018, 0.146, 192.0, 0.0, 0.0, 0.0, 0.0, 0.0, 0.0, 0.0, 0.0, 0.0, 1.707474542777341E9, 0.0, 2024-02-09 11:29:02.777
20.0, -9206.884706841076, -15685.984872100935, 19569.041677599154, -234.4474475917158, 47295.844232540636, 19500.198304676807, 35951.90923832765, 11119.858756048532, 33059.77231976656, 2719.9390792774057, 39053.459650690515, 28455.424720695584, 40774.856898171536, 35786.30516365828, 30357.178194186476, 24718.548323935072, 0.08, 1.018, 0.146, 192.0, 0.0, 0.0, 0.0, 0.0, 0.0, 0.0, 0.0, 0.0, 0.0, 1.707474542785543E9, 0.0, 2024-02-09 11:29:02.785
22.0, -9219.848718625155, -15683.883808122137, 19600.043547158664, -195.35424653938372, 47460.554237431796, 19514.43636589484, 36033.247236400515, 11166.931529871408, 33422.339966576095, 2964.5118671073756, 39535.25150242466, 28592.507969439983, 41487.005828262074, 36102.96232735662, 30630.316511430326, 24976.152178782486, 0.08, 1.018, 0.146, 192.0, 0.0, 0.0, 0.0, 0.0, 0.0, 0.0, 0.0, 0.0, 0.0, 1.7074745427923057E9, 0.0, 2024-02-09 11:29:02.792
24.0, -9273.895236718088, -15727.44735806553, 19540.029113296165, -244.84100876343356, 47152.21192267084, 19444.095426093987, 35897.81801674581, 11088.812183000111, 33065.4049593693, 2970.7480038104063, 39104.287517581884, 28453.658932883613, 40856.37371020004, 35744.55210501577, 30410.375345990105, 24766.20224311379, 0.081, 1.018, 0.147, 192.0, 1.0, 72.0, 15.5, 104.0, 2.0, 80.0, 0.0, 0.0, 0.0, 1.7074745428002784E9, 0.0, 2024-02-09 11:29:02.800
26.0, -9162.33768014165, -15651.093799006201, 19652.570146628637, -200.76336869756804, 47557.67256709011, 19560.05627632812, 36087.67373414919, 11260.294766461226, 33323.1652764279, 3189.8174512168707, 39373.06724465695, 28571.296163951894, 41187.85008047224, 35969.5894681918, 30574.638315992157, 24883.884177670978, 0.081, 1.018, 0.147, 192.0, 0.0, 0.0, 0.0, 0.0, 0.0, 0.0, 0.0, 0.0, 0.0, 1.707474542809325E9, 0.0, 2024-02-09 11:29:02.809
28.0, -9301.991379498408, -15736.946849459035, 19519.554915375105, -255.0557559795089, 47196.66954239244, 19424.917629351334, 35897.683906279075, 11103.094947707052, 33214.2899291861, 3240.8911872972476, 39350.96136939065, 28497.8259799273, 41212.21348192853, 35891.06778992031, 30536.41683297358, 24898.54692203366, 0.081, 1.018, 0.147, 192.0, 0.0, 0.0, 0.0, 0.0, 0.0, 0.0, 0.0, 0.0, 0.0, 1.7074745428163307E9, 0.0, 2024-02-09 11:29:02.816
30.0, -9193.116032256608, -15670.226892259943, 19614.192201398873, -179.8197841429453, 47362.13950659508, 19540.83377609656, 35979.87127064124, 11171.692451440389, 33124.34650949795, 3325.738409249593, 39105.87449143821, 28493.757962436433, 40837.4417826464, 35755.95149468798, 30422.73586067389, 24750.690132461805, 0.081, 1.018, 0.147, 192.0, 0.0, 0.0, 0.0, 0.0, 0.0, 0.0, 0.0, 0.0, 0.0, 1.707474542824367E9, 0.0, 2024-02-09 11:29:02.824
32.0, -9218.418206980015, -15682.989738343924, 19591.59458775456, -206.53011876703727, 47427.0936759822, 19491.05644119459, 36011.007250667484, 11201.755547732777, 33392.79096040618, 3405.802357888503, 39507.44593232226, 28570.13387324022, 41351.68836732965, 36023.54657930691, 30602.309775627826, 24967.949088567388, 0.081, 1.018, 0.147, 192.0, 0.0, 0.0, 0.0, 0.0, 0.0, 0.0, 0.0, 0.0, 0.0, 1.7074745428334184E9, 0.0, 2024-02-09 11:29:02.833
34.0, -9246.916681160532, -15676.328918496243, 19609.40892808544, -144.5710831369261, 47207.91246985346, 19511.038900737633, 35901.52840632539, 11103.027892473685, 33123.7206606532, 3486.8050797945357, 39159.80925080887, 28519.440116815582, 41022.670688947524, 35946.701281869566, 30460.130329147618, 24815.443136148828, 0.08549999999999999, 1.0190000000000001, 0.14550000000000002, 192.0, 1.0, 104.0, 15.5, 112.0, 2.0, 64.0, 0.0, 0.0, 0.0, 1.707474542841465E9, 0.0, 2024-02-09 11:29:02.841
36.0, -9174.228808191874, -15664.594252657207, 19639.561431355647, -214.5767467709478, 47531.565729566304, 19562.02322984019, 36066.037245516454, 11228.577641079146, 33309.73187801026, 3494.829356053991, 39362.98660790761, 28566.75875982747, 41153.271931799885, 35931.27857819541, 30554.85702214921, 24879.570290991105, 0.08549999999999999, 1.0190000000000001, 0.14550000000000002, 192.0, 0.0, 0.0, 0.0, 0.0, 0.0, 0.0, 0.0, 0.0, 0.0, 1.7074745428484628E9, 0.0, 2024-02-09 11:29:02.848
38.0, -9319.51514715137, -15749.374419376187, 19503.305197156096, -259.9731397596764, 47188.37704519952, 19415.820469358026, 35879.82486245929, 11067.130990878462, 33254.38895873892, 3421.5603377294947, 39378.45401507068, 28496.21665432652, 41273.32315126934, 35890.553699797834, 30556.131071583164, 24898.323404589108, 0.08549999999999999, 1.0190000000000001, 0.14550000000000002, 192.0, 0.0, 0.0, 0.0, 0.0, 0.0, 0.0, 0.0, 0.0, 0.0, 1.7074745428564208E9, 0.0, 2024-02-09 11:29:02.856
40.0, -9204.44836669545, -15686.34250001222, 19603.999805927255, -241.33178488395035, 47367.12394560861, 19516.068043240077, 35995.87511967124, 11165.389259503992, 33062.40982561229, 3450.796419477036, 39065.283723507375, 28457.97281956349, 40747.94539784735, 35793.30125967279, 30395.131456271585, 24735.289780532097, 0.08549999999999999, 1.0190000000000001, 0.14550000000000002, 192.0, 0.0, 0.0, 0.0, 0.0, 0.0, 0.0, 0.0, 0.0, 0.0, 1.7074745428654482E9, 0.0, 2024-02-09 11:29:02.865
42.0, -9294.07886196123, -15762.338431160264, 19484.86500798047, -331.0516871275529, 47355.0763553472, 19446.062379606054, 35961.095805298784, 11147.463160450836, 33328.48499160826, 3311.6121067538393, 39467.682178936266, 28472.613212181714, 41320.03829718093, 35780.583117077724, 30582.595537018246, 24910.01336693923, 0.08549999999999999, 1.0190000000000001, 0.14550000000000002, 192.0, 0.0, 0.0, 0.0, 0.0, 0.0, 0.0, 0.0, 0.0, 0.0, 1.707474542872416E9, 0.0, 2024-02-09 11:29:02.872
44.0, -9279.25965538736, -15705.855572921702, 19506.09916521301, -161.49135368959352, 47119.77954146618, 19493.425726106852, 35849.98528361145, 11083.559523053113, 33024.210694338166, 3541.0080600986553, 39062.37799672818, 28452.116662516197, 40829.84218953159, 35924.97538625901, 30364.57662160118, 24762.42479830084, 0.08574999999999999, 1.0205000000000002, 0.14575, 192.0, 1.0, 88.0, 15.5, 120.0, 2.0, 72.0, 0.0, 0.0, 0.0, 1.7074745428804631E9, 0.0, 2024-02-09 11:29:02.880
46.0, -9168.752630800323, -15668.125828281145, 19673.60313816108, -225.3055841094952, 47563.1263927372, 19554.043657069644, 36062.14804198123, 11256.673783859467, 33321.332433382566, 3559.671766718837, 39359.27621832803, 28559.382684157215, 41233.71586009453, 36024.79827699641, 30547.70446392351, 24884.286509071175, 0.08574999999999999, 1.0205000000000002, 0.14575, 192.0, 0.0, 0.0, 0.0, 0.0, 0.0, 0.0, 0.0, 0.0, 0.0, 1.7074745428894913E9, 0.0, 2024-02-09 11:29:02.889
48.0, -9321.772673341355, -15811.936952106591, 19512.111784471486, -332.1245708614076, 47226.44206600691, 19432.293705021584, 35886.19510962905, 11109.845174532555, 33207.04796398258, 3338.0542204444673, 39363.12071837434, 28446.416967680096, 41278.262886793964, 35824.504294932405, 30563.171871086583, 24894.434201053882, 0.08574999999999999, 1.0205000000000002, 0.14575, 192.0, 0.0, 0.0, 0.0, 0.0, 0.0, 0.0, 0.0, 0.0, 0.0, 1.7074745428964846E9, 0.0, 2024-02-09 11:29:02.896
50.0, -9247.49782651637, -15692.019843103868, 19550.0650465566, -209.92758392424392, 47329.528311434784, 19512.469412382772, 35943.95201730156, 11137.96366905733, 33014.040650611, 3097.817671038827, 39032.89604579163, 28348.42691998803, 40844.683747849915, 35880.24954560394, 30396.718430127912, 24712.9827395657, 0.08574999999999999, 1.0205000000000002, 0.14575, 192.0, 0.0, 0.0, 0.0, 0.0, 0.0, 0.0, 0.0, 0.0, 0.0, 1.7074745429045088E9, 0.0, 2024-02-09 11:29:02.904
52.0, -9271.794172739288, -15732.074169167778, 19484.932063213833, -292.38316921987166, 47322.822788098194, 19434.662989933848, 35931.43504040659, 11147.753733128755, 33251.974970337746, 3292.322551288909, 39419.49181789062, 28535.198096656575, 41257.65457840617, 35918.873360022706, 30538.47319346347, 24918.372919365516, 0.08574999999999999, 1.0205000000000002, 0.14575, 192.0, 0.0, 0.0, 0.0, 0.0, 0.0, 0.0, 0.0, 0.0, 0.0, 1.707474542912458E9, 0.0, 2024-02-09 11:29:02.912
54.0, -9270.520123305336, -15730.218974377987, 19570.38278226647, -214.5320432820372, 47180.53158289571, 19477.46658056576, 35882.596478771746, 11087.605188799524, 33124.525323453585, 3271.5354289454735, 39132.674233040125, 28467.137034790165, 40957.87298177159, 35861.02704537237, 30411.470581468417, 24766.537519280617, 0.086875, 1.01825, 0.14587499999999998, 192.0, 1.0, 96.0, 15.5, 96.0, 2.0, 72.0, 0.0, 0.0, 0.0, 1.707474542921635E9, 0.0, 2024-02-09 11:29:02.921
56.0, -9294.101213705684, -15822.844603400781, 19500.71239479928, -364.8028212550666, 47464.21992352247, 19504.065156467575, 36010.29199484491, 11195.430004051925, 33136.23763754817, 2955.0123757138704, 39259.60978980181, 28431.888333784143, 41168.44876628504, 35965.45439546757, 30494.283794675328, 24815.465487893285, 0.086875, 1.01825, 0.14587499999999998, 192.0, 0.0, 0.0, 0.0, 0.0, 0.0, 0.0, 0.0, 0.0, 0.0, 1.7074745429285429E9, 0.0, 2024-02-09 11:29:02.928
58.0, -9329.975763556453, -15745.552271074328, 19524.248781710718, -222.91394745277734, 47236.34388880061, 19429.142109053388, 35886.19510962905, 11085.124145164984, 33199.537777845595, 2695.933305732406, 39306.70491536915, 28415.68331905405, 41284.275506052436, 35967.175479790625, 30520.010652543388, 24865.06400883961, 0.086875, 1.01825, 0.14587499999999998, 192.0, 0.0, 0.0, 0.0, 0.0, 0.0, 0.0, 0.0, 0.0, 0.0, 1.7074745429365556E9, 0.0, 2024-02-09 11:29:02.936
60.0, -9117.120101108563, -15584.597359251662, 19726.62147600907, -125.23682418308547, 47460.73305138744, 19550.847357612536, 36023.83715198483, 11209.846879225599, 33173.16271938833, 2898.529517475309, 39137.21163716455, 28528.537276808893, 41028.57154948373, 35843.39151899714, 30469.115730418653, 24751.114815606456, 0.086875, 1.01825, 0.14587499999999998, 192.0, 0.0, 0.0, 0.0, 0.0, 0.0, 0.0, 0.0, 0.0, 0.0, 1.707474542945542E9, 0.0, 2024-02-09 11:29:02.945
62.0, -9242.133407847095, -15703.374529287164, 19602.63634951548, -168.80037412647894, 47454.56396991778, 19547.9639825778, 35989.773093434946, 11221.22391715335, 33559.33380834267, 2875.753089875351, 39603.513729991166, 28646.576839277368, 41588.52745157808, 36198.94071804771, 30692.521416249445, 25023.04613864972, 0.086875, 1.01825, 0.14587499999999998, 192.0, 0.0, 0.0, 0.0, 0.0, 0.0, 0.0, 0.0, 0.0, 0.0, 1.707474542952575E9, 0.0, 2024-02-09 11:29:02.952
64.0, -9324.857214076188, -15735.963372703001, 19511.24006643773, -230.3570783563946, 47152.18957092638, 19472.12451364094, 35861.205859328016, 11080.676148018378, 33043.924932947746, 2719.8273205551295, 39096.665572722624, 28462.24200275445, 41006.5774329397, 35834.4061177261, 30416.07504082621, 24776.394638585407, 0.0864375, 1.018125, 0.1459375, 192.0, 1.0, 88.0, 15.5, 104.0, 2.0, 72.0, 0.0, 0.0, 0.0, 1.707474542961579E9, 0.0, 2024-02-09 11:29:02.961
66.0, -9226.174262306007, -15711.219991590977, 19551.29439250164, -276.55813414551426, 47479.06148184079, 19523.220601465775, 36007.2968610879, 11205.577696034634, 33124.12299205339, 2530.26217582967, 39261.442632847145, 28484.325526276294, 41159.93275164757, 35949.137622015194, 30499.290585433315, 24825.903752553913, 0.0864375, 1.018125, 0.1459375, 192.0, 0.0, 0.0, 0.0, 0.0, 0.0, 0.0, 0.0, 0.0, 0.0, 1.7074745429685528E9, 0.0, 2024-02-09 11:29:02.968
68.0, -9233.997372865364, -15656.659383375572, 19608.15723039594, -158.20564725466338, 47264.35062460311, 19496.689080797325, 35909.06094420683, 11123.144462483462, 33397.35071627506, 2686.858497483551, 39402.9515269937, 28522.36819533923, 41408.350039523844, 36022.496047317516, 30544.150536555117, 24901.475000557304, 0.0864375, 1.018125, 0.1459375, 192.0, 0.0, 0.0, 0.0, 0.0, 0.0, 0.0, 0.0, 0.0, 0.0, 1.707474542976578E9, 0.0, 2024-02-09 11:29:02.976
70.0, -9165.086944709652, -15657.888729320613, 19643.137710468498, -202.39504604280546, 47377.428099802506, 19528.070930012578, 35971.98110484852, 11166.328032771115, 33236.798135852594, 2547.584777782533, 39165.732463089524, 28542.976503727023, 41023.296537792274, 35886.75390324043, 30457.850451213177, 24781.58024329904, 0.0864375, 1.018125, 0.1459375, 192.0, 0.0, 0.0, 0.0, 0.0, 0.0, 0.0, 0.0, 0.0, 0.0, 1.7074745429851027E9, 0.0, 2024-02-09 11:29:02.985
72.0, -9151.988822458843, -15634.441749386997, 19640.477852878317, -166.63225491431416, 47468.57851369125, 19537.838642339546, 36025.42412584116, 11218.809928752176, 33437.38269059452, 2516.8958326453967, 39561.69361611529, 28581.80148384589, 41581.15137590783, 36072.876879319774, 30643.414633681135, 24958.270783218242, 0.0864375, 1.018125, 0.1459375, 192.0, 0.0, 0.0, 0.0, 0.0, 0.0, 0.0, 0.0, 0.0, 0.0, 1.7074745429926E9, 0.0, 2024-02-09 11:29:02.992
74.0, -9220.854547125644, -15667.678793392039, 19596.78019246819, -169.0015398265767, 47202.34688548409, 19489.514170827173, 35884.65283926163, 11078.888008461954, 33248.46574645826, 2536.3418503215134, 39200.221204784066, 28526.369157596728, 41117.46443718248, 35958.32418898633, 30472.848471742687, 24820.137002484444, 0.08821875, 1.0180625, 0.14896874999999998, 192.0, 1.0, 104.0, 15.5, 104.0, 2.0, 96.0, 0.0, 0.0, 0.0, 1.7074745430006454E9, 0.0, 2024-02-09 11:29:03.000
76.0, -9132.006362915798, -15636.81103429926, 19646.736341325803, -199.0646361189647, 47541.37814538219, 19555.25065127023, 36048.625236585765, 11219.368722363559, 33401.932823888405, 2489.7384631321984, 39391.21686115466, 28581.242690234507, 41276.18417455962, 36027.34637586431, 30559.550888484824, 24877.469227012305, 0.08821875, 1.0180625, 0.14896874999999998, 192.0, 0.0, 0.0, 0.0, 0.0, 0.0, 0.0, 0.0, 0.0, 0.0, 1.7074745430086608E9, 0.0, 2024-02-09 11:29:03.008
78.0, -9264.149876135574, -15707.308436311298, 19566.426523497885, -183.9325051227218, 47247.4527057949, 19477.42187707685, 35893.79470274386, 11115.76838681321, 33347.059291250625, 2450.555855102045, 39427.761963339086, 28538.34969262477, 41448.94080745469, 36037.22584691356, 30574.258336336417, 24921.658625800446, 0.08821875, 1.0180625, 0.14896874999999998, 192.0, 0.0, 0.0, 0.0, 0.0, 0.0, 0.0, 0.0, 0.0, 0.0, 1.707474543016703E9, 0.0, 2024-02-09 11:29:03.016
80.0, -9183.013043762809, -15659.855682832682, 19629.324332395117, -204.0490751324982, 47375.50584977935, 19526.43925266734, 35958.61476166425, 11156.314451255137, 33157.65060873635, 2403.2819155790708, 39125.78989574789, 28494.83084617029, 40982.03521752777, 35880.204842115025, 30441.377215549615, 24761.32956282253, 0.08821875, 1.0180625, 0.14896874999999998, 192.0, 0.0, 0.0, 0.0, 0.0, 0.0, 0.0, 0.0, 0.0, 0.0, 1.7074745430236683E9, 0.0, 2024-02-09 11:29:03.023
82.0, -9223.648515182556, -15697.876000151158, 19588.599453997547, -211.84983394740033, 47448.797219848304, 19514.23520019474, 36005.06168664237, 11195.318245329649, 33442.50124007479, 2423.331430355481, 39530.736450044686, 28561.97548651403, 41532.04459333952, 36098.20140578764, 30633.53516263189, 24961.332972208616, 0.08821875, 1.0180625, 0.14896874999999998, 192.0, 0.0, 0.0, 0.0, 0.0, 0.0, 0.0, 0.0, 0.0, 0.0, 1.7074745430327E9, 0.0, 2024-02-09 11:29:03.032
84.0, -9272.665890773045, -15724.25105860842, 19563.40903799642, -213.05682814798692, 47185.38191144251, 19466.13424612692, 35864.04453087384, 11073.56829328159, 33129.152134555836, 2347.8719410743643, 39133.27773014042, 28455.089444528752, 41063.79789874529, 35863.10575760672, 30447.546297019282, 24787.414048601873, 0.08910937499999999, 1.01703125, 0.148484375, 192.0, 1.0, 104.0, 15.5, 96.0, 2.0, 80.0, 0.0, 0.0, 0.0, 1.707474543040714E9, 0.0, 2024-02-09 11:29:03.040
86.0, -9185.069404252697, -15683.459124977486, 19627.73735853879, -226.5572817989924, 47529.64347954315, 19557.418770482396, 36050.12280346427, 11215.993608950808, 33323.03116596117, 2397.38105504287, 39332.58823544839, 28525.564494796337, 41234.92285429512, 35983.11227358726, 30546.251600533917, 24856.43623547986, 0.08910937499999999, 1.01703125, 0.148484375, 192.0, 0.0, 0.0, 0.0, 0.0, 0.0, 0.0, 0.0, 0.0, 0.0, 1.7074745430488572E9, 0.0, 2024-02-09 11:29:03.048
88.0, -9307.288742934315, -15753.420085122596, 19536.206964994308, -219.80705497348964, 47227.4478945074, 19476.080772409532, 35896.25339463394, 11100.524497094691, 33285.90491842091, 2366.043909316529, 39379.50454706008, 28488.997040867456, 41398.4705684746, 35991.225956824535, 30564.647086220633, 24907.30880586014, 0.08910937499999999, 1.01703125, 0.148484375, 192.0, 0.0, 0.0, 0.0, 0.0, 0.0, 0.0, 0.0, 0.0, 0.0, 1.7074745430567153E9, 0.0, 2024-02-09 11:29:03.056
90.0, -9217.479433712893, -15700.53585774134, 19605.96675943932, -230.91587196777726, 47343.721669163904, 19530.35080794702, 35956.04431105188, 11143.819826104622, 33106.53216916706, 2356.7455836231215, 39077.28661027987, 28452.228421238473, 40927.38520233455, 35829.13110603465, 30422.668805440524, 24745.728045192725, 0.08910937499999999, 1.01703125, 0.148484375, 192.0, 0.0, 0.0, 0.0, 0.0, 0.0, 0.0, 0.0, 0.0, 0.0, 1.7074745430647511E9, 0.0, 2024-02-09 11:29:03.064
92.0, -9247.319012560727, -15722.105291140711, 19579.50229400424, -229.5077120670929, 47417.72829505543, 19529.702607357813, 35980.251250296984, 11188.568018504146, 33408.32542280262, 2420.6715727652995, 39498.48288279568, 28543.9376287386, 41462.35185412787, 36051.32979766486, 30615.16202868963, 24940.65760858746, 0.08910937499999999, 1.01703125, 0.148484375, 192.0, 0.0, 0.0, 0.0, 0.0, 0.0, 0.0, 0.0, 0.0, 0.0, 1.7074745430727637E9, 0.0, 2024-02-09 11:29:03.072
94.0, -9282.813582755754, -15732.364741845697, 19567.67822118738, -212.58744151442548, 47160.52677160821, 19481.534598056627, 35854.05330110232, 11069.76849672419, 33096.83151207346, 2386.987493871152, 39122.57124454633, 28449.076825270276, 40990.3277147207, 35825.30895773279, 30438.896171915076, 24775.65703101838, 0.0845546875, 1.016515625, 0.1512421875, 192.0, 1.0, 64.0, 15.5, 96.0, 2.0, 104.0, 0.0, 0.0, 0.0, 1.7074745430797756E9, 0.0, 2024-02-09 11:29:03.079
96.0, -9191.171430488996, -15685.828409889747, 19627.69265504988, -219.13650263983044, 47504.43071179756, 19579.569349237605, 36027.234617142036, 11237.674801072455, 33292.49868303522, 2498.5674021920445, 39326.48620921209, 28531.733576266, 41136.9104548586, 35947.885924325696, 30537.89204810763, 24845.617991163494, 0.0845546875, 1.016515625, 0.1512421875, 192.0, 0.0, 0.0, 0.0, 0.0, 0.0, 0.0, 0.0, 0.0, 0.0, 1.7074745430887663E9, 0.0, 2024-02-09 11:29:03.088
98.0, -9306.975818511943, -15744.21116640701, 19546.555822677117, -208.1617961122747, 47206.571365186144, 19482.80864749058, 35862.18933608405, 11103.743148296255, 33270.68338044684, 2576.329121152058, 39387.282954130525, 28503.950357908056, 41282.532069984925, 35949.94228481559, 30563.909478653608, 24908.761669249736, 0.0845546875, 1.016515625, 0.1512421875, 192.0, 0.0, 0.0, 0.0, 0.0, 0.0, 0.0, 0.0, 0.0, 0.0, 1.7074745430967655E9, 0.0, 2024-02-09 11:29:03.096
100.0, -9229.616430952125, -15700.267636807876, 19598.054241902144, -235.56503481448112, 47329.03657305677, 19520.359578175496, 35929.423383405614, 11136.95784055684, 33084.98508751215, 2705.812776781652, 39084.03683710538, 28466.846462112244, 40794.79465422567, 35772.491785584905, 30424.16637231903, 24733.814565398046, 0.0845546875, 1.016515625, 0.1512421875, 192.0, 0.0, 0.0, 0.0, 0.0, 0.0, 0.0, 0.0, 0.0, 0.0, 1.7074745431048136E9, 0.0, 2024-02-09 11:29:03.104
102.0, -9259.634823755601, -15718.77488121687, 19559.788055394656, -240.75063952811237, 47413.23559441991, 19514.570476361572, 35969.07537806933, 11152.447599464369, 33362.48199492478, 2912.2311368264127, 39486.547051256544, 28530.615989043235, 41294.73612245752, 35965.40969197866, 30595.336031357772, 24918.104698432053, 0.0845546875, 1.016515625, 0.1512421875, 192.0, 0.0, 0.0, 0.0, 0.0, 0.0, 0.0, 0.0, 0.0, 0.0, 1.7074745431120744E9, 0.0, 2024-02-09 11:29:03.112
104.0, -9304.092443477208, -15743.093579184244, 19537.592773150536, -234.40274410280517, 47158.470411118324, 19465.62015600445, 35859.14949883813, 11045.360391778993, 33066.2543256586, 3060.043222909358, 39111.37302057422, 28444.517069401394, 40855.56904739965, 35737.667767723535, 30437.510363758847, 24760.81547270006, 0.07927734375, 1.0132578125, 0.15562109375, 192.0, 1.0, 40.0, 15.5, 72.0, 2.5, 0.0, 0.0, 0.0, 0.0, 1.7074745431209536E9, 0.0, 2024-02-09 11:29:03.120
106.0, -9247.944861405476, -15755.208224679021, 19546.421712210384, -333.33156506199424, 47449.04308903731, 19473.264452608164, 36006.402791309694, 11178.889713154998, 33230.80786833857, 3248.8931118122473, 39281.24627843455, 28493.869721158713, 40952.57561833568, 35790.61905033816, 30518.75895485389, 24816.359557671494, 0.07927734375, 1.0132578125, 0.15562109375, 192.0, 0.0, 0.0, 0.0, 0.0, 0.0, 0.0, 0.0, 0.0, 0.0, 1.707474543128822E9, 0.0, 2024-02-09 11:29:03.128
108.0, -9301.11966146465, -15740.25490763842, 19558.893985616443, -193.76727268305692, 47233.99695563281, 19483.590958546516, 35888.16206314112, 11115.276648435194, 33196.92262374433, 3240.5335593859627, 39313.36573521683, 28408.083725939243, 41128.61795766568, 35708.31992725372, 30506.957233781486, 24833.05631077961, 0.07927734375, 1.0132578125, 0.15562109375, 192.0, 0.0, 0.0, 0.0, 0.0, 0.0, 0.0, 0.0, 0.0, 0.0, 1.7074745431358817E9, 0.0, 2024-02-09 11:29:03.135
110.0, -9202.146137016553, -15684.06262207778, 19656.70521935287, -167.7721938815348, 47384.625361517115, 19567.812331654113, 35964.40386347817, 11182.153067845473, 33130.18031480078, 3576.3685198269513, 39118.6820410111, 28518.724860993014, 40789.676104745406, 35843.95031260852, 30473.899003732087, 24795.661842305883, 0.07927734375, 1.0132578125, 0.15562109375, 192.0, 0.0, 0.0, 0.0, 0.0, 0.0, 0.0, 0.0, 0.0, 0.0, 1.7074745431448188E9, 0.0, 2024-02-09 11:29:03.144
112.0, -9248.391896294583, -15724.675741753072, 19600.959968681334, -205.01020014407638, 47435.810856319775, 19523.53352588815, 35955.999607562975, 11191.540800516701, 33407.49840825777, 3609.2255841762526, 39522.30984238504, 28564.858861548768, 41316.26085236798, 35968.36012224676, 30649.270790728428, 24963.545794909693, 0.07927734375, 1.0132578125, 0.15562109375, 192.0, 0.0, 0.0, 0.0, 0.0, 0.0, 0.0, 0.0, 0.0, 0.0, 1.7074745431528728E9, 0.0, 2024-02-09 11:29:03.152
114.0, -9283.595893811691, -15732.856480223714, 19581.69276496086, -208.09474087890877, 47173.222562458825, 19466.514225782663, 35839.14468755063, 11053.407019782904, 33093.25523296061, 3553.8826649049124, 39130.12613417222, 28448.830956081267, 40852.28334096472, 35721.105125082155, 30454.341227333694, 24770.940812938312, 0.07663867187500001, 1.01262890625, 0.154810546875, 192.0, 1.0, 40.0, 15.5, 80.0, 2.0, 104.0, 0.0, 0.0, 0.0, 1.7074745431598437E9, 0.0, 2024-02-09 11:29:03.159
116.0, -9183.460078651915, -15680.173418542556, 19633.392349885984, -239.52129358307047, 47509.146929877636, 19547.271078499685, 36008.97324192205, 11221.961524720375, 33298.86893020498, 3645.860093338501, 39324.74277314458, 28527.50909656395, 40989.455996686935, 35829.80165836831, 30537.579123685256, 24817.991235016732, 0.07663867187500001, 1.01262890625, 0.154810546875, 192.0, 0.0, 0.0, 0.0, 0.0, 0.0, 0.0, 0.0, 0.0, 0.0, 1.7074745431679358E9, 0.0, 2024-02-09 11:29:03.167
118.0, -9295.107042206173, -15742.914765228603, 19559.408075738917, -214.8449677044115, 47243.004708648295, 19481.981632945735, 35877.075597891286, 11079.066822417597, 33303.87572096297, 3665.887256370456, 39404.42674212775, 28513.382794068195, 41202.15519692364, 35879.35547582572, 30567.083426366262, 24882.185445092375, 0.07663867187500001, 1.01262890625, 0.154810546875, 192.0, 0.0, 0.0, 0.0, 0.0, 0.0, 0.0, 0.0, 0.0, 0.0, 1.7074745431769066E9, 0.0, 2024-02-09 11:29:03.176
120.0, -9227.336553017683, -15718.976046916969, 19591.438125543373, -289.2092215072181, 47339.608948184126, 19490.408240605386, 35943.66144462364, 11110.091043721563, 33091.35533468191, 3612.2654214221743, 39091.703485453545, 28453.72598811698, 40719.17870273336, 35622.66804250098, 30428.055575854254, 24717.07310880102, 0.07663867187500001, 1.01262890625, 0.154810546875, 192.0, 0.0, 0.0, 0.0, 0.0, 0.0, 0.0, 0.0, 0.0, 0.0, 1.7074745431849167E9, 0.0, 2024-02-09 11:29:03.184
122.0, -9243.429809025503, -15711.1082328687, 19595.64025350097, -187.84406040240054, 47470.07608056976, 19573.0202881122, 36014.98586118053, 11198.805117464677, 33379.71518989983, 3707.3273905905953, 39508.96585094522, 28545.54695433938, 41255.86643884974, 35983.64871545419, 30614.91615950062, 24930.666378815935, 0.07663867187500001, 1.01262890625, 0.154810546875, 192.0, 0.0, 0.0, 0.0, 0.0, 0.0, 0.0, 0.0, 0.0, 0.0, 1.7074745431923003E9, 0.0, 2024-02-09 11:29:03.192
124.0, -9330.780426356843, -15777.291748200865, 19496.040880208122, -265.62813110686915, 47125.18866362437, 19440.51914698114, 35838.13885905014, 11057.51974076268, 33015.06883085595, 3659.829933623068, 39098.85604367925, 28432.648293095626, 40799.60027928356, 35693.23249974639, 30421.327700773207, 24772.19251062781, 0.07663867187500001, 1.01262890625, 0.154810546875, 192.0, 0.0, 0.0, 0.0, 0.0, 0.0, 0.0, 0.0, 0.0, 0.0, 1.7074745432009118E9, 0.0, 2024-02-09 11:29:03.200
126.0, -9206.996465563354, -15693.651520449106, 19627.849117261067, -195.13072909483066, 47523.51910156239, 19595.662605245427, 36038.87987600325, 11257.724315848865, 33257.87583087395, 3778.204772258374, 39304.8273688349, 28533.8346402448, 40993.524014177805, 35878.64022000316, 30507.22545471495, 24838.86776433799, 0.07200000000000001, 1.012, 0.16, 192.0, 1.0, 32.0, 15.5, 80.0, 2.5, 0.0, 0.0, 0.0, 0.0, 1.7074745432089217E9, 0.0, 2024-02-09 11:29:03.208
128.0, -9330.176929256551, -15772.508474887429, 19575.72484919129, -189.5874964699145, 47266.56344730419, 19504.512191356684, 35899.159121413126, 11160.270710023728, 33253.49488896071, 3766.7383273528017, 39387.46176808617, 28520.73651799399, 41188.073597916795, 35926.718822326526, 30574.012467147408, 24930.9345997494, 0.07200000000000001, 1.012, 0.16, 192.0, 0.0, 0.0, 0.0, 0.0, 0.0, 0.0, 0.0, 0.0, 0.0, 1.7074745432159333E9, 0.0, 2024-02-09 11:29:03.215
130.0, -9277.113887919651, -15762.897224771647, 19602.234018115287, -241.08591569494197, 47355.38927976957, 19513.162316460886, 35941.26980796693, 11181.929550400919, 33085.655639845805, 3715.0834459165867, 39082.56162197133, 28470.44509296955, 40727.29238597064, 35686.95165955444, 30438.315026559238, 24749.28197256112, 0.07200000000000001, 1.012, 0.16, 192.0, 0.0, 0.0, 0.0, 0.0, 0.0, 0.0, 0.0, 0.0, 0.0, 1.7074745432239354E9, 0.0, 2024-02-09 11:29:03.223
132.0, -9345.353763741705, -15854.986411927512, 19563.431389740872, -253.71465131219045, 47453.46873443946, 19522.14771773192, 35978.93249737412, 11203.275466355737, 33366.25943973773, 3717.6762482734025, 39479.26038256411, 28531.465355332537, 41298.69238122611, 36025.8041054969, 30626.024976494908, 24952.392274426496, 0.07200000000000001, 1.012, 0.16, 192.0, 0.0, 0.0, 0.0, 0.0, 0.0, 0.0, 0.0, 0.0, 0.0, 1.7074745432330072E9, 0.0, 2024-02-09 11:29:03.233
134.0, -9421.595564078756, -15867.816313244859, 19493.850409251503, -312.8350153964777, 47132.94471895036, 19384.21510269822, 35809.126294747155, 11018.426539710348, 32981.228289750616, 3471.650597053838, 39033.94657778103, 28341.27436176233, 40774.298104560155, 35586.48056822784, 30402.64164240857, 24722.45987921475, 0.07200000000000001, 1.012, 0.16, 192.0, 0.0, 0.0, 0.0, 0.0, 0.0, 0.0, 0.0, 0.0, 0.0, 1.7074745432399933E9, 0.0, 2024-02-09 11:29:03.239
136.0, -9306.528783622836, -15812.808670140348, 19618.729605523302, -202.93148790973282, 47515.561880536305, 19563.02905834068, 36007.67684074365, 11183.203599834873, 33213.39585940789, 3787.0560630626755, 39263.70015903714, 28519.574227282315, 41027.94570063898, 35894.64406903316, 30509.214759971474, 24815.66665359338, 0.088, 1.012, 0.158, 192.0, 1.0, 96.0, 15.5, 80.0, 2.0, 120.0, 0.0, 0.0, 0.0, 1.7074745432480278E9, 0.0, 2024-02-09 11:29:03.248
138.0, -9481.297073518881, -15930.244735508531, 19465.351935070987, -279.68737836925726, 47181.693873607386, 19426.191678785286, 35860.37884478317, 11077.256331116716, 33190.597080063475, 3547.8476939019793, 39327.62614817931, 28450.95437180452, 41198.06482768832, 35873.00758040042, 30530.001882314908, 24881.961927647822, 0.088, 1.012, 0.158, 192.0, 0.0, 0.0, 0.0, 0.0, 0.0, 0.0, 0.0, 0.0, 0.0, 1.707474543255993E9, 0.0, 2024-02-09 11:29:03.255
140.0, -9332.233289746438, -15853.578252026828, 19646.40106515897, -205.14431061080822, 47373.40478580055, 19522.639456109937, 35984.20750906557, 11171.02189910673, 33034.268979343055, 3546.305423534563, 39045.48007791997, 28433.810583807302, 40811.44670384487, 35735.94668340048, 30417.21497979343, 24731.735853163704, 0.088, 1.012, 0.158, 192.0, 0.0, 0.0, 0.0, 0.0, 0.0, 0.0, 0.0, 0.0, 0.0, 1.7074745432650156E9, 0.0, 2024-02-09 11:29:03.265
142.0, -9485.767422409943, -15994.058965928432, 19407.684434376293, -346.78731522408907, 47297.31944767469, 19431.243173032188, 35909.28446165138, 11121.646895604956, 33341.113727225515, 3500.1714229788095, 39440.4577541897, 28474.088427315764, 41250.74788936948, 35965.20852627856, 30570.078560123275, 24911.9803204513, 0.088, 1.012, 0.158, 192.0, 0.0, 0.0, 0.0, 0.0, 0.0, 0.0, 0.0, 0.0, 0.0, 1.7074745432719965E9, 0.0, 2024-02-09 11:29:03.271
144.0, -9466.857846600753, -15977.049288397944, 19465.240176348707, -357.2926351180834, 47131.67066951641, 19379.431829384786, 35827.47707694496, 11052.512950004691, 32854.27038124447, 3164.0235381154466, 38928.93808233, 28235.461203510906, 40691.88722275344, 35578.79156813521, 30298.124885335554, 24665.08295119798, 0.088, 1.012, 0.158, 192.0, 0.0, 0.0, 0.0, 0.0, 0.0, 0.0, 0.0, 0.0, 0.0, 1.707474543279994E9, 0.0, 2024-02-09 11:29:03.279
146.0, -9315.894164549609, -15824.163356323643, 19673.089048038608, -239.2307209051515, 47553.06810773231, 19532.094244014534, 36076.05082703243, 11277.125630036073, 33248.264580758165, 3532.156769294354, 39280.97805750109, 28478.692886673558, 41203.473949846506, 35811.56263489278, 30560.646123963135, 24820.04759550662, 0.082, 1.014, 0.152, 192.0, 1.0, 72.0, 15.5, 88.0, 2.0, 96.0, 0.0, 0.0, 0.0, 1.7074745432892852E9, 0.0, 2024-02-09 11:29:03.289
148.0, -9507.448614531591, -15977.697488987147, 19475.141999142408, -255.50279086861502, 47190.85808883406, 19434.975914356222, 35886.73155149598, 11135.773198100711, 33159.17052735931, 3321.290412102987, 39325.79330513398, 28481.39744775265, 41254.79355511589, 35966.68374141261, 30576.404103804125, 24907.577026793602, 0.082, 1.014, 0.152, 192.0, 0.0, 0.0, 0.0, 0.0, 0.0, 0.0, 0.0, 0.0, 0.0, 1.7074745432960355E9, 0.0, 2024-02-09 11:29:03.296
150.0, -9332.836786846732, -15855.321688094342, 19637.683884821403, -240.41536336128277, 47386.726425495915, 19556.502348959726, 36006.335736076326, 11195.273541840737, 32923.85136173384, 3271.6695394122053, 38997.267365129876, 28409.33542362874, 40798.88502346099, 35815.92122506157, 30416.432668737492, 24740.877716645922, 0.082, 1.014, 0.152, 192.0, 0.0, 0.0, 0.0, 0.0, 0.0, 0.0, 0.0, 0.0, 0.0, 1.7074745433040397E9, 0.0, 2024-02-09 11:29:03.304
152.0, -9436.548881119357, -15957.379753277273, 19444.94479238329, -352.7328792492008, 47360.70899494994, 19435.75822541216, 35962.52631694393, 11150.123018041018, 33392.54509121717, 2972.0667567332694, 39443.497591435626, 28433.76588031839, 41437.00497591555, 35934.36311893024, 30623.186304949082, 24934.30971316215, 0.082, 1.014, 0.152, 192.0, 0.0, 0.0, 0.0, 0.0, 0.0, 0.0, 0.0, 0.0, 0.0, 1.707474543314032E9, 0.0, 2024-02-09 11:29:03.314
154.0, -9370.275958809372, -15833.46168201705, 19585.984299896278, -220.14233114031927, 47176.016530515735, 19458.668763478847, 35885.68101950658, 11089.415680100403, 33018.198075079694, 2996.899544823116, 39038.95336853902, 28395.566749044272, 40952.24034216885, 35769.92133497254, 30376.266583951307, 24741.57062072404, 0.082, 1.014, 0.152, 192.0, 0.0, 0.0, 0.0, 0.0, 0.0, 0.0, 0.0, 0.0, 0.0, 1.707474543321094E9, 0.0, 2024-02-09 11:29:03.321
156.0, -9346.47135096447, -15813.74744340747, 19584.084401617576, -318.51235848812564, 47507.78347346586, 19487.90484522639, 36018.562140293376, 11190.467916782847, 33103.98407029916, 2834.2682521663014, 39231.51364702149, 28466.533537689873, 41172.33796982026, 35842.542152707836, 30518.870713576165, 24810.86102853549, 0.076, 1.012, 0.152, 192.0, 1.0, 48.0, 15.5, 80.0, 2.0, 96.0, 0.0, 0.0, 0.0, 1.707474543328302E9, 0.0, 2024-02-09 11:29:03.328
158.0, -9357.021374347374, -15797.31891123282, 19586.274872574195, -125.41563813872793, 47267.658682782494, 19506.09916521301, 35918.940415256075, 11141.025858047708, 33255.08186281704, 3043.659394223618, 39390.97099196565, 28565.440006904606, 41487.40815966227, 36127.01280439053, 30585.59067077526, 24912.047375684666, 0.076, 1.012, 0.152, 192.0, 0.0, 0.0, 0.0, 0.0, 0.0, 0.0, 0.0, 0.0, 0.0, 1.7074745433361924E9, 0.0, 2024-02-09 11:29:03.336
160.0, -9334.714333380978, -15863.167150398154, 19545.639401154447, -330.96228014973167, 47296.55948836321, 19459.026391390133, 35929.87041829472, 11127.503052652246, 33142.138498084365, 2610.4378831908566, 39035.69001384855, 28417.00207197691, 40936.23649313885, 35764.22164013644, 30403.043973808766, 24730.2382862852, 0.076, 1.012, 0.152, 192.0, 0.0, 0.0, 0.0, 0.0, 0.0, 0.0, 0.0, 0.0, 0.0, 1.7074745433450804E9, 0.0, 2024-02-09 11:29:03.345
162.0, -9317.7493593394, -15809.74648114997, 19522.72886308776, -262.9906252611429, 47388.17928888551, 19447.22467031773, 35979.26777354095, 11162.237663535794, 33380.36339048903, 2754.1148965495704, 39447.45385020421, 28512.198151612065, 41448.09144116539, 36030.29680613241, 30571.889051424154, 24898.993956922764, 0.076, 1.012, 0.152, 192.0, 0.0, 0.0, 0.0, 0.0, 0.0, 0.0, 0.0, 0.0, 0.0, 1.70747454335212E9, 0.0, 2024-02-09 11:29:03.352
164.0, -9290.323768892738, -15740.389018105152, 19605.74324199477, -166.22992351411864, 47190.411053944954, 19476.438400320818, 35892.11832190971, 11079.849133473532, 33152.44265227827, 2644.9489766298507, 39123.577073046814, 28466.06415105631, 41079.80174777529, 35856.98137962596, 30422.758212418346, 24761.821301200547, 0.076, 1.012, 0.152, 192.0, 0.0, 0.0, 0.0, 0.0, 0.0, 0.0, 0.0, 0.0, 0.0, 1.7074745433601024E9, 0.0, 2024-02-09 11:29:03.360
166.0, -9210.237468509373, -15708.694244467528, 19643.070655235133, -176.9364091082107, 47514.01961016889, 19572.550901478637, 36052.693254076636, 11215.233649639327, 33342.67834933738, 2788.1118998660922, 39349.55320948997, 28621.274664553963, 41258.07926155082, 36060.292847191435, 30545.581048200256, 24868.77439841919, 0.076, 1.01, 0.152, 192.0, 1.0, 48.0, 15.5, 72.0, 2.0, 96.0, 0.0, 0.0, 0.0, 1.7074745433681707E9, 0.0, 2024-02-09 11:29:03.368
168.0, -9327.271202477361, -15793.273245486409, 19548.455720955815, -214.08500839293106, 47226.48676949582, 19445.86121390596, 35895.98517370047, 11096.14355518145, 33316.81738100259, 2541.3709928239577, 39393.6979047892, 28530.571285554324, 41455.64633079128, 35963.55449718887, 30553.493565737437, 24918.328215876605, 0.076, 1.01, 0.152, 192.0, 0.0, 0.0, 0.0, 0.0, 0.0, 0.0, 0.0, 0.0, 0.0, 1.7074745433772125E9, 0.0, 2024-02-09 11:29:03.377
170.0, -9237.774817678312, -15732.945887201535, 19622.55175382516, -201.50097626459316, 47345.956843609434, 19509.0048919922, 35961.98987507699, 11153.654593664956, 33152.59911448945, 2500.1320243039163, 39085.623810961704, 28493.55679673634, 40982.325790205694, 35849.180620811065, 30410.86708436812, 24746.689170204303, 0.076, 1.01, 0.152, 192.0, 0.0, 0.0, 0.0, 0.0, 0.0, 0.0, 0.0, 0.0, 0.0, 1.7074745433841674E9, 0.0, 2024-02-09 11:29:03.384
172.0, -9264.239283113395, -15756.526977601885, 19586.87836967449, -217.61658401686955, 47448.41724019257, 19494.76683077417, 36002.42418079665, 11179.984948633308, 33434.1416876485, 2548.3000336051027, 39504.33903984297, 28576.19119598761, 41521.78514263453, 36083.53866142496, 30614.15620018914, 24947.40783541296, 0.076, 1.01, 0.152, 192.0, 0.0, 0.0, 0.0, 0.0, 0.0, 0.0, 0.0, 0.0, 0.0, 1.7074745433921688E9, 0.0, 2024-02-09 11:29:03.392
174.0, -9317.548193639303, -15777.895245301157, 19551.24968901273, -217.4824735501377, 47164.90771352145, 19443.00019061568, 35879.62369675919, 11082.888970719454, 33121.08315480747, 2449.594730090467, 39127.62273879322, 28468.992229579955, 41078.527698341335, 35846.76663240989, 30433.621160223625, 24782.876644477445, 0.076, 1.01, 0.152, 192.0, 0.0, 0.0, 0.0, 0.0, 0.0, 0.0, 0.0, 0.0, 0.0, 1.707474543400192E9, 0.0, 2024-02-09 11:29:03.400
176.0, -9216.563012190225, -15723.781671974859, 19621.188297413388, -222.086932907931, 47506.35296182072, 19551.026171568177, 36047.306483662906, 11241.6534115855, 33284.429703286856, 2472.9970065351736, 39293.71855184061, 28537.522678079928, 41195.53908056487, 35979.44658749659, 30512.746335595413, 24844.00866556271, 0.074, 1.014, 0.152, 192.0, 1.0, 40.0, 15.5, 88.0, 2.0, 96.0, 0.0, 0.0, 0.0, 1.707474543408218E9, 0.0, 2024-02-09 11:29:03.408
178.0, -9327.807644344288, -15773.491951643462, 19540.409092951908, -200.6292582308362, 47235.13689460002, 19466.357763571476, 35910.60321457424, 11119.7246455818, 33287.93892716634, 2477.0873757704944, 39390.300439631996, 28528.291407619883, 41414.20619657114, 36029.469791587566, 30555.058187849307, 24929.727605548815, 0.074, 1.014, 0.152, 192.0, 0.0, 0.0, 0.0, 0.0, 0.0, 0.0, 0.0, 0.0, 0.0, 1.7074745434172163E9, 0.0, 2024-02-09 11:29:03.417
180.0, -9245.620279982124, -15731.850651723225, 19601.49641054826, -222.57867128594773, 47326.48847418887, 19509.474278625763, 35967.55545944637, 11153.185207031394, 33087.04144800203, 2465.44211690928, 39064.45670896253, 28488.728819933993, 40934.33659486015, 35855.93084763656, 30408.45309596695, 24751.76301619566, 0.074, 1.014, 0.152, 192.0, 0.0, 0.0, 0.0, 0.0, 0.0, 0.0, 0.0, 0.0, 0.0, 1.707474543424523E9, 0.0, 2024-02-09 11:29:03.424
182.0, -9289.250885158883, -15767.948719018546, 19576.842436414056, -233.19574990221858, 47431.38521091762, 19501.96409248878, 36005.50872153148, 11187.852762681576, 33378.03880906568, 2453.707451070243, 39482.05435062103, 28550.106710208263, 41486.379979417325, 36061.633951858756, 30598.33116511478, 24946.200841212376, 0.074, 1.014, 0.152, 192.0, 0.0, 0.0, 0.0, 0.0, 0.0, 0.0, 0.0, 0.0, 0.0, 1.7074745434332807E9, 0.0, 2024-02-09 11:29:03.433
184.0, -9347.164255042584, -15788.445268684063, 19545.214718009796, -232.6146045463806, 47146.62398655701, 19418.32386473702, 35857.89780114863, 11050.903624403909, 33057.31362787648, 2447.918349256319, 39105.06982863782, 28457.659895141114, 41055.55010504128, 35826.96298682249, 30421.79708740677, 24782.116685165965, 0.074, 1.014, 0.152, 192.0, 0.0, 0.0, 0.0, 0.0, 0.0, 0.0, 0.0, 0.0, 0.0, 1.7074745434393005E9, 0.0, 2024-02-09 11:29:03.439
186.0, -9260.30537608926, -15765.132399217178, 19606.7267187508, -285.7894046055561, 47481.43076675305, 19492.978691217744, 36025.02179444096, 11188.188038848406, 33252.176136037844, 2423.174968144294, 39276.79828128794, 28502.989232896478, 41174.930772177075, 35889.68198176408, 30500.363469167172, 24817.81242106109, 0.078, 1.016, 0.152, 192.0, 1.0, 56.0, 15.5, 96.0, 2.0, 96.0, 0.0, 0.0, 0.0, 1.7074745434482899E9, 0.0, 2024-02-09 11:29:03.448
188.0, -9383.731708971467, -15827.002027869468, 19510.658921081893, -247.27734890906203, 47186.924181809925, 19416.9827600697, 35864.24569657394, 11062.48182803176, 33227.499810159185, 2472.4382129237906, 39351.02842462402, 28473.797854637847, 41345.56398934889, 35837.490658460934, 30525.039795045832, 24869.40024726394, 0.078, 1.016, 0.152, 192.0, 0.0, 0.0, 0.0, 0.0, 0.0, 0.0, 0.0, 0.0, 0.0, 1.7074745434563444E9, 0.0, 2024-02-09 11:29:03.456
190.0, -9273.40349834007, -15758.02454448039, 19602.68105300439, -219.44942706220473, 47305.433130911966, 19498.2537029092, 35946.07543302482, 11126.273706707205, 33045.06487191497, 2412.9378691837633, 39026.16817071059, 28433.67647334057, 40805.45643633085, 35833.959082837, 30373.20439496093, 24715.866114600434, 0.078, 1.016, 0.152, 192.0, 0.0, 0.0, 0.0, 0.0, 0.0, 0.0, 0.0, 0.0, 0.0, 1.7074745434643292E9, 0.0, 2024-02-09 11:29:03.464
192.0, -9299.800908541789, -15775.190684222065, 19580.217549826808, -220.5446625405148, 47422.28805092431, 19504.758060545693, 35990.98008763553, 11183.02478587923, 33385.25842252474, 2686.478517827811, 39493.05140889304, 28573.151358741685, 41432.80284795795, 36065.76902458299, 30613.5750548333, 24959.053094274175, 0.078, 1.016, 0.152, 192.0, 0.0, 0.0, 0.0, 0.0, 0.0, 0.0, 0.0, 0.0, 0.0, 1.7074745434723375E9, 0.0, 2024-02-09 11:29:03.472
194.0, -9365.693851196034, -15810.104109061254, 19525.500479400216, -241.08591569494197, 47110.302401817135, 19419.30734149305, 35825.91245483309, 11020.885231600432, 33046.62949402684, 2644.9266248853955, 39096.196186089066, 28429.273179682874, 40928.48043781286, 35756.26441911035, 30411.649395424058, 24781.2002636433, 0.078, 1.016, 0.152, 192.0, 0.0, 0.0, 0.0, 0.0, 0.0, 0.0, 0.0, 0.0, 0.0, 1.707474543480759E9, 0.0, 2024-02-09 11:29:03.480
196.0, -9235.204367065951, -15728.095558654733, 19632.095948707574, -216.32018283846176, 47484.604714465706, 19545.05825579861, 36018.137457148725, 11216.21712639536, 33240.41911845435, 2840.7055545694298, 39259.833307246365, 28503.324509063306, 41052.28675035081, 35896.05222893384, 30475.284811888316, 24812.090374480533, 0.076, 1.02, 0.154, 192.0, 1.0, 48.0, 15.5, 112.0, 2.0, 104.0, 0.0, 0.0, 0.0, 1.7074745434875493E9, 0.0, 2024-02-09 11:29:03.487
198.0, -9357.200188303017, -15796.581303665795, 19542.733674375257, -214.08500839293106, 47217.79194090271, 19451.13622559741, 35877.00854265792, 11101.619732573, 33274.25965955969, 2950.7208407784515, 39387.5958785529, 28508.10778237674, 41328.71077402959, 35973.21045079356, 30566.926964155075, 24940.188221953897, 0.076, 1.02, 0.154, 192.0, 0.0, 0.0, 0.0, 0.0, 0.0, 0.0, 0.0, 0.0, 0.0, 1.7074745434954193E9, 0.0, 2024-02-09 11:29:03.495
200.0, -9271.8388762282, -15742.981820461968, 19603.1280878935, -217.7283427391461, 47303.35441867762, 19510.636569337436, 35923.12019146922, 11168.585558961102, 33061.046369200514, 3018.759550900406, 39039.35569993922, 28453.211897994508, 40801.09784616207, 35771.21773615095, 30394.21503474892, 24741.70473119077, 0.076, 1.02, 0.154, 192.0, 0.0, 0.0, 0.0, 0.0, 0.0, 0.0, 0.0, 0.0, 0.0, 1.70747454350445E9, 0.0, 2024-02-09 11:29:03.504
202.0, -9287.105117691173, -15753.531843844874, 19579.25642481523, -222.1316363968416, 47425.037315492315, 19519.107880485997, 36007.00628840998, 11210.718597259354, 33368.159338016434, 3164.6717387046506, 39476.30995229602, 28549.6373235747, 41347.48623937205, 36022.71956476207, 30599.471104082004, 24957.063789017655, 0.076, 1.02, 0.154, 192.0, 0.0, 0.0, 0.0, 0.0, 0.0, 0.0, 0.0, 0.0, 0.0, 1.7074745435124283E9, 0.0, 2024-02-09 11:29:03.512
204.0, -9335.541347925824, -15766.764076562415, 19552.747255891234, -210.84400544691152, 47152.16721918192, 19463.452036792285, 35876.00271415743, 11083.201895141829, 33063.79563376852, 3163.174171826145, 39108.71316298404, 28449.054473525823, 40918.086876641144, 35803.35954467768, 30422.691157184978, 24791.146789925908, 0.076, 1.02, 0.154, 192.0, 0.0, 0.0, 0.0, 0.0, 0.0, 0.0, 0.0, 0.0, 0.0, 1.7074745435194445E9, 0.0, 2024-02-09 11:29:03.519
206.0, -9234.422056010015, -15714.840974192737, 19617.053224689153, -229.91004346728846, 47486.50461274441, 19555.720037903793, 36034.34247187882, 11230.678705057944, 33242.56488592206, 3281.9736936061017, 39277.62529583279, 28524.55866629585, 41027.498665749874, 35909.68679305158, 30499.02236449985, 24845.416825463395, 0.076, 1.016, 0.152, 192.0, 1.0, 48.0, 15.5, 96.0, 2.0, 96.0, 0.0, 0.0, 0.0, 1.7074745435284438E9, 0.0, 2024-02-09 11:29:03.528
208.0, -9393.566476531802, -15815.535582963896, 19454.51133901016, -266.03046250706467, 47132.56473929462, 19418.234457759198, 35853.360397024204, 11066.974528667275, 33242.900162088896, 3308.773435208015, 39373.60368652388, 28494.562625236827, 41222.00354599995, 35947.818869092334, 30531.70061489351, 24913.58964605208, 0.076, 1.016, 0.152, 192.0, 0.0, 0.0, 0.0, 0.0, 0.0, 0.0, 0.0, 0.0, 0.0, 1.7074745435364068E9, 0.0, 2024-02-09 11:29:03.536
210.0, -9283.88646648961, -15742.177157661577, 19546.15349127692, -267.5280293855702, 47276.93465673145, 19468.48117929473, 35942.6332643787, 11121.602192116046, 32944.95140849965, 3254.2128269926106, 38977.64253349812, 28396.930205456047, 40617.07593406152, 35607.55826324919, 30306.305623806194, 24677.42111413731, 0.076, 1.016, 0.152, 192.0, 0.0, 0.0, 0.0, 0.0, 0.0, 0.0, 0.0, 0.0, 0.0, 1.707474543543609E9, 0.0, 2024-02-09 11:29:03.543
212.0, -9256.103248131663, -15729.459015066508, 19633.615867330536, -183.99956035608773, 47493.411301781096, 19553.842491369545, 36043.663149316686, 11220.50866133078, 33402.71513494434, 3471.1141551869105, 39494.1242926269, 28569.262155206463, 41346.94979750512, 36096.61443193131, 30610.401107120648, 24959.969515796845, 0.076, 1.016, 0.152, 192.0, 0.0, 0.0, 0.0, 0.0, 0.0, 0.0, 0.0, 0.0, 0.0, 1.7074745435514357E9, 0.0, 2024-02-09 11:29:03.551
214.0, -9352.975708600963, -15786.50066691645, 19514.0563862391, -253.42407863427147, 47145.72991677879, 19446.107083094965, 35854.45563250251, 11063.420601298882, 33089.142511980834, 3393.0171600600675, 39119.77727648941, 28431.374243661674, 40944.19371416494, 35774.52579433034, 30438.315026559238, 24799.23812141873, 0.076, 1.016, 0.152, 192.0, 0.0, 0.0, 0.0, 0.0, 0.0, 0.0, 0.0, 0.0, 0.0, 1.7074745435604956E9, 0.0, 2024-02-09 11:29:03.560
216.0, -9232.388047264581, -15728.319076099287, 19644.21059420235, -236.63791854833588, 47526.60364229723, 19523.9582090328, 36026.02762294145, 11220.642771797511, 33216.86037979846, 3492.5271263750947, 39248.165696640695, 28489.980517623488, 41010.95837485294, 35750.184744618506, 30487.51121610537, 24815.53254312665, 0.074, 1.026, 0.156, 192.0, 1.0, 40.0, 16.0, 8.0, 2.0, 112.0, 0.0, 0.0, 0.0, 1.7074745435684762E9, 0.0, 2024-02-09 11:29:03.568
218.0, -9358.89892088162, -15776.889416800668, 19542.711322630803, -201.50097626459316, 47234.08636261062, 19465.530749026628, 35874.8180717013, 11110.135747210474, 33254.076034316546, 3557.1236678509317, 39384.8466139849, 28511.684061489592, 41260.76147088545, 36019.56796879387, 30560.646123963135, 24930.666378815935, 0.074, 1.026, 0.156, 192.0, 0.0, 0.0, 0.0, 0.0, 0.0, 0.0, 0.0, 0.0, 0.0, 1.707474543575523E9, 0.0, 2024-02-09 11:29:03.575
220.0, -9289.228533414429, -15733.59408779074, 19568.39347700995, -222.4445608192159, 47279.281589899256, 19498.09724069801, 35914.268900664916, 11122.96564852782, 32961.156423229746, 3549.5911299694935, 39013.897063004624, 28465.192433022552, 40734.44494419634, 35746.3849480611, 30384.693191610957, 24741.235344557208, 0.074, 1.026, 0.156, 192.0, 0.0, 0.0, 0.0, 0.0, 0.0, 0.0, 0.0, 0.0, 0.0, 1.7074745435835443E9, 0.0, 2024-02-09 11:29:03.583
222.0, -9312.74256858141, -15800.358748478742, 19542.19723250833, -274.9711602891875, 47398.59520180168, 19479.969975944758, 35978.41840725165, 11162.036497835696, 33345.62877960548, 3445.63316650786, 39425.05740226, 28493.48974150297, 41264.270694764935, 35923.36606065823, 30554.275876793374, 24915.02015769722, 0.074, 1.026, 0.156, 192.0, 0.0, 0.0, 0.0, 0.0, 0.0, 0.0, 0.0, 0.0, 0.0, 1.707474543592494E9, 0.0, 2024-02-09 11:29:03.592
224.0, -9407.804537749833, -15803.331530491298, 19414.144088523877, -363.9981584546755, 47096.08669234356, 19392.485248146684, 35837.46830671648, 11024.997952580208, 33020.9473396477, 3458.9771579476787, 39077.04074109087, 28411.660005052094, 40853.95972179886, 35712.231482533396, 30415.180971047997, 24750.75718769517, 0.074, 1.026, 0.156, 192.0, 0.0, 0.0, 0.0, 0.0, 0.0, 0.0, 0.0, 0.0, 0.0, 1.7074745435997307E9, 0.0, 2024-02-09 11:29:03.599
226.0, -9205.431843451483, -15696.937226884036, 19693.295025026207, -169.82855437142305, 47578.213820244535, 19594.63442500048, 36092.47935920708, 11258.059592015696, 33141.2220765617, 3399.365055485375, 39199.148321050205, 28435.57637161927, 41032.393697785585, 35826.91828333357, 30482.258556158373, 24794.276034149654, 0.07300000000000001, 1.0230000000000001, 0.157, 192.0, 1.0, 32.0, 15.5, 112.0, 2.0, 120.0, 0.0, 0.0, 0.0, 1.707474543607573E9, 0.0, 2024-02-09 11:29:03.607
228.0, -9380.133078114162, -15856.28281310592, 19486.8990167259, -292.1820035197739, 47218.037810091715, 19416.871001347423, 35897.14746441215, 11108.302904165139, 33217.2403594542, 3459.155971903321, 39386.522994819046, 28507.370174809716, 41320.01594543648, 36039.61748357028, 30581.924984684585, 24937.081329474608, 0.07300000000000001, 1.0230000000000001, 0.157, 192.0, 0.0, 0.0, 0.0, 0.0, 0.0, 0.0, 0.0, 0.0, 0.0, 1.7074745436165814E9, 0.0, 2024-02-09 11:29:03.616
230.0, -9334.647278147611, -15844.905775178167, 19494.9009412409, -373.63176031491287, 47276.84524975363, 19426.571658441026, 35926.33884267078, 11139.997677802763, 32971.39352219028, 2968.7810502983393, 38972.76985320686, 28320.88957081909, 40749.0182815812, 35539.36309091605, 30363.034351233764, 24691.055678255045, 0.07300000000000001, 1.0230000000000001, 0.157, 192.0, 0.0, 0.0, 0.0, 0.0, 0.0, 0.0, 0.0, 0.0, 0.0, 1.707474543624602E9, 0.0, 2024-02-09 11:29:03.624
232.0, -9188.042186265253, -15606.435013584498, 19712.8528014246, -103.42152159470578, 47522.40151433963, 19569.19813981034, 36054.0567104884, 11268.475504931868, 33333.80470678863, 3460.16180040381, 39458.1156323094, 28529.78897449839, 41451.69007202269, 36070.35113219632, 30585.791836475353, 24923.491468845783, 0.07300000000000001, 1.0230000000000001, 0.157, 192.0, 0.0, 0.0, 0.0, 0.0, 0.0, 0.0, 0.0, 0.0, 0.0, 1.7074745436315944E9, 0.0, 2024-02-09 11:29:03.631
234.0, -9310.619152858157, -15729.727235999972, 19604.625654772004, -156.57396990942598, 47199.95524882737, 19518.929066530356, 35887.826786974285, 11110.24750593275, 33249.40451972539, 3466.487344084662, 39216.6050334698, 28606.544864957916, 41079.06414020826, 35999.09377087281, 30507.18075122604, 24856.078607568576, 0.07300000000000001, 1.0230000000000001, 0.157, 192.0, 0.0, 0.0, 0.0, 0.0, 0.0, 0.0, 0.0, 0.0, 0.0, 1.707474543639578E9, 0.0, 2024-02-09 11:29:03.639
236.0, -9275.728079763423, -15769.558044619329, 19546.131139532466, -257.69326182523514, 47469.83021138075, 19526.416900922883, 36018.51743680447, 11196.949922674887, 33281.68043871885, 3009.528280440364, 39266.87410674979, 28511.706413234046, 41123.8570360967, 35946.74598535848, 30520.949425810508, 24845.48388069676, 0.07250000000000001, 1.0195, 0.1625, 192.0, 1.0, 32.0, 15.5, 96.0, 2.5, 32.0, 0.0, 0.0, 0.0, 1.7074745436485796E9, 0.0, 2024-02-09 11:29:03.648
238.0, -9453.089172016284, -15884.960101242079, 19410.90308557786, -317.84180615446644, 47131.961242194324, 19373.44156187076, 35828.03587055634, 11042.968755122276, 33132.571951457496, 2743.3637074665676, 39265.68946429366, 28430.591932605737, 41193.68388577508, 35882.99881017194, 30470.590945552703, 24859.364314003506, 0.07250000000000001, 1.0195, 0.1625, 192.0, 0.0, 0.0, 0.0, 0.0, 0.0, 0.0, 0.0, 0.0, 0.0, 1.7074745436556337E9, 0.0, 2024-02-09 11:29:03.655
240.0, -9317.391731428115, -15740.143148916144, 19497.337281386528, -311.1586345623296, 47238.91433941297, 19453.70667620977, 35891.470121320504, 11093.19312491335, 32750.424176505112, 2539.0911148895166, 38882.24528816286, 28308.79727706877, 40760.75294742024, 35637.75547000831, 30303.42224877146, 24643.759386987615, 0.07250000000000001, 1.0195, 0.1625, 192.0, 0.0, 0.0, 0.0, 0.0, 0.0, 0.0, 0.0, 0.0, 0.0, 1.7074745436636696E9, 0.0, 2024-02-09 11:29:03.663
242.0, -9160.23661616285, -15639.00150525588, 19699.50880998478, -138.6255191118144, 47526.31306961931, 19571.16509332241, 36033.51545733398, 11240.066437729172, 33583.69720979896, 2985.768376084373, 39530.602339577956, 28603.817952134366, 41584.97352420969, 36155.3324646154, 30606.131923929683, 24960.59536464159, 0.07250000000000001, 1.0195, 0.1625, 192.0, 0.0, 0.0, 0.0, 0.0, 0.0, 0.0, 0.0, 0.0, 0.0, 1.707474543671635E9, 0.0, 2024-02-09 11:29:03.671
244.0, -9328.008810044386, -15738.01973319289, 19586.766610952214, -206.0160286445652, 47191.37217895653, 19464.390810059405, 35864.75978669641, 11069.388517068448, 33252.757281393686, 2847.1428569725585, 39206.09971357581, 28513.02516615691, 41240.086107264295, 35913.15131344215, 30491.758047551877, 24830.15058400042, 0.07250000000000001, 1.0195, 0.1625, 192.0, 0.0, 0.0, 0.0, 0.0, 0.0, 0.0, 0.0, 0.0, 0.0, 1.70747454368068E9, 0.0, 2024-02-09 11:29:03.680
246.0, -9197.474622425392, -15673.95963358398, 19635.873393520524, -210.3969705578054, 47523.69791551804, 19543.895965086933, 36039.59513182582, 11225.537803833224, 33112.83536110346, 2715.6475443419868, 39214.10163809081, 28519.663634260138, 41179.78110072388, 35950.97046506053, 30497.79301855481, 24816.314854182587, 0.07425000000000001, 1.01675, 0.16125, 192.0, 1.0, 48.0, 15.5, 88.0, 2.5, 0.0, 0.0, 0.0, 0.0, 1.7074745436878095E9, 0.0, 2024-02-09 11:29:03.687
248.0, -9318.330504695237, -15760.662050326117, 19546.801691866123, -188.35815052487263, 47254.58291227614, 19478.47240906625, 35900.58963305827, 11131.10168350955, 33403.29628030018, 2664.6632152394313, 39418.86596904587, 28554.286486421406, 41494.33720044341, 36043.55139059441, 30582.43907480706, 24933.236829428297, 0.07425000000000001, 1.01675, 0.16125, 192.0, 0.0, 0.0, 0.0, 0.0, 0.0, 0.0, 0.0, 0.0, 0.0, 1.7074745436957042E9, 0.0, 2024-02-09 11:29:03.695
250.0, -9224.92256461651, -15697.138392584133, 19613.141669409477, -210.55343276899254, 47323.672154387496, 19499.438345365328, 35947.64005513669, 11144.557433671645, 33139.836268405474, 2453.1933609477715, 39067.9212293531, 28457.481081185473, 40902.44065552243, 35831.410983969094, 30402.842808108668, 24742.643504457894, 0.07425000000000001, 1.01675, 0.16125, 192.0, 0.0, 0.0, 0.0, 0.0, 0.0, 0.0, 0.0, 0.0, 0.0, 1.707474543704677E9, 0.0, 2024-02-09 11:29:03.704
252.0, -9209.186936519973, -15678.519389452862, 19668.730457869824, -166.4310892142164, 47518.24408987095, 19565.510101975215, 36050.27926567546, 11253.70100184691, 33531.818810918194, 2656.90715991344, 39539.25246468216, 28596.397172975205, 41621.98801302767, 36109.24316754856, 30638.02786326741, 24969.17843451243, 0.07425000000000001, 1.01675, 0.16125, 192.0, 0.0, 0.0, 0.0, 0.0, 0.0, 0.0, 0.0, 0.0, 0.0, 1.7074745437117295E9, 0.0, 2024-02-09 11:29:03.711
254.0, -9288.468574102948, -15723.647561508127, 19596.51197153473, -178.8139556424565, 47208.672429164944, 19488.24012139322, 35886.10570265123, 11097.596418571045, 33195.87209175493, 2552.45745807379, 39187.413655211174, 28499.703526461548, 41200.88114748969, 35883.42349331659, 30496.161341209572, 24839.046578293634, 0.07425000000000001, 1.01675, 0.16125, 192.0, 0.0, 0.0, 0.0, 0.0, 0.0, 0.0, 0.0, 0.0, 0.0, 1.7074745437197027E9, 0.0, 2024-02-09 11:29:03.719
0.0, -9194.39008169056, -15676.798305129803, 19657.37577168653, -195.6001157283921, 47547.90485476314, 19579.658756215424, 36072.92158280869, 11257.366687937581, 33328.50734335272, 2541.16982712386, 39303.3745054453, 28544.719939794537, 41253.43009870411, 35977.36787526225, 30548.911458124097, 24862.381799504972, 0.075125, 1.014375, 0.16062500000000002, 192.0, 1.0, 48.0, 15.5, 80.0, 2.5, 0.0, 0.0, 0.0, 0.0, 1.7074745437280405E9, 0.0, 2024-02-09 11:29:03.728
2.0, -9321.929135552542, -15755.54350084585, 19559.139854805453, -198.21526982966304, 47267.14459266002, 19478.025374177145, 35918.85100827825, 11128.642991619468, 33342.20896270382, 2462.6705005968215, 39419.33535567944, 28519.730689493503, 41522.76861939056, 36025.08884967433, 30592.7208772565, 24944.569163867138, 0.075125, 1.014375, 0.16062500000000002, 192.0, 0.0, 0.0, 0.0, 0.0, 0.0, 0.0, 0.0, 0.0, 0.0, 1.7074745437357583E9, 0.0, 2024-02-09 11:29:03.735
4.0, -9248.97304165042, -15711.912895669091, 19609.63244552999, -210.3969705578054, 47334.155122537035, 19526.886287556445, 35963.53214544441, 11169.189056061394, 33101.190102242246, 2422.459712321724, 39065.127261296184, 28467.82993886828, 40989.85832808713, 35840.776364895864, 30422.087660084686, 24753.215879585252, 0.075125, 1.014375, 0.16062500000000002, 192.0, 0.0, 0.0, 0.0, 0.0, 0.0, 0.0, 0.0, 0.0, 0.0, 1.7074745437437632E9, 0.0, 2024-02-09 11:29:03.743
6.0, -9262.428791812516, -15722.440567307542, 19592.622767999503, -215.537871782526, 47465.8516008677, 19523.555877632603, 36019.120933904764, 11224.710789288378, 33414.22628333882, 2469.8677623114304, 39489.58688850247, 28555.806405044368, 41540.58295972145, 36079.00125730053, 30625.957921261543, 24955.94620179489, 0.075125, 1.014375, 0.16062500000000002, 192.0, 0.0, 0.0, 0.0, 0.0, 0.0, 0.0, 0.0, 0.0, 0.0, 1.7074745437518024E9, 0.0, 2024-02-09 11:29:03.751
