%OpenBCI Raw EXG Data
%Number of channels = 16
%Sample Rate = 125 Hz
%Board = OpenBCI_GUI$BoardCytonSerialDaisy
Sample Index, EXG Channel 0, EXG Channel 1, EXG Channel 2, EXG Channel 3, EXG Channel 4, EXG Channel 5, EXG Channel 6, EXG Channel 7, EXG Channel 8, EXG Channel 9, EXG Channel 10, EXG Channel 11, EXG Channel 12, EXG Channel 13, EXG Channel 14, EXG Channel 15, Accel Channel 0, Accel Channel 1, Accel Channel 2, Other, Other, Other, Other, Other, Other, Other, Analog Channel 0, Analog Channel 1, Analog Channel 2, Timestamp, Other, Timestamp (Formatted)
0.0, -17536.12816764452, -7785.894904839386, 14771.954986090064, -3002.3533704702104, 45988.334237138544, 16652.4295988595, 33362.7278641138, 8164.309938467734, 0.0, 0.0, 0.0, 0.0, 0.0, 0.0, 0.0, 0.0, 0.0, 0.0, 0.0, 192.0, 0.0, 0.0, 0.0, 0.0, 0.0, 0.0, 0.0, 0.0, 0.0, 1.7074742321474743E9, 0.0, 2024-02-09 11:23:52.147
26.0, -17630.63134320156, -7913.635124401466, 14703.223371889993, -2993.8150040882833, 45633.79086658846, 16557.412333179993, 33173.810919977535, 7995.978950974817, 28423.48407786895, 5625.151768344852, 38952.11684133016, 27736.05617714598, 39362.204296851676, 33502.158046026, 27459.609801722745, 24495.209693337645, 0.0, 0.0, 0.0, 192.0, 0.0, 0.0, 0.0, 0.0, 0.0, 0.0, 0.0, 0.0, 0.0, 1.7074742321475384E9, 0.0, 2024-02-09 11:23:52.147
0.0, -9363.928063384064, -5685.07679522953, 7347.711306537546, -1525.0148206966903, 22959.0190004133, 8369.99069094547, 16649.300354635758, 4250.608891321289, 14269.711288179315, 2849.355679673634, 19507.127345457953, 13900.348711055365, 19654.402989673974, 16781.622681811175, 13745.00408709098, 12236.686019502404, 0.065, 0.492, 0.113, 192.0, 2.0, 8.0, 15.0, 96.0, 3.5, 8.0, 0.0, 0.0, 0.0, 1.707474232237678E9, 0.0, 2024-02-09 11:23:52.237
2.0, -18715.294446384247, -11161.745925157777, 14730.6266105922, -3053.9635484175146, 45846.0206801916, 16745.479911026945, 33278.35002879501, 8482.576427766851, 27654.405254650745, 2170.4661453325925, 38358.92389523076, 27700.852179628873, 39136.96576797555, 33497.86651109058, 27545.149927753202, 24303.76700207794, 0.065, 0.492, 0.113, 192.0, 0.0, 0.0, 0.0, 0.0, 0.0, 0.0, 0.0, 0.0, 0.0, 1.7074742322456856E9, 0.0, 2024-02-09 11:23:52.245
4.0, -18696.943664186438, -10937.31205908204, 14763.34956447477, -3082.797298764861, 46199.96055364139, 16822.41461544211, 33442.09890867459, 8670.308729446975, 27890.439676098787, 2097.5324031749255, 38669.36727397052, 27793.92484354077, 39456.81923113099, 33699.79217049982, 27709.681118688717, 24449.254506737532, 0.065, 0.492, 0.113, 192.0, 0.0, 0.0, 0.0, 0.0, 0.0, 0.0, 0.0, 0.0, 0.0, 1.7074742322536771E9, 0.0, 2024-02-09 11:23:52.253
6.0, -18692.093335639638, -10792.763327689569, 14678.055307633318, -3078.908095229637, 45841.08094466698, 16717.16025080207, 33259.932191363834, 8511.365474625287, 27731.78699395502, 1982.0856430632643, 38589.88447068745, 27706.685984931708, 39502.46149330872, 33625.629082397114, 27674.365362449334, 24459.581012675884, 0.065, 0.492, 0.113, 192.0, 0.0, 0.0, 0.0, 0.0, 0.0, 0.0, 0.0, 0.0, 0.0, 1.7074742322617068E9, 0.0, 2024-02-09 11:23:52.261
8.0, -18624.769881340253, -10598.370206161762, 14749.424427679114, -3097.3929878941763, 46077.89767717096, 16792.306815660813, 33409.554768747665, 8634.210662151654, 27616.049661165438, 1992.5686112128035, 38347.099822413904, 27693.252586514067, 39106.29917458286, 33511.25520601931, 27567.278154763957, 24294.200455451068, 0.124, 0.984, 0.234, 192.0, 1.5, 112.0, 15.0, 96.0, 3.5, 40.0, 0.0, 0.0, 0.0, 1.7074742322696905E9, 0.0, 2024-02-09 11:23:52.269
10.0, -18596.025537970727, -10463.49978011844, 14681.788048957354, -3101.3492466627654, 46069.51577300022, 16757.3039838438, 33388.63353593749, 8649.05222046998, 27886.773990008118, 2071.6267313512244, 38768.6984263299, 27755.859822733382, 39693.278335723684, 33730.637577848145, 27774.858805520395, 24559.38155166883, 0.124, 0.984, 0.234, 192.0, 0.0, 0.0, 0.0, 0.0, 0.0, 0.0, 0.0, 0.0, 0.0, 1.7074742322778077E9, 0.0, 2024-02-09 11:23:52.277
12.0, -18532.881859884485, -10297.22515311541, 14670.031031373863, -3095.7166070600283, 45841.63973827836, 16721.4964892264, 33312.57054955608, 8551.352745455832, 27575.12361706777, 2145.7898194539334, 38277.272972735525, 27639.921324243704, 39121.85598872376, 33461.16494669497, 27535.426918915146, 24319.368519707743, 0.124, 0.984, 0.234, 192.0, 0.0, 0.0, 0.0, 0.0, 0.0, 0.0, 0.0, 0.0, 0.0, 1.7074742322848015E9, 0.0, 2024-02-09 11:23:52.284
14.0, -18463.837321262043, -10136.24788954829, 14714.063967950819, -3108.144176977179, 46204.0062193878, 16807.32718793478, 33506.53898793924, 8756.340593855452, 27896.85462675746, 2418.8387297199642, 38593.483101544756, 27742.605238271386, 39440.0107193006, 33648.5396204638, 27700.62866218432, 24473.103818071344, 0.124, 0.984, 0.234, 192.0, 0.0, 0.0, 0.0, 0.0, 0.0, 0.0, 0.0, 0.0, 0.0, 1.7074742322937975E9, 0.0, 2024-02-09 11:23:52.293
16.0, -18365.176721236316, -9979.495105683221, 14639.409141470092, -3079.1092609297352, 45836.99057543166, 16702.273988994835, 33337.29157892366, 8596.659731466738, 27837.756614417627, 2750.739783136819, 38543.92928408734, 27691.66561265774, 39491.77735945909, 33587.184081933985, 27660.70844658714, 24510.72180398963, 0.124, 0.984, 0.234, 192.0, 0.0, 0.0, 0.0, 0.0, 0.0, 0.0, 0.0, 0.0, 0.0, 1.7074742323017914E9, 0.0, 2024-02-09 11:23:52.301
18.0, -18223.66782708977, -9731.16722478476, 14731.408921648137, -3083.490202842975, 46066.87826715449, 16764.992983936427, 33476.9005747915, 8680.232903985132, 27816.611864162907, 3161.564846225363, 38324.23398783612, 27703.2885197745, 39082.06988359331, 33464.651818829996, 27554.805881357897, 24355.801863169894, 0.11800000000000001, 0.986, 0.23800000000000002, 192.0, 1.5, 88.0, 15.0, 104.0, 3.5, 56.0, 0.0, 0.0, 0.0, 1.7074742323097963E9, 0.0, 2024-02-09 11:23:52.309
20.0, -18112.91493331372, -9491.131841079217, 14700.80938348882, -3068.201609635545, 46075.5283922587, 16725.65391369509, 33466.05997873068, 8665.234883455621, 28177.48077839384, 3302.7608159495376, 38791.094874274124, 27786.146436470324, 39667.193849944335, 33692.72901925195, 27763.973505970658, 24618.568970986486, 0.11800000000000001, 0.986, 0.23800000000000002, 192.0, 0.0, 0.0, 0.0, 0.0, 0.0, 0.0, 0.0, 0.0, 0.0, 1.7074742323167949E9, 0.0, 2024-02-09 11:23:52.316
22.0, -18051.760560484, -9224.006143093842, 14711.582924316279, -3053.0247751503916, 45860.45990710973, 16691.858076078664, 33372.27205899621, 8530.789140556948, 27912.880827531913, 3312.4391212986857, 38352.285427127536, 27686.032973055004, 39088.32837204079, 33422.58583576511, 27534.532849136933, 24385.619090273274, 0.11800000000000001, 0.986, 0.23800000000000002, 192.0, 0.0, 0.0, 0.0, 0.0, 0.0, 0.0, 0.0, 0.0, 0.0, 1.7074742323258135E9, 0.0, 2024-02-09 11:23:52.325
24.0, -18024.491432248527, -9039.626603082013, 14769.049259310874, -3049.3590890597216, 46225.910928954, 16789.714013303997, 33581.21616616442, 8683.0492237865, 28252.02384615229, 3490.9848560076784, 38722.3409083296, 27808.162904758803, 39399.866986258865, 33618.81180033825, 27709.72582217763, 24553.413635899262, 0.11800000000000001, 0.986, 0.23800000000000002, 192.0, 0.0, 0.0, 0.0, 0.0, 0.0, 0.0, 0.0, 0.0, 0.0, 1.7074742323338337E9, 0.0, 2024-02-09 11:23:52.333
26.0, -18038.03658938844, -9043.35934440605, 14694.506191552424, -3026.157978315113, 45839.78454348857, 16689.287625466302, 33358.61514313402, 8455.1955408091, 28214.83054337866, 3642.9096630704003, 38722.1397426295, 27749.06489241897, 39451.96890258419, 33571.82843349319, 27689.05045855647, 24593.53501719654, 0.11800000000000001, 0.986, 0.23800000000000002, 192.0, 0.0, 0.0, 0.0, 0.0, 0.0, 0.0, 0.0, 0.0, 0.0, 1.7074742323408084E9, 0.0, 2024-02-09 11:23:52.340
28.0, -18000.262141258972, -9055.630452112015, 14795.334910790314, -3016.50202471042, 46061.044461851656, 16782.472048100477, 33492.63620288804, 8523.033085230958, 28172.33987716912, 3863.2084564219067, 38529.80298159158, 27717.481877503622, 39043.758993596915, 33440.62369354054, 27577.89523338023, 24430.12141348379, 0.1, 1.04, 0.25, 192.0, 1.5, 16.0, 16.0, 64.0, 3.5, 104.0, 0.0, 0.0, 0.0, 1.70747423234981E9, 0.0, 2024-02-09 11:23:52.349
30.0, -17987.253425985986, -9069.712051118857, 14765.093000542283, -2994.4408529330317, 46070.186325333874, 16772.234949139947, 33461.65668507298, 8509.711445535595, 28508.26424458793, 4116.744293778454, 39018.45681887351, 27797.948157542727, 39660.913009752396, 33696.50646406489, 27812.61090190541, 24709.60762615295, 0.1, 1.04, 0.25, 192.0, 0.0, 0.0, 0.0, 0.0, 0.0, 0.0, 0.0, 0.0, 0.0, 1.7074742323579645E9, 0.0, 2024-02-09 11:23:52.357
32.0, -17972.434219412116, -9023.868623241022, 14769.675108155621, -2991.1998499870124, 45830.03918290605, 16720.49066072591, 33291.38109581245, 8309.238649515944, 28216.0598893237, 4242.182283661638, 38579.78148219365, 27688.268147500534, 39086.00379061744, 33429.693690501896, 27582.56674797139, 24443.867736323802, 0.1, 1.04, 0.25, 192.0, 0.0, 0.0, 0.0, 0.0, 0.0, 0.0, 0.0, 0.0, 0.0, 1.7074742323659475E9, 0.0, 2024-02-09 11:23:52.365
34.0, -17962.17476870713, -8940.273098978174, 14820.860602958275, -3007.5836786727523, 46195.8031291727, 16797.35830990771, 33478.46519690337, 8413.554240888863, 28521.474125561017, 4452.176922819248, 38919.93032931451, 27800.719773855184, 39378.968105193155, 33621.292843972784, 27733.217505600158, 24526.435080341707, 0.1, 1.04, 0.25, 192.0, 0.0, 0.0, 0.0, 0.0, 0.0, 0.0, 0.0, 0.0, 0.0, 1.707474232372883E9, 0.0, 2024-02-09 11:23:52.372
36.0, -18003.972530838553, -8902.722168293258, 14745.065837510328, -2996.87719307866, 45821.63492699086, 16684.459648663957, 33256.73589190673, 8185.164116044536, 28456.564659662803, 4585.303912795057, 38894.918727269025, 27757.24563088961, 39458.160335798304, 33576.16467191752, 27693.878435358816, 24504.195094608676, 0.1, 1.04, 0.25, 192.0, 0.0, 0.0, 0.0, 0.0, 0.0, 0.0, 0.0, 0.0, 0.0, 1.7074742323818593E9, 0.0, 2024-02-09 11:23:52.381
38.0, -17990.94146382111, -8827.55325169006, 14831.723550763554, -2999.78291985785, 46051.41085999142, 16760.053248411805, 33387.44889348136, 8261.361212892678, 28384.100304138698, 4767.940016739371, 38670.17193677091, 27772.198947930214, 39083.522746982904, 33471.491452633316, 27581.873843893274, 24305.71160384555, 0.092, 1.02, 0.262, 192.0, 1.0, 112.0, 15.5, 112.0, 4.0, 24.0, 0.0, 0.0, 0.0, 1.7074742323888955E9, 0.0, 2024-02-09 11:23:52.388
40.0, -18050.598269772323, -8869.663938243859, 14785.254274040972, -2989.7469865974176, 46057.31172052762, 16728.581992218733, 33394.243823795776, 8244.10566617318, 28664.8158627529, 4924.916318048992, 39122.41478233514, 27844.685655198773, 39723.31908027161, 33712.24209216143, 27794.55069238552, 24557.81692955696, 0.092, 1.02, 0.262, 192.0, 0.0, 0.0, 0.0, 0.0, 0.0, 0.0, 0.0, 0.0, 0.0, 1.7074742323969774E9, 0.0, 2024-02-09 11:23:52.396
42.0, -18053.548700040425, -8855.068249114544, 14796.877181157732, -2971.105631721691, 45832.83315096297, 16711.21468677696, 33319.52194208169, 8163.952310556449, 28329.293826734287, 4992.731510726394, 38651.93291329538, 27739.878325447837, 39182.742140620016, 33460.22617342784, 27576.21885254608, 24336.15467979368, 0.092, 1.02, 0.262, 192.0, 0.0, 0.0, 0.0, 0.0, 0.0, 0.0, 0.0, 0.0, 0.0, 1.7074742324059746E9, 0.0, 2024-02-09 11:23:52.405
44.0, -18083.142409699252, -8834.45994072675, 14831.45532983009, -2999.7158646244843, 46206.64372523352, 16786.182437680058, 33536.2668080648, 8337.401847529633, 28581.645021634704, 5124.852672201714, 38957.52596348834, 27831.65458818133, 39476.89109765185, 33644.717472161945, 27741.979389426637, 24483.56443447643, 0.092, 1.02, 0.262, 192.0, 0.0, 0.0, 0.0, 0.0, 0.0, 0.0, 0.0, 0.0, 0.0, 1.7074742324139633E9, 0.0, 2024-02-09 11:23:52.413
46.0, -18179.791352723998, -8880.638644771416, 14733.666447838123, -3000.408768702599, 45835.96239518671, 16699.72589012693, 33326.67450030738, 8183.800659632762, 28447.132223502664, 5146.511512578906, 38892.7282563124, 27740.995912670605, 39519.135894672385, 33591.05093372476, 27708.51882797704, 24510.05125165597, 0.092, 1.02, 0.262, 192.0, 0.0, 0.0, 0.0, 0.0, 0.0, 0.0, 0.0, 0.0, 0.0, 1.7074742324210477E9, 0.0, 2024-02-09 11:23:52.421
48.0, -18188.32971910593, -8773.774954530592, 14814.043320899407, -3015.429140976565, 46065.15718283143, 16795.771336051384, 33483.62844987255, 8328.327039280777, 28293.73220130589, 5151.808876014814, 38600.63565977045, 27687.418781211232, 39067.094214808254, 33461.209650183875, 27584.77957067246, 24340.91560136266, 0.09, 1.018, 0.264, 192.0, 1.0, 104.0, 15.5, 104.0, 4.0, 32.0, 0.0, 0.0, 0.0, 1.7074742324289944E9, 0.0, 2024-02-09 11:23:52.428
50.0, -18204.668844302756, -8689.307712233987, 14765.093000542283, -3018.0666468222917, 46058.54106647266, 16757.236928610437, 33447.97741746633, 8312.16672803959, 28566.84816680529, 5203.910792340135, 39047.82701108778, 27766.007514716093, 39662.8129080311, 33699.9039292221, 27799.311613954498, 24601.425182989264, 0.09, 1.018, 0.264, 192.0, 0.0, 0.0, 0.0, 0.0, 0.0, 0.0, 0.0, 0.0, 0.0, 1.7074742324383268E9, 0.0, 2024-02-09 11:23:52.438
52.0, -18183.36763183685, -8562.305100238931, 14768.132837788206, -3016.792597388339, 45812.984801886654, 16710.03004432083, 33337.49274462375, 8192.80841264825, 28209.510828198294, 5110.905183661603, 38566.99628436521, 27646.783309791484, 39094.13982559917, 33438.41087083946, 27551.654285389697, 24339.753310650984, 0.09, 1.018, 0.264, 192.0, 0.0, 0.0, 0.0, 0.0, 0.0, 0.0, 0.0, 0.0, 0.0, 1.707474232445022E9, 0.0, 2024-02-09 11:23:52.445
54.0, -18066.937394969154, -8424.059560782858, 14828.214326884072, -3037.4903127539533, 46177.98878884182, 16772.994908451426, 33507.29894725072, 8322.157957811112, 28472.34499124825, 5066.268749984354, 38877.41731136052, 27747.612029029373, 39425.32562319346, 33624.98088180791, 27702.908540118762, 24446.92992531418, 0.09, 1.018, 0.264, 192.0, 0.0, 0.0, 0.0, 0.0, 0.0, 0.0, 0.0, 0.0, 0.0, 1.7074742324530172E9, 0.0, 2024-02-09 11:23:52.453
56.0, -17951.31182090185, -8361.541731541363, 14761.360259218249, -3012.0093240749034, 45808.26858380659, 16683.140895741093, 33294.08565689155, 8157.067973264215, 28374.690219723016, 4892.39452986652, 38849.902313936036, 27716.520752492044, 39532.36812738993, 33597.17531170551, 27679.37215320732, 24460.542137687462, 0.09, 1.018, 0.264, 192.0, 0.0, 0.0, 0.0, 0.0, 0.0, 0.0, 0.0, 0.0, 0.0, 1.7074742324609973E9, 0.0, 2024-02-09 11:23:52.460
58.0, -17798.202371383, -8333.64675446114, 14848.487359105035, -3023.4087137471097, 46027.44978993533, 16766.98228919295, 33423.546960776686, 8283.534143392342, 28238.657502968017, 4629.292145883101, 38592.85725270001, 27718.308892048466, 39126.952186459566, 33487.89763306351, 27570.6085646878, 24273.122760429713, 0.092, 0.996, 0.246, 192.0, 1.0, 112.0, 15.5, 16.0, 3.5, 88.0, 0.0, 0.0, 0.0, 1.7074742324700084E9, 0.0, 2024-02-09 11:23:52.470
60.0, -17822.61047632819, -8557.07479203639, 14787.78002116442, -3038.8090656768163, 46028.63443239146, 16739.936678402028, 33412.86282692705, 8298.666274388584, 28484.325526276294, 4249.55835933189, 39012.17597868157, 27795.73533484165, 39743.56976074812, 33726.63661559065, 27791.130875483857, 24511.124135389822, 0.092, 0.996, 0.246, 192.0, 0.0, 0.0, 0.0, 0.0, 0.0, 0.0, 0.0, 0.0, 0.0, 1.707474232477065E9, 0.0, 2024-02-09 11:23:52.477
62.0, -17905.64720697966, -8798.607742620437, 14775.64302392519, -3049.8061239488275, 45782.76524338308, 16709.605361176178, 33285.68140097635, 8235.321430602246, 28109.598530483072, 3669.2176662942966, 38512.70389708327, 27687.418781211232, 39169.80048058039, 33467.89282177601, 27551.11784352277, 24254.54846078735, 0.092, 0.996, 0.246, 192.0, 0.0, 0.0, 0.0, 0.0, 0.0, 0.0, 0.0, 0.0, 0.0, 1.707474232485051E9, 0.0, 2024-02-09 11:23:52.485
64.0, -17957.27973667142, -8926.705590093803, 14823.900440204197, -3069.0062724359364, 46177.005312085785, 16802.5662663658, 33498.5594151687, 8453.541511719408, 28337.586323927204, 3302.6043537383503, 38780.38838868003, 27769.919069995773, 39450.963074083695, 33628.17718126502, 27718.554761237476, 24378.39947681421, 0.092, 0.996, 0.246, 192.0, 0.0, 0.0, 0.0, 0.0, 0.0, 0.0, 0.0, 0.0, 0.0, 1.707474232493055E9, 0.0, 2024-02-09 11:23:52.493
66.0, -18067.85381649182, -9119.04235113172, 14738.136796729184, -3058.2327316084784, 45802.25596454811, 16715.41681473456, 33292.83395920205, 8334.205548072523, 28241.674988469484, 2984.0919952502245, 38752.82868776664, 27726.53433400802, 39534.96092974674, 33597.22001519442, 27707.982386110114, 24425.22638144808, 0.092, 0.996, 0.246, 192.0, 0.0, 0.0, 0.0, 0.0, 0.0, 0.0, 0.0, 0.0, 0.0, 1.70747423250121E9, 0.0, 2024-02-09 11:23:52.501
68.0, -18142.575698205914, -9251.11880911813, 14815.563239522367, -3076.918789973115, 46011.24477520523, 16802.18628671006, 33435.1922196379, 8473.546323006907, 28089.906643617946, 2843.9912610043602, 38469.743844240176, 27697.43236272721, 39096.64322097817, 33476.40883641349, 27584.243128805534, 24262.818606235818, 0.08600000000000001, 0.988, 0.256, 192.0, 1.0, 88.0, 15.0, 112.0, 4.0, 0.0, 0.0, 0.0, 0.0, 1.7074742325090415E9, 0.0, 2024-02-09 11:23:52.509
70.0, -18252.792150115034, -9369.717165197988, 14760.510892928945, -3083.6690167986176, 46023.80645558911, 16770.60327179471, 33433.26996961475, 8488.454936558597, 28353.657228190572, 2812.765874000296, 38893.108235968146, 27746.650904017795, 39704.878891095985, 33696.953498954, 27793.678974351762, 24529.60902805436, 0.08600000000000001, 0.988, 0.256, 192.0, 0.0, 0.0, 0.0, 0.0, 0.0, 0.0, 0.0, 0.0, 0.0, 1.707474232517069E9, 0.0, 2024-02-09 11:23:52.517
72.0, -18279.74835392813, -9343.431513718548, 14763.260157496949, -3071.8672957262156, 45782.34056023843, 16725.07276833925, 33346.88047729498, 8388.632045821196, 28001.416087319387, 2807.7814349867626, 38421.2182070277, 27644.548135345955, 39147.87341926973, 33442.36712960805, 27564.059503562392, 24306.56097013485, 0.08600000000000001, 0.988, 0.256, 192.0, 0.0, 0.0, 0.0, 0.0, 0.0, 0.0, 0.0, 0.0, 0.0, 1.7074742325261052E9, 0.0, 2024-02-09 11:23:52.526
74.0, -18286.7668016871, -9327.472368177458, 14825.50976580498, -3080.919752230615, 46171.842059116614, 16788.88699875915, 33544.15697385752, 8565.322585740398, 28279.82941625469, 2821.9747927158824, 38729.158190388465, 27749.24370637461, 39449.085527549454, 33631.0382045553, 27727.942493908704, 24436.335198442364, 0.08600000000000001, 0.988, 0.256, 192.0, 0.0, 0.0, 0.0, 0.0, 0.0, 0.0, 0.0, 0.0, 0.0, 1.707474232533111E9, 0.0, 2024-02-09 11:23:52.533
76.0, -18338.444034867767, -9388.425575307081, 14735.991029261475, -3065.251179367445, 45807.21805181719, 16682.20212247397, 33318.382003114464, 8403.406548906154, 28183.649859863504, 2703.734064547308, 38701.03969586369, 27692.134999291302, 39531.96579598973, 33596.25889018284, 27695.264243515045, 24465.146597045255, 0.08600000000000001, 0.988, 0.256, 192.0, 0.0, 0.0, 0.0, 0.0, 0.0, 0.0, 0.0, 0.0, 0.0, 1.7074742325411422E9, 0.0, 2024-02-09 11:23:52.541
78.0, -18340.43334012429, -9328.813472844777, 14816.390254067213, -3074.974188205503, 46025.795760845635, 16757.16987337707, 33446.144574421, 8518.83095727336, 28053.518003644705, 2657.8235814361074, 38436.19387581276, 27675.594708394376, 39082.29340103786, 33469.52449912125, 27563.858337862297, 24279.023620965912, 0.07700000000000001, 0.995, 0.255, 192.0, 1.0, 16.0, 15.5, 40.0, 3.5, 120.0, 0.0, 0.0, 0.0, 1.707474232549167E9, 0.0, 2024-02-09 11:23:52.549
80.0, -18359.29821244457, -9263.12169589063, 14763.707192386055, -3079.332778374288, 46060.41861300691, 16734.5499079883, 33491.138636009535, 8527.54813761093, 28345.789414142302, 2719.9390792774057, 38885.84391902017, 27741.666465004262, 39695.96054505832, 33699.99333619992, 27798.685765109753, 24538.080339202923, 0.07700000000000001, 0.995, 0.255, 192.0, 0.0, 0.0, 0.0, 0.0, 0.0, 0.0, 0.0, 0.0, 0.0, 1.707474232557143E9, 0.0, 2024-02-09 11:23:52.557
82.0, -18382.096991788985, -9145.216243888884, 14747.211604978038, -3082.149098175657, 45790.767167898084, 16688.25944522136, 33353.56364888712, 8381.993577717969, 28003.628910020463, 2715.424026897434, 38403.49327367464, 27620.43060307868, 39127.22040739303, 33431.213609124854, 27560.572631427367, 24293.149923461668, 0.07700000000000001, 0.995, 0.255, 192.0, 0.0, 0.0, 0.0, 0.0, 0.0, 0.0, 0.0, 0.0, 0.0, 1.707474232565143E9, 0.0, 2024-02-09 11:23:52.565
84.0, -18372.552796906566, -9026.372018620017, 14792.809163666865, -3102.7350548189947, 46172.534963194725, 16779.856893999207, 33590.35802964664, 8574.93383585618, 28276.25313714184, 2855.837685565673, 38693.909489382444, 27712.542141978996, 39405.812550283976, 33594.62721283761, 27717.01249087006, 24414.721061554083, 0.07700000000000001, 0.995, 0.255, 192.0, 0.0, 0.0, 0.0, 0.0, 0.0, 0.0, 0.0, 0.0, 0.0, 1.7074742325735333E9, 0.0, 2024-02-09 11:23:52.573
86.0, -18387.88609360291, -8937.859110577001, 14705.52560156889, -3089.1675459346234, 45799.841976146934, 16690.78519234481, 33393.75208541776, 8426.920584073137, 28191.696487867415, 2941.3331081072224, 38667.26620999172, 27651.387769149278, 39506.261289866125, 33551.28718033876, 27702.685022674206, 24469.1252075583, 0.07700000000000001, 0.995, 0.255, 192.0, 0.0, 0.0, 0.0, 0.0, 0.0, 0.0, 0.0, 0.0, 0.0, 1.7074742325822165E9, 0.0, 2024-02-09 11:23:52.582
88.0, -18342.221479680717, -8797.668969353315, 14778.727564660021, -3094.4425576260755, 46001.99115300073, 16770.066829927782, 33511.43401997495, 8510.091425191335, 28086.37506799401, 3147.4832472185194, 38407.47188418769, 27647.69973131415, 39060.321636238295, 33424.575141021625, 27566.49584370802, 24292.747592061474, 0.07350000000000001, 0.9935, 0.2525, 192.0, 1.0, 24.0, 15.5, 0.0, 3.5, 104.0, 0.0, 0.0, 0.0, 1.7074742325891953E9, 0.0, 2024-02-09 11:23:52.589
90.0, -18366.339011947992, -8730.993715643133, 14733.711151327034, -3084.071348198813, 46033.44005744935, 16757.46044605499, 33516.03847933275, 8515.612306071795, 28388.19067337402, 3286.0864145858786, 38861.65933151953, 27718.331243792923, 39676.849803549034, 33661.503632247885, 27786.01232600359, 24563.851900559894, 0.07350000000000001, 0.9935, 0.2525, 192.0, 0.0, 0.0, 0.0, 0.0, 0.0, 0.0, 0.0, 0.0, 0.0, 1.7074742325972438E9, 0.0, 2024-02-09 11:23:52.597
92.0, -18348.927003017307, -8593.75400468755, 14737.689761840078, -3066.659339268129, 45781.78176662705, 16719.88716362562, 33401.306975043655, 8403.495955883975, 28069.41009395243, 3316.976525423113, 38412.85865460142, 27615.4685158096, 39124.135866658195, 33397.99891686427, 27546.625142887253, 24336.288790260412, 0.07350000000000001, 0.9935, 0.2525, 192.0, 0.0, 0.0, 0.0, 0.0, 0.0, 0.0, 0.0, 0.0, 0.0, 1.7074742326052496E9, 0.0, 2024-02-09 11:23:52.605
94.0, -18315.868772967908, -8413.19661297758, 14803.180373094126, -3063.0607084108246, 46171.775003883246, 16792.50798136091, 33612.39684967957, 8551.397448944743, 28357.971114870445, 3432.8256169349693, 38737.696556770396, 27737.196116113202, 39394.7484367786, 33595.27541342681, 27717.3924705258, 24471.85212038185, 0.07350000000000001, 0.9935, 0.2525, 192.0, 0.0, 0.0, 0.0, 0.0, 0.0, 0.0, 0.0, 0.0, 0.0, 1.7074742326132665E9, 0.0, 2024-02-09 11:23:52.613
96.0, -18320.4732323257, -8325.533071223865, 14728.369084402215, -3041.5806819892746, 45813.65535422032, 16682.11271549615, 33400.92699538791, 8373.566970058318, 28314.184047482497, 3411.457349235696, 38749.02889120924, 27700.427496484223, 39498.48288279568, 33571.47080558191, 27698.751115650073, 24527.75383326457, 0.07350000000000001, 0.9935, 0.2525, 192.0, 0.0, 0.0, 0.0, 0.0, 0.0, 0.0, 0.0, 0.0, 0.0, 1.7074742326212215E9, 0.0, 2024-02-09 11:23:52.621
98.0, -18260.771722885576, -8207.3370465442, 14825.442710571613, -3035.880987153171, 46031.763676615206, 16737.053303367295, 33530.03067136177, 8433.693162643094, 28204.839313607135, 3540.672783931826, 38506.66892608034, 27701.81330464045, 39055.359548969216, 33440.891914474, 27570.183881543147, 24355.980677125535, 0.07975000000000002, 0.99075, 0.24425000000000002, 192.0, 1.0, 88.0, 15.0, 112.0, 3.5, 48.0, 0.0, 0.0, 0.0, 1.7074742326295588E9, 0.0, 2024-02-09 11:23:52.629
100.0, -18227.646437602813, -8285.88107656015, 14780.135724560705, -3029.242519049945, 46075.93072365889, 16709.113622798162, 33542.391186045556, 8455.10613383128, 28517.629625514703, 3783.0551008051757, 38993.64638252812, 27771.282526407544, 39676.26865819319, 33677.23926034442, 27805.480695424165, 24609.985901115644, 0.07975000000000002, 0.99075, 0.24425000000000002, 192.0, 0.0, 0.0, 0.0, 0.0, 0.0, 0.0, 0.0, 0.0, 0.0, 1.7074742326393113E9, 0.0, 2024-02-09 11:23:52.639
102.0, -18182.272396358538, -8365.296824609855, 14787.422393253137, -3012.232841519456, 45823.15484561382, 16671.897968280075, 33422.22820785382, 8323.834338645262, 28207.58857817514, 3962.5396087812915, 38556.49096447122, 27667.6821908572, 39130.05907893885, 33423.1893328654, 27572.754332155506, 24385.037944917436, 0.07975000000000002, 0.99075, 0.24425000000000002, 192.0, 0.0, 0.0, 0.0, 0.0, 0.0, 0.0, 0.0, 0.0, 0.0, 1.70747423264649E9, 0.0, 2024-02-09 11:23:52.646
104.0, -18118.905200827743, -8381.479487595498, 14845.246356159016, -3018.759550900406, 46212.2093096029, 16763.47306531347, 33648.629027441624, 8471.981700895036, 28489.22055831201, 4214.041437392407, 38861.5252210528, 27773.78592178654, 39406.930137506744, 33603.27733794181, 27732.792822455507, 24507.883132443803, 0.07975000000000002, 0.99075, 0.24425000000000002, 192.0, 0.0, 0.0, 0.0, 0.0, 0.0, 0.0, 0.0, 0.0, 0.0, 1.7074742326532757E9, 0.0, 2024-02-09 11:23:52.653
106.0, -18091.993700503554, -8434.006087065469, 14766.29999474287, -3000.5875826582414, 45840.36568884441, 16676.144799726582, 33439.10377491758, 8289.144431250625, 28446.752243846924, 4400.834965805408, 38878.60195381665, 27736.547915524, 39515.53726381508, 33582.89254699857, 27720.566418238453, 24549.926763764237, 0.07975000000000002, 0.99075, 0.24425000000000002, 192.0, 0.0, 0.0, 0.0, 0.0, 0.0, 0.0, 0.0, 0.0, 0.0, 1.7074742326613204E9, 0.0, 2024-02-09 11:23:52.661
108.0, -18004.50897270548, -8350.879949436183, 14853.024763229461, -3002.465129192487, 46024.92404281188, 16762.04255366833, 33534.143392341546, 8359.015984417914, 28346.057635075766, 4612.6847997528075, 38617.108895434016, 27729.238895087114, 39056.65595014762, 33453.0959669466, 27600.336384813356, 24368.028267386948, 0.081875, 1.000375, 0.23512500000000003, 192.0, 1.0, 80.0, 15.5, 72.0, 3.5, 8.0, 0.0, 0.0, 0.0, 1.7074742326683192E9, 0.0, 2024-02-09 11:23:52.668
110.0, -17987.052260285887, -8346.454304034032, 14814.915038933164, -2995.3796262001547, 46052.930778614376, 16755.158216376094, 33515.54674095473, 8393.057691223346, 28649.52726954547, 4825.540462200697, 39086.964915629025, 27813.79554436154, 39675.732216326265, 33694.13717915263, 27825.79843113404, 24622.10054661042, 0.081875, 1.000375, 0.23512500000000003, 192.0, 0.0, 0.0, 0.0, 0.0, 0.0, 0.0, 0.0, 0.0, 0.0, 1.7074742326773257E9, 0.0, 2024-02-09 11:23:52.677
112.0, -17951.55769009086, -8305.371797725176, 14813.663341243666, -2981.2309719599452, 45774.51744967907, 16728.31377128527, 33344.466488893806, 8285.568152137776, 28335.41820471504, 4932.337097208154, 38640.06413698961, 27715.671386202743, 39140.18441917711, 33451.397234368, 27596.536588255953, 24405.109811438302, 0.081875, 1.000375, 0.23512500000000003, 192.0, 0.0, 0.0, 0.0, 0.0, 0.0, 0.0, 0.0, 0.0, 0.0, 1.7074742326853652E9, 0.0, 2024-02-09 11:23:52.685
114.0, -17892.526732984392, -8230.404046822077, 14872.291966949937, -2988.0035505299034, 46161.493201433805, 16823.398092198146, 33540.53599125576, 8435.324839988332, 28613.60801620579, 5120.404675055108, 38934.52601844383, 27826.31252125651, 39406.997192740106, 33629.965320821444, 27737.419633557754, 24513.694586002184, 0.081875, 1.000375, 0.23512500000000003, 192.0, 0.0, 0.0, 0.0, 0.0, 0.0, 0.0, 0.0, 0.0, 0.0, 1.7074742326933692E9, 0.0, 2024-02-09 11:23:52.693
116.0, -17896.795916175357, -8225.732532230919, 14797.815954424854, -2967.7528700533953, 45812.224842575175, 16730.683056197533, 33350.99319827476, 8265.49628561691, 28557.12515796723, 5215.265478523431, 38940.87391386914, 27786.63817484834, 39536.16792394733, 33609.26760545583, 27732.83752594442, 24564.231880215633, 0.081875, 1.000375, 0.23512500000000003, 192.0, 0.0, 0.0, 0.0, 0.0, 0.0, 0.0, 0.0, 0.0, 0.0, 1.7074742327005906E9, 0.0, 2024-02-09 11:23:52.700
118.0, -17857.34508721174, -8160.532493654788, 14877.455219919113, -2982.5497248828087, 46019.20199623132, 16786.048327213328, 33488.21055748589, 8353.98684191547, 28439.66674085459, 5322.531500164449, 38669.00964605923, 27778.323325910966, 39100.84534893577, 33491.138636009535, 27609.70176574013, 24375.113770379277, 0.0789375, 1.0071875000000001, 0.2275625, 192.0, 1.0, 48.0, 15.5, 88.0, 3.0, 112.0, 0.0, 0.0, 0.0, 1.7074742327094038E9, 0.0, 2024-02-09 11:23:52.709
120.0, -17841.877680048667, -8121.439292602456, 14835.858623487786, -2985.701320851007, 46067.01237762122, 16734.16992833256, 33486.154196996, 8306.958771581503, 28729.859439117845, 5413.704265797647, 39126.81807599284, 27856.062693126525, 39719.005193591736, 33708.24112990393, 27829.486468969164, 24604.129744068356, 0.0789375, 1.0071875000000001, 0.2275625, 192.0, 0.0, 0.0, 0.0, 0.0, 0.0, 0.0, 0.0, 0.0, 0.0, 1.707474232717373E9, 0.0, 2024-02-09 11:23:52.717
122.0, -17818.542458837328, -8088.492821275333, 14831.36592285227, -2983.466146405476, 45808.89443265134, 16682.91737829654, 33359.26334372322, 8180.894932853572, 28412.263502152386, 5436.704210842158, 38681.30310550965, 27764.554651326496, 39184.88790808772, 33452.35835937958, 27606.259597094013, 24364.831967929837, 0.0789375, 1.0071875000000001, 0.2275625, 192.0, 0.0, 0.0, 0.0, 0.0, 0.0, 0.0, 0.0, 0.0, 0.0, 1.707474232724465E9, 0.0, 2024-02-09 11:23:52.724
124.0, -17794.022595169856, -8037.843768339607, 14890.866266592297, -2992.5856581432413, 46194.68554194993, 16773.5089985739, 33562.66421826652, 8355.059725649324, 28662.46892958509, 5538.941089980733, 38959.00117862239, 27847.837251166973, 39444.30225423602, 33618.52122766033, 27754.339904110424, 24468.007620335535, 0.0789375, 1.0071875000000001, 0.2275625, 192.0, 0.0, 0.0, 0.0, 0.0, 0.0, 0.0, 0.0, 0.0, 0.0, 1.7074742327334418E9, 0.0, 2024-02-09 11:23:52.733
126.0, -17829.740682809435, -8059.256739527791, 14816.03262615593, -2973.9443032675154, 45831.82732246248, 16697.714233125953, 33355.441195421365, 8215.00369489237, 28589.08815253832, 5544.886654005844, 38959.157640833575, 27793.92484354077, 39570.43314819731, 33606.51834088783, 27747.187345884722, 24516.734423248105, 0.0789375, 1.0071875000000001, 0.2275625, 192.0, 0.0, 0.0, 0.0, 0.0, 0.0, 0.0, 0.0, 0.0, 0.0, 1.7074742327414415E9, 0.0, 2024-02-09 11:23:52.741
128.0, -17754.057676083765, -7937.484435735279, 14902.422118475692, -2979.4875358924314, 46030.17670275888, 16770.715030516985, 33492.85972033259, 8299.627399400164, 28467.02527606789, 5593.792270874056, 38688.74623641327, 27792.60609061791, 39118.8832067112, 33487.04826677421, 27619.38007108928, 24342.234354285523, 0.07446875, 1.01359375, 0.22378125, 192.0, 1.0, 24.0, 15.5, 112.0, 3.0, 112.0, 0.0, 0.0, 0.0, 1.707474232748472E9, 0.0, 2024-02-09 11:23:52.748
130.0, -17781.684432230526, -7934.131674066982, 14859.395010399225, -2990.149317997613, 46074.321398058106, 16745.859890682685, 33490.33397320914, 8303.31543723529, 28758.603782487367, 5665.787239764601, 39150.08624197081, 27870.390161322375, 39730.31517628612, 33726.63661559065, 27840.483527241176, 24591.43395321774, 0.07446875, 1.01359375, 0.22378125, 192.0, 0.0, 0.0, 0.0, 0.0, 0.0, 0.0, 0.0, 0.0, 0.0, 1.7074742327565055E9, 0.0, 2024-02-09 11:23:52.756
132.0, -17821.62699957216, -7927.4708542193, 14846.073370703862, -2981.253323704401, 45801.45130174772, 16730.5489457308, 33326.5180380962, 8218.736436216406, 28413.58225507525, 5617.552175230047, 38685.41582648943, 27748.39434008531, 39190.02880931244, 33469.70331307689, 27601.141047613746, 24360.361619038777, 0.07446875, 1.01359375, 0.22378125, 192.0, 0.0, 0.0, 0.0, 0.0, 0.0, 0.0, 0.0, 0.0, 0.0, 1.7074742327654383E9, 0.0, 2024-02-09 11:23:52.765
134.0, -17816.03906345833, -7885.583685110055, 14889.793382858443, -3005.147338527124, 46178.65934117548, 16816.13377525017, 33504.63908966054, 8373.499914824954, 28627.13082160125, 5652.800876236067, 38942.99732959239, 27823.965588088704, 39440.413050700794, 33638.12370754763, 27733.955113167183, 24459.960992331624, 0.07446875, 1.01359375, 0.22378125, 192.0, 0.0, 0.0, 0.0, 0.0, 0.0, 0.0, 0.0, 0.0, 0.0, 1.7074742327736032E9, 0.0, 2024-02-09 11:23:52.773
136.0, -17830.321828165273, -7862.27081564317, 14815.004445910985, -2984.9860650284368, 45837.258796365124, 16719.954218858984, 33324.55108458413, 8206.308866299256, 28550.151413697175, 5614.400579261849, 38954.530829731324, 27777.719828810674, 39572.824784854034, 33619.772925349826, 27727.62956948633, 24504.016280653035, 0.07446875, 1.01359375, 0.22378125, 192.0, 0.0, 0.0, 0.0, 0.0, 0.0, 0.0, 0.0, 0.0, 0.0, 1.7074742327805195E9, 0.0, 2024-02-09 11:23:52.780
138.0, -17778.197560095497, -7814.326323786537, 14891.268597992492, -2996.1395855116352, 46030.064944036596, 16787.791763280842, 33449.47498434484, 8304.54478318033, 28405.312109626786, 5522.177281639252, 38660.53833491067, 27752.238840131624, 39112.93764268609, 33483.516691150275, 27592.513274253997, 24311.880685315216, 0.071234375, 1.0177968750000002, 0.224890625, 192.0, 1.0, 16.0, 15.5, 120.0, 3.5, 8.0, 0.0, 0.0, 0.0, 1.707474232788534E9, 0.0, 2024-02-09 11:23:52.788
140.0, -17795.47545855945, -7870.1609814358935, 14834.74103626502, -3016.703190410518, 46077.38358704848, 16752.073675641263, 33455.10762394758, 8287.646864372118, 28648.566144533892, 5313.76961633797, 39094.20688083254, 27796.227073219667, 39722.11208607103, 33718.58998758674, 27817.863561852406, 24552.228993443132, 0.071234375, 1.0177968750000002, 0.224890625, 192.0, 0.0, 0.0, 0.0, 0.0, 0.0, 0.0, 0.0, 0.0, 0.0, 1.707474232797526E9, 0.0, 2024-02-09 11:23:52.797
142.0, -17746.480434713416, -7837.0580478975835, 14841.804187512898, -3000.9228588250708, 45821.523168268584, 16727.196184062504, 33339.41499464691, 8225.307849086268, 28281.25992789983, 5029.611889077651, 38614.87372098848, 27669.09035075788, 39190.85582385729, 33466.171737452954, 27593.496751010032, 24314.071156271835, 0.071234375, 1.0177968750000002, 0.224890625, 192.0, 0.0, 0.0, 0.0, 0.0, 0.0, 0.0, 0.0, 0.0, 0.0, 1.7074742328045588E9, 0.0, 2024-02-09 11:23:52.804
144.0, -17741.04896081078, -7887.640045599944, 14895.85070560583, -3025.0180393478918, 46211.62816424706, 16797.090088974248, 33544.64871223554, 8392.923580756615, 28524.22339012902, 4850.507360757275, 38894.136416213085, 27788.3592591714, 39442.26824549058, 33639.59892268168, 27750.562459297475, 24413.49171560904, 0.071234375, 1.0177968750000002, 0.224890625, 192.0, 0.0, 0.0, 0.0, 0.0, 0.0, 0.0, 0.0, 0.0, 0.0, 1.7074742328125288E9, 0.0, 2024-02-09 11:23:52.812
146.0, -17852.651220876127, -8122.400417614033, 14803.225076583038, -3025.554481214819, 45852.65914829483, 16694.78615460231, 33333.558837599616, 8250.565320320764, 28438.325636187274, 4337.1548458522375, 38889.375494644104, 27738.53722078052, 39584.53709894861, 33613.268567713334, 27738.984255669628, 24442.772500845495, 0.071234375, 1.0177968750000002, 0.224890625, 192.0, 0.0, 0.0, 0.0, 0.0, 0.0, 0.0, 0.0, 0.0, 0.0, 1.7074742328215475E9, 0.0, 2024-02-09 11:23:52.821
148.0, -17930.99408519198, -8315.40773098561, 14875.376507684769, -3037.8032371763275, 46041.24081626425, 16774.201902652014, 33437.22622838333, 8372.60584504674, 28268.430026582486, 3781.043443804198, 38565.856345397995, 27711.58101696742, 39124.22527363602, 33467.356379909084, 27600.17992260217, 24241.875021681193, 0.06661718750000001, 1.0128984375, 0.2304453125, 192.0, 0.5, 120.0, 15.5, 64.0, 3.5, 48.0, 0.0, 0.0, 0.0, 1.707474232829662E9, 0.0, 2024-02-09 11:23:52.829
150.0, -18001.156211037185, -8496.590971540329, 14828.50489956199, -3039.949004644037, 46096.40492157995, 16770.200940394516, 33436.55567604968, 8424.774816605428, 28541.300122892873, 3453.121000900388, 39006.38687686764, 27794.21541621869, 39742.854504925555, 33713.20321717301, 27828.905323613326, 24498.76362070604, 0.06661718750000001, 1.0128984375, 0.2304453125, 192.0, 0.0, 0.0, 0.0, 0.0, 0.0, 0.0, 0.0, 0.0, 0.0, 1.7074742328366425E9, 0.0, 2024-02-09 11:23:52.836
152.0, -18087.545703356947, -8638.301031386976, 14807.449556285092, -3043.055897123325, 45817.902185666826, 16719.55188745879, 33282.932136408344, 8306.712902392495, 28190.467141922374, 3116.4813776590086, 38541.15766777488, 27699.466371472645, 39211.55353922291, 33468.74218806531, 27608.718288984095, 24276.453170353554, 0.06661718750000001, 1.0128984375, 0.2304453125, 192.0, 0.0, 0.0, 0.0, 0.0, 0.0, 0.0, 0.0, 0.0, 0.0, 1.7074742328445685E9, 0.0, 2024-02-09 11:23:52.844
154.0, -18166.69323047319, -8696.86260185988, 14851.974231240063, -3064.93825494507, 46208.275402578765, 16806.18724896756, 33477.52642363625, 8493.171154638667, 28396.930205456047, 2899.445938997977, 38783.07059801467, 27790.482674894654, 39444.99515831413, 33632.75928887836, 27745.06393016147, 24376.87955819125, 0.06661718750000001, 1.0128984375, 0.2304453125, 192.0, 0.0, 0.0, 0.0, 0.0, 0.0, 0.0, 0.0, 0.0, 0.0, 1.7074742328536024E9, 0.0, 2024-02-09 11:23:52.853
156.0, -18225.768891068565, -8753.1666461428, 14756.264061482438, -3061.339624087766, 45854.044956451056, 16709.471250709445, 33272.605630469996, 8350.343507569254, 28309.825457313713, 2724.5211868907436, 38783.696446859416, 27739.81127021447, 39586.235831527214, 33624.444439940984, 27742.404072571288, 24438.771538587993, 0.06661718750000001, 1.0128984375, 0.2304453125, 192.0, 0.0, 0.0, 0.0, 0.0, 0.0, 0.0, 0.0, 0.0, 0.0, 1.7074742328606377E9, 0.0, 2024-02-09 11:23:52.860
158.0, -18250.869900091875, -8674.421450426753, 14827.387312339224, -3072.090813170769, 46048.92981635688, 16779.32045213228, 33420.70828923086, 8451.14987506269, 28150.502222836283, 2717.905070531973, 38468.31333259503, 27713.212694312657, 39107.439113550085, 33476.788816069224, 27609.411193062213, 24241.04800713635, 0.06930859375000001, 0.99644921875, 0.23622265625, 192.0, 1.0, 32.0, 15.0, 80.0, 3.5, 72.0, 0.0, 0.0, 0.0, 1.7074742328686397E9, 0.0, 2024-02-09 11:23:52.868
160.0, -18250.355809969406, -8599.408996034741, 14770.993861078485, -3076.5835138062853, 46105.65854378445, 16752.699524486008, 33442.63535054152, 8496.903895962703, 28442.885392056156, 2829.932013741972, 38915.527035656814, 27788.06868649348, 39709.639812664966, 33702.675545534556, 27843.41160576482, 24507.0337661545, 0.06930859375000001, 0.99644921875, 0.23622265625, 192.0, 0.0, 0.0, 0.0, 0.0, 0.0, 0.0, 0.0, 0.0, 0.0, 1.7074742328766236E9, 0.0, 2024-02-09 11:23:52.876
162.0, -18256.413132716792, -8534.611288858807, 14758.834512094798, -3060.8925891986596, 45829.41333406131, 16711.21468677696, 33319.00785195921, 8425.735941617006, 28123.12133587853, 2857.4246594219994, 38455.394024299865, 27681.22734799711, 39173.62262888225, 33464.070673474154, 27613.18863787516, 24302.91763578864, 0.06930859375000001, 0.99644921875, 0.23622265625, 192.0, 0.0, 0.0, 0.0, 0.0, 0.0, 0.0, 0.0, 0.0, 0.0, 1.7074742328856485E9, 0.0, 2024-02-09 11:23:52.885
164.0, -18255.541414683034, -8424.506595671965, 14818.513669790467, -3071.12968815919, 46228.72724875537, 16797.76064130791, 33580.09857894165, 8639.060990698455, 28371.873899921644, 2996.273695978367, 38708.549882000676, 27769.717904295674, 39395.821320512456, 33620.264663727845, 27757.849127989906, 24423.438241891654, 0.06930859375000001, 0.99644921875, 0.23622265625, 192.0, 0.0, 0.0, 0.0, 0.0, 0.0, 0.0, 0.0, 0.0, 0.0, 1.7074742328927908E9, 0.0, 2024-02-09 11:23:52.892
166.0, -18272.79696140253, -8373.052879935847, 14732.951192015553, -3058.70211824204, 45863.00800597764, 16691.478096422925, 33381.34686724506, 8469.567712493863, 28318.252064973363, 3112.0557322568575, 38742.502181828284, 27722.19809558369, 39540.526514116114, 33600.55042511826, 27760.576040813452, 24490.113495601832, 0.06930859375000001, 0.99644921875, 0.23622265625, 192.0, 0.0, 0.0, 0.0, 0.0, 0.0, 0.0, 0.0, 0.0, 0.0, 1.7074742329006937E9, 0.0, 2024-02-09 11:23:52.900
168.0, -18237.078873762952, -8215.897764670583, 14816.323198833848, -3061.943121188059, 46040.5702639306, 16759.963841433982, 33503.11917103758, 8539.841597061348, 28188.880168066047, 3309.421635797219, 38448.263817818624, 27697.611176682854, 39053.99609255744, 33453.05126345769, 27615.6696815097, 24297.77673456392, 0.06965429687500001, 0.986224609375, 0.241111328125, 192.0, 1.0, 24.0, 15.0, 64.0, 3.5, 88.0, 0.0, 0.0, 0.0, 1.7074742329097025E9, 0.0, 2024-02-09 11:23:52.909
170.0, -18238.531737152545, -8083.55308575071, 14772.82670412382, -3053.784734461872, 46092.22514536681, 16746.955126160996, 33514.8091333877, 8543.641393618751, 28517.02612841441, 3510.8108533395357, 38913.40361993356, 27779.351506155912, 39656.86734400599, 33691.81259772928, 27837.17546906179, 24568.00932502858, 0.06965429687500001, 0.986224609375, 0.241111328125, 192.0, 0.0, 0.0, 0.0, 0.0, 0.0, 0.0, 0.0, 0.0, 0.0, 1.7074742329167075E9, 0.0, 2024-02-09 11:23:52.916
172.0, -18226.640609102324, -7952.035421375683, 14757.515759171934, -3044.754629701928, 45807.35216228392, 16694.07089877974, 33377.70353289885, 8392.320083656321, 28216.417517234986, 3567.0031389001774, 38484.76421651414, 27680.80266485246, 39123.04063117989, 33446.30103663219, 27610.014690162505, 24357.72411319305, 0.06965429687500001, 0.986224609375, 0.241111328125, 192.0, 0.0, 0.0, 0.0, 0.0, 0.0, 0.0, 0.0, 0.0, 0.0, 1.7074742329247742E9, 0.0, 2024-02-09 11:23:52.924
174.0, -18210.770870539054, -7853.598338794511, 14818.334855834826, -3053.0918303837575, 46201.703989708905, 16773.17372240707, 33586.24530866686, 8529.716256823094, 28480.324564018796, 3693.6481229839474, 38771.96178102038, 27773.607107830896, 39345.8875233993, 33594.046067481766, 27746.11446215087, 24460.229213265087, 0.06965429687500001, 0.986224609375, 0.241111328125, 192.0, 0.0, 0.0, 0.0, 0.0, 0.0, 0.0, 0.0, 0.0, 0.0, 1.7074742329328375E9, 0.0, 2024-02-09 11:23:52.932
176.0, -18220.13625146583, -7959.567959257121, 14751.503139913457, -3016.9714113439813, 45858.47060185321, 16695.322596469236, 33400.21173956534, 8395.605790091251, 28457.235211996463, 3833.23476710734, 38834.05492711722, 27732.926932922237, 39509.18936838977, 33587.25113716735, 27757.53620356753, 24541.52250784904, 0.06965429687500001, 0.986224609375, 0.241111328125, 192.0, 0.0, 0.0, 0.0, 0.0, 0.0, 0.0, 0.0, 0.0, 0.0, 1.707474232940848E9, 0.0, 2024-02-09 11:23:52.940
178.0, -18148.275393042015, -8038.447265439901, 14848.621469571766, -3007.337809483744, 46041.866665109, 16769.485684571944, 33512.596310686626, 8461.141104834212, 28336.111108793153, 4077.4946305149356, 38569.52203148866, 27716.856028658873, 39038.931016794566, 33450.52551633424, 27624.766841503006, 24364.899023163205, 0.06965429687500001, 0.986224609375, 0.241111328125, 192.0, 0.0, 0.0, 0.0, 0.0, 0.0, 0.0, 0.0, 0.0, 0.0, 1.707474232948825E9, 0.0, 2024-02-09 11:23:52.948
180.0, -18121.25213399555, -8149.200159215947, 14818.156041879183, -3003.113329781691, 46111.67116304293, 16742.50712901439, 33540.64774997804, 8447.305375016376, 28657.640952782745, 4354.700965249654, 39059.80754611582, 27810.040451293047, 39655.41448061639, 33709.3587171267, 27864.265783341623, 24619.64185472034, 0.082, 1.0, 0.23800000000000002, 192.0, 1.0, 72.0, 15.5, 32.0, 3.5, 56.0, 0.0, 0.0, 0.0, 1.707474232956819E9, 0.0, 2024-02-09 11:23:52.956
182.0, -18065.43982809065, -8169.026156547804, 14818.558373279378, -2979.085204492236, 45831.804970718025, 16714.276875767337, 33396.14372207448, 8317.017056586392, 28356.27238229184, 4541.919176807306, 38641.2711311902, 27720.43230777172, 39145.79470703539, 33472.36317066708, 27646.537440602475, 24403.83576200435, 0.082, 1.0, 0.23800000000000002, 192.0, 0.0, 0.0, 0.0, 0.0, 0.0, 0.0, 0.0, 0.0, 0.0, 1.7074742329659631E9, 0.0, 2024-02-09 11:23:52.965
184.0, -18001.580894181836, -8149.602490616142, 14875.398859429224, -2995.9384198115376, 46212.92456542547, 16793.22323718348, 33587.474654611906, 8429.558089918863, 28614.166809817176, 4809.067226537136, 38915.75055310137, 27821.50689619862, 39378.208145881676, 33625.1373440191, 27782.860730035394, 24497.46721952763, 0.082, 1.0, 0.23800000000000002, 192.0, 0.0, 0.0, 0.0, 0.0, 0.0, 0.0, 0.0, 0.0, 0.0, 1.7074742329718623E9, 0.0, 2024-02-09 11:23:52.971
186.0, -17995.590626667814, -8180.00086307536, 14799.224114325538, -2972.2232189444567, 45859.52113384261, 16716.02031183485, 33386.84539638107, 8292.810117341294, 28581.421504190148, 4966.468210991408, 38955.82723090974, 27784.961794014194, 39547.522610130625, 33620.264663727845, 27785.341773669934, 24537.85682175837, 0.082, 1.0, 0.23800000000000002, 192.0, 0.0, 0.0, 0.0, 0.0, 0.0, 0.0, 0.0, 0.0, 0.0, 1.7074742329808412E9, 0.0, 2024-02-09 11:23:52.980
188.0, -17936.626724794714, -8125.283792648768, 14881.456182176613, -2976.380643413144, 46031.9648423153, 16789.043460970337, 33505.77902862776, 8384.854601008248, 28449.076825270276, 5120.829358199759, 38659.13017500999, 27778.792712544528, 39076.21372654602, 33484.366057439576, 27646.13510920228, 24348.96222936657, 0.082, 1.0, 0.23800000000000002, 192.0, 0.0, 0.0, 0.0, 0.0, 0.0, 0.0, 0.0, 0.0, 0.0, 1.707474232988789E9, 0.0, 2024-02-09 11:23:52.988
190.0, -17939.867727740733, -8135.677353820486, 14838.898460733708, -2984.4496231615094, 46096.36021809104, 16750.285536084837, 33508.461237962394, 8369.141324656168, 28756.122738852828, 5272.687110029115, 39131.623701050725, 27865.85275719795, 39703.89541433995, 33716.466571863486, 27874.2793648576, 24586.404810715296, 0.082, 0.996, 0.232, 192.0, 1.0, 72.0, 15.5, 16.0, 3.5, 32.0, 0.0, 0.0, 0.0, 1.7074742329968712E9, 0.0, 2024-02-09 11:23:52.996
192.0, -17917.247762351963, -8120.724036779886, 14830.516556562969, -2979.1746114700572, 45812.9624501422, 16692.841552834696, 33346.65695985043, 8215.093101870192, 28438.951485032023, 5324.163177509687, 38698.55865222915, 27763.124139681357, 39201.56230945138, 33467.66930433146, 27651.05249298245, 24358.618182971262, 0.082, 0.996, 0.232, 192.0, 0.0, 0.0, 0.0, 0.0, 0.0, 0.0, 0.0, 0.0, 0.0, 1.7074742330048702E9, 0.0, 2024-02-09 11:23:53.004
194.0, -17857.479197678473, -8055.971033092861, 14898.354100984825, -2990.059911019792, 46202.106321109095, 16776.03474569735, 33551.55540127223, 8365.945025199058, 28686.117075218808, 5450.159961004253, 38963.203306579984, 27865.405722308842, 39420.072963246464, 33615.861370070146, 27776.311668909988, 24445.16413750221, 0.082, 0.996, 0.232, 192.0, 0.0, 0.0, 0.0, 0.0, 0.0, 0.0, 0.0, 0.0, 0.0, 1.7074742330128171E9, 0.0, 2024-02-09 11:23:53.012
196.0, -17888.34695677125, -8094.639551000542, 14816.144384878206, -2972.6702538335626, 45855.09548844046, 16679.989299772897, 33347.12634648399, 8186.907552112049, 28642.37471131977, 5482.815859653457, 39003.61526055518, 27827.921846857294, 39580.55848843557, 33619.147076505076, 27779.105636966902, 24506.273806843023, 0.082, 0.996, 0.232, 192.0, 0.0, 0.0, 0.0, 0.0, 0.0, 0.0, 0.0, 0.0, 0.0, 1.707474233020889E9, 0.0, 2024-02-09 11:23:53.020
198.0, -17858.708543623514, -8052.819437124663, 14890.933321825663, -2977.5205823803644, 46023.493531166736, 16764.12126590267, 33453.23007741333, 8296.900486576616, 28480.950412863545, 5525.66415377428, 38685.99697184527, 27800.853884321918, 39088.01544761842, 33472.98901951182, 27630.868867739307, 24311.70187135957, 0.082, 0.996, 0.232, 192.0, 0.0, 0.0, 0.0, 0.0, 0.0, 0.0, 0.0, 0.0, 0.0, 1.707474233027854E9, 0.0, 2024-02-09 11:23:53.027
200.0, -17869.817360617802, -8043.655221897987, 14853.31533590738, -2973.2290474449455, 46107.804311252155, 16774.201902652014, 33508.97532808487, 8378.66316779413, 28776.30636409597, 5593.836974362966, 39148.409861136664, 27880.1802253938, 39710.399771976445, 33721.24984517692, 27870.881899700395, 24594.943177097222, 0.084, 1.002, 0.228, 192.0, 1.0, 80.0, 15.5, 40.0, 3.5, 16.0, 0.0, 0.0, 0.0, 1.707474233036874E9, 0.0, 2024-02-09 11:23:53.036
202.0, -17866.039915804853, -8023.628058866032, 14838.473777589057, -2968.0657944757695, 45809.45322626272, 16722.234096793425, 33344.28767493817, 8250.67707904304, 28441.96897053349, 5567.4172124167935, 38705.95707964386, 27767.236860661134, 39194.43210297014, 33481.43797891593, 27657.690961085675, 24389.620052530772, 0.084, 1.002, 0.228, 192.0, 0.0, 0.0, 0.0, 0.0, 0.0, 0.0, 0.0, 0.0, 0.0, 1.7074742330450668E9, 0.0, 2024-02-09 11:23:53.045
204.0, -17888.39166026016, -7972.3531570855575, 14890.195714258638, -2994.284390721845, 46195.42314951696, 16813.071586259794, 33548.22499134839, 8406.893421041183, 28650.130766645765, 5638.2051871067515, 38942.70675691447, 27849.670094212306, 39392.26739314406, 33635.12857379062, 27774.076494464458, 24460.385675476275, 0.084, 1.002, 0.228, 192.0, 0.0, 0.0, 0.0, 0.0, 0.0, 0.0, 0.0, 0.0, 0.0, 1.7074742330528915E9, 0.0, 2024-02-09 11:23:53.052
206.0, -17974.289414201907, -7998.1247184425265, 14792.026852610928, -3000.3193617247775, 45850.69219478276, 16717.316713013257, 33357.89988731145, 8256.935567490527, 28574.55951864237, 5563.0139187590985, 38971.115824117165, 27778.2562706776, 39572.4895086872, 33624.51149517435, 27780.826721289963, 24517.941417448692, 0.084, 1.002, 0.228, 192.0, 0.0, 0.0, 0.0, 0.0, 0.0, 0.0, 0.0, 0.0, 0.0, 1.707474233059903E9, 0.0, 2024-02-09 11:23:53.059
208.0, -17916.510154784937, -7894.971417781284, 14856.869263275776, -3026.0015161039255, 46013.74817058422, 16774.447771841023, 33448.78208026673, 8307.249344259422, 28351.6902746785, 5449.6682226262365, 38616.37128786699, 27704.71903141964, 39074.20206954504, 33458.32627514914, 27623.17986764668, 24291.33943216079, 0.084, 1.002, 0.228, 192.0, 0.0, 0.0, 0.0, 0.0, 0.0, 0.0, 0.0, 0.0, 0.0, 1.7074742330689516E9, 0.0, 2024-02-09 11:23:53.068
210.0, -17848.58320338526, -7880.532190863156, 14820.994713425007, -3032.751742929428, 46086.480747041795, 16760.701449001008, 33451.508993090276, 8331.992725371449, 28644.14049913174, 5315.155424494198, 39070.64814217665, 27776.468131121175, 39690.10438801103, 33704.53074032435, 27840.908210385827, 24523.127022162324, 0.08600000000000001, 1.012, 0.224, 192.0, 1.0, 88.0, 15.5, 80.0, 3.5, 0.0, 0.0, 0.0, 0.0, 1.7074742330769503E9, 0.0, 2024-02-09 11:23:53.076
212.0, -17764.56299597776, -7856.325251618058, 14812.299884831893, -3025.3756672591767, 45796.645676689826, 16714.3439310007, 33289.34708706702, 8196.988188861393, 28293.35222165015, 4991.166888614523, 38610.381020352965, 27663.39065592178, 39182.92095457565, 33463.1989554404, 27611.80282971893, 24292.94875776157, 0.08600000000000001, 1.012, 0.224, 192.0, 0.0, 0.0, 0.0, 0.0, 0.0, 0.0, 0.0, 0.0, 0.0, 1.7074742330840025E9, 0.0, 2024-02-09 11:23:53.084
214.0, -17745.36284749065, -7935.42807524539, 14872.537836138945, -3051.1919321050564, 46176.46887021886, 16800.979292509473, 33485.260127217785, 8389.861391766237, 28507.88426493219, 4734.568862267597, 38846.59425575665, 27762.095959436414, 39397.207128668684, 33615.36963169213, 27736.30204633499, 24367.49182552002, 0.08600000000000001, 1.012, 0.224, 192.0, 0.0, 0.0, 0.0, 0.0, 0.0, 0.0, 0.0, 0.0, 0.0, 1.707474233092986E9, 0.0, 2024-02-09 11:23:53.092
216.0, -17892.213808562017, -8181.2078572759465, 14800.565218992857, -3025.0627428368025, 45857.44242160826, 16727.576163718244, 33334.45290737783, 8294.128870264158, 28452.67545612758, 4258.74492630302, 38882.58056432969, 27733.3963195558, 39589.5438897066, 33625.65143414157, 27763.906450737293, 24431.842497806847, 0.08600000000000001, 1.012, 0.224, 192.0, 0.0, 0.0, 0.0, 0.0, 0.0, 0.0, 0.0, 0.0, 0.0, 1.7074742331011324E9, 0.0, 2024-02-09 11:23:53.101
218.0, -17976.681050858624, -8403.451252395065, 14859.886748777242, -3053.2929960838555, 46011.22242346078, 16784.260187656902, 33397.41777150843, 8380.406603861644, 28267.603012037638, 3725.0299721991987, 38548.98077833423, 27723.53920025101, 39100.1300931132, 33482.82378707216, 27618.977739689082, 24235.393015789155, 0.08600000000000001, 1.012, 0.224, 192.0, 0.0, 0.0, 0.0, 0.0, 0.0, 0.0, 0.0, 0.0, 0.0, 1.7074742331080236E9, 0.0, 2024-02-09 11:23:53.108
220.0, -18068.032630447466, -8534.298364436432, 14830.963591452073, -3046.2969000693442, 46109.52539557522, 16791.904484260616, 33450.48081284533, 8462.72807869054, 28545.725768295026, 3303.4760717721074, 38988.70664700349, 27803.290224467546, 39718.021716835705, 33716.5559788413, 27850.206536079233, 24487.85596941185, 0.082, 1.006, 0.224, 192.0, 1.0, 72.0, 15.5, 56.0, 3.5, 0.0, 0.0, 0.0, 0.0, 1.707474233116008E9, 0.0, 2024-02-09 11:23:53.116
222.0, -18175.49981778858, -8626.834586481404, 14789.791678165398, -3057.696289741551, 45816.40461878832, 16737.098006856206, 33294.53269178065, 8359.664185007117, 28189.126037255057, 2926.7821224668173, 38535.83795259451, 27702.4391534852, 39219.17548408217, 33481.01329577128, 27645.822184779907, 24294.647490340172, 0.082, 1.006, 0.224, 192.0, 0.0, 0.0, 0.0, 0.0, 0.0, 0.0, 0.0, 0.0, 0.0, 1.707474233125017E9, 0.0, 2024-02-09 11:23:53.125
224.0, -18243.85145233291, -8628.71213301565, 14839.010219455984, -3078.7516330184503, 46214.44448404843, 16832.025865557895, 33515.457333976905, 8566.306062496431, 28378.110036624676, 2734.355954451079, 38743.57506556214, 27784.335945169445, 39401.61042232638, 33621.56106490625, 27767.59448857242, 24384.345040839322, 0.082, 1.006, 0.224, 192.0, 0.0, 0.0, 0.0, 0.0, 0.0, 0.0, 0.0, 0.0, 0.0, 1.707474233132053E9, 0.0, 2024-02-09 11:23:53.132
226.0, -18287.32559529848, -8629.069760926934, 14748.06097126734, -3075.2647608834222, 45889.58423013499, 16735.287515555327, 33330.40724163142, 8413.822461822327, 28304.12576247761, 2632.5214067127, 38771.604153109096, 27735.229162601136, 39572.623619153936, 33618.67768987152, 27790.885006294848, 24458.798701619948, 0.082, 1.006, 0.224, 192.0, 0.0, 0.0, 0.0, 0.0, 0.0, 0.0, 0.0, 0.0, 0.0, 1.7074742331400723E9, 0.0, 2024-02-09 11:23:53.140
228.0, -18280.888292895354, -8521.244945674533, 14810.288227830915, -3101.393950151676, 46054.45069723734, 16779.611024810198, 33444.490545331304, 8479.223666098556, 28130.676225504427, 2656.3707180465126, 38442.36295728242, 27710.843409400393, 39066.200145030045, 33453.65476055798, 27638.781385276485, 24252.246231108456, 0.082, 1.006, 0.224, 192.0, 0.0, 0.0, 0.0, 0.0, 0.0, 0.0, 0.0, 0.0, 0.0, 1.7074742331480255E9, 0.0, 2024-02-09 11:23:53.148
230.0, -18342.713218058732, -8549.274033221487, 14760.466189440036, -3109.4182264111314, 46132.36887840854, 16772.4584665845, 33459.265048416266, 8557.387716458765, 28423.797002291325, 2631.225005534292, 38887.296782409765, 27779.08328522245, 39678.459129149815, 33692.416094829576, 27849.915963401316, 24500.283539328997, 0.088, 0.998, 0.22, 192.0, 1.0, 96.0, 15.5, 24.0, 3.0, 112.0, 0.0, 0.0, 0.0, 1.7074742331571019E9, 0.0, 2024-02-09 11:23:53.157
232.0, -18355.409008909348, -8502.178907654155, 14748.128026500706, -3090.598057579763, 45843.897264468345, 16728.403178263092, 33324.260511906214, 8443.796151136894, 28073.947498076857, 2553.060955174083, 38445.51455325062, 27674.18654849369, 39169.50990790247, 33461.03083622824, 27633.819298007405, 24301.4871241435, 0.088, 0.998, 0.22, 192.0, 0.0, 0.0, 0.0, 0.0, 0.0, 0.0, 0.0, 0.0, 0.0, 1.7074742331640365E9, 0.0, 2024-02-09 11:23:53.164
234.0, -18350.379866406904, -8399.025606992915, 14801.436937026614, -3108.255935699455, 46230.5153883118, 16812.490440903955, 33543.03938663476, 8627.885118470802, 28304.192817710977, 2657.421250035912, 38675.62576241801, 27765.560479826985, 39349.17322983423, 33610.385192678594, 27748.662561018773, 24382.64630826072, 0.088, 0.998, 0.22, 192.0, 0.0, 0.0, 0.0, 0.0, 0.0, 0.0, 0.0, 0.0, 0.0, 1.7074742331723084E9, 0.0, 2024-02-09 11:23:53.172
236.0, -18365.579052636513, -8345.202606344534, 14714.645113306657, -3103.4503106415646, 45886.8796690559, 16701.245808749893, 33366.214736248825, 8455.352003020287, 28275.26966038581, 2692.044102197183, 38727.839437465605, 27724.38856654031, 39545.46624964073, 33624.22092249643, 27774.322363653468, 24473.66261168273, 0.088, 0.998, 0.22, 192.0, 0.0, 0.0, 0.0, 0.0, 0.0, 0.0, 0.0, 0.0, 0.0, 1.7074742331811528E9, 0.0, 2024-02-09 11:23:53.181
238.0, -18351.452750140757, -8226.447788053489, 14787.958835120064, -3110.6699241006286, 46032.76950511569, 16757.527501288354, 33461.47787111734, 8501.731872765049, 28123.925998678926, 2797.7455017263296, 38400.229918984165, 27683.551929420464, 39040.07095576179, 33441.294245874196, 27612.719251241597, 24263.55621380284, 0.088, 0.998, 0.22, 192.0, 0.0, 0.0, 0.0, 0.0, 0.0, 0.0, 0.0, 0.0, 0.0, 1.7074742331881137E9, 0.0, 2024-02-09 11:23:53.188
240.0, -18342.82497678101, -8109.637571530053, 14760.466189440036, -3093.4367291255867, 46128.27850917322, 16772.480818328957, 33508.99767982932, 8602.739405958582, 28450.753206104426, 3055.5505222738416, 38868.40955834503, 27775.864634020883, 39654.65452130491, 33689.465664561474, 27846.630256966386, 24541.589563082405, 0.076, 0.986, 0.224, 192.0, 1.0, 48.0, 15.0, 104.0, 3.5, 0.0, 0.0, 0.0, 0.0, 1.7074742331961617E9, 0.0, 2024-02-09 11:23:53.196
242.0, -18314.840592722965, -7947.542720740166, 14750.027924779408, -3077.879914984693, 45831.380287573375, 16719.596590947698, 33369.79101536167, 8487.292645846921, 28156.984228728325, 3188.3198843383652, 38445.60396022844, 27685.429475954712, 39158.17757346363, 33455.62171407005, 27638.71433004312, 24362.149758595202, 0.076, 0.986, 0.224, 192.0, 0.0, 0.0, 0.0, 0.0, 0.0, 0.0, 0.0, 0.0, 0.0, 1.7074742332061265E9, 0.0, 2024-02-09 11:23:53.206
244.0, -18278.94369112774, -7785.358462972458, 14814.713873233066, -3089.9051535016483, 46221.64174576304, 16803.348577421737, 33590.87211976911, 8645.408886123763, 28407.18965616103, 3327.9288802062133, 38678.41973047492, 27780.11146546739, 39328.16259004624, 33590.492140113376, 27758.49732857911, 24451.579088160885, 0.076, 0.986, 0.224, 192.0, 0.0, 0.0, 0.0, 0.0, 0.0, 0.0, 0.0, 0.0, 0.0, 1.707474233213144E9, 0.0, 2024-02-09 11:23:53.213
246.0, -18297.00390064763, -7809.386588261913, 14732.48180538199, -3068.3804235911875, 45899.24018373969, 16702.07282329474, 33423.03287065421, 8465.76791593646, 28407.77080151687, 3451.77989623307, 38765.05509198369, 27753.512889565576, 39521.996917962664, 33597.063552983236, 27790.527378383566, 24552.43015914323, 0.076, 0.986, 0.224, 192.0, 0.0, 0.0, 0.0, 0.0, 0.0, 0.0, 0.0, 0.0, 0.0, 1.7074742332201903E9, 0.0, 2024-02-09 11:23:53.220
248.0, -18227.35586492489, -7921.413531471912, 14804.141498105706, -3064.1335921446794, 46046.09114481106, 16762.82486472426, 33510.58465368565, 8487.225590613556, 28265.63605852557, 3754.668385346936, 38475.06355942054, 27722.622778728342, 39003.704667533006, 33432.30884460316, 27629.70657702763, 24348.448139244098, 0.076, 0.986, 0.224, 192.0, 0.0, 0.0, 0.0, 0.0, 0.0, 0.0, 0.0, 0.0, 0.0, 1.7074742332281985E9, 0.0, 2024-02-09 11:23:53.228
250.0, -18197.337472121417, -8127.004876971827, 14789.366995020748, -3043.525283756886, 46140.70607909037, 16774.425420096566, 33556.919819941504, 8511.745454281026, 28622.504010499004, 4126.95904099453, 38983.58809752323, 27810.08515478196, 39627.005413413695, 33699.389839099626, 27865.696294986763, 24616.82553491897, 0.074, 1.002, 0.224, 192.0, 1.0, 40.0, 15.5, 40.0, 3.5, 0.0, 0.0, 0.0, 0.0, 1.7074742332371564E9, 0.0, 2024-02-09 11:23:53.237
252.0, -18156.277317557015, -8218.021180393836, 14797.100698602284, -3017.954888100015, 45832.16259862931, 16725.475099739444, 33393.79678890667, 8347.102504623235, 28319.548466151773, 4376.560971326944, 38593.57250852257, 27712.25156930108, 39136.89871274218, 33474.46423464587, 27663.033028010494, 24431.59662861784, 0.074, 1.002, 0.224, 192.0, 0.0, 0.0, 0.0, 0.0, 0.0, 0.0, 0.0, 0.0, 0.0, 1.7074742332441769E9, 0.0, 2024-02-09 11:23:53.244
254.0, -18090.831409791877, -8198.105776084158, 14869.22977795956, -3025.0627428368025, 46213.036324147746, 16810.210562969514, 33587.45230286745, 8468.897160160204, 28574.604222131282, 4702.3599985075, 38850.68462499197, 27811.56036991601, 39315.06446779543, 33614.721431102924, 27783.084247479946, 24497.08723987189, 0.074, 1.002, 0.224, 192.0, 0.0, 0.0, 0.0, 0.0, 0.0, 0.0, 0.0, 0.0, 0.0, 1.7074742332521868E9, 0.0, 2024-02-09 11:23:53.252
0.0, -18077.129790440773, -8239.903538215583, 14790.775154921432, -3006.3096292388, 45872.08281422649, 16712.220515277448, 33384.34200100208, 8277.432117156044, 28574.626573875736, 4905.984390495347, 38941.16448654705, 27784.73827656964, 39526.467266853724, 33621.583416650705, 27802.574968644974, 24568.545766895506, 0.074, 1.002, 0.224, 192.0, 0.0, 0.0, 0.0, 0.0, 0.0, 0.0, 0.0, 0.0, 0.0, 1.707474233260457E9, 0.0, 2024-02-09 11:23:53.260
2.0, -18020.55752522439, -8199.312770284745, 14864.424152901669, -3013.238670019945, 46008.27199319268, 16765.350611847713, 33455.59936232559, 8308.098710548724, 28417.33734814374, 5060.636110381617, 38624.97670948228, 27762.63240130334, 39032.80663881381, 33450.41375761196, 27640.547173088453, 24337.518136205454, 0.074, 1.002, 0.224, 192.0, 0.0, 0.0, 0.0, 0.0, 0.0, 0.0, 0.0, 0.0, 0.0, 1.7074742332692406E9, 0.0, 2024-02-09 11:23:53.269
4.0, -18008.24171402952, -8209.013427378348, 14838.02674269995, -3010.511757196398, 46095.9802384353, 16744.56348950428, 33472.184356711434, 8288.74209985043, 28741.571753212425, 5231.492844997984, 39110.41189556264, 27863.639934496874, 39663.19288768684, 33715.52779859636, 27867.484434543185, 24575.139531509823, 0.078, 1.012, 0.226, 192.0, 1.0, 56.0, 15.5, 80.0, 3.5, 8.0, 0.0, 0.0, 0.0, 1.7074742332762465E9, 0.0, 2024-02-09 11:23:53.276
6.0, -17987.834571341824, -8193.568371959731, 14836.529175821446, -2985.2542859619007, 45798.23265054615, 16711.125279799136, 33345.53937262766, 8197.85990689515, 28436.9621797755, 5297.765767307969, 38693.10482658206, 27765.582831571443, 39193.426274469646, 33473.70427533439, 27652.594763349865, 24370.1516831102, 0.078, 1.012, 0.226, 192.0, 0.0, 0.0, 0.0, 0.0, 0.0, 0.0, 0.0, 0.0, 0.0, 1.7074742332842462E9, 0.0, 2024-02-09 11:23:53.284
8.0, -17931.41876833663, -8110.442234330444, 14914.447356992647, -2988.092957507725, 46196.38427452854, 16813.38451068217, 33577.9751632184, 8394.04116797938, 28670.940240733653, 5449.779981348513, 38926.74761137338, 27868.780835721594, 39382.27616337254, 33619.54940790527, 27776.043447976524, 24457.144672530256, 0.078, 1.012, 0.226, 192.0, 0.0, 0.0, 0.0, 0.0, 0.0, 0.0, 0.0, 0.0, 0.0, 1.70747423329324E9, 0.0, 2024-02-09 11:23:53.293
10.0, -17947.22145166653, -8127.921298494494, 14833.779911253443, -2974.9277800235486, 45872.75336656015, 16714.947428100997, 33388.74529465977, 8239.255337626379, 28668.86152849931, 5512.342514078917, 39018.45681887351, 27848.351341289443, 39614.73430570773, 33642.07996631622, 27813.84024785045, 24554.777092311037, 0.078, 1.012, 0.226, 192.0, 0.0, 0.0, 0.0, 0.0, 0.0, 0.0, 0.0, 0.0, 0.0, 1.7074742333002822E9, 0.0, 2024-02-09 11:23:53.300
12.0, -17902.741480200468, -8046.78446612173, 14898.219990518093, -2984.11434699468, 46003.91340302389, 16765.26120486989, 33462.37194089555, 8278.415593912077, 28482.939718120066, 5568.199523472729, 38672.049483305156, 27811.023928049082, 39102.99111640348, 33466.752882808796, 27642.581181833888, 24331.997255324994, 0.078, 1.012, 0.226, 192.0, 0.0, 0.0, 0.0, 0.0, 0.0, 0.0, 0.0, 0.0, 0.0, 1.7074742333082912E9, 0.0, 2024-02-09 11:23:53.308
14.0, -17937.632553295203, -8058.675594171953, 14861.317260422382, -2983.1308702386464, 46109.14541591948, 16773.37488810717, 33524.66625269249, 8343.570928999297, 28793.584262559925, 5662.814457752044, 39142.531352344915, 27900.207388425755, 39715.89830111245, 33722.6580050776, 27879.50967306014, 24594.76436314158, 0.082, 1.009, 0.229, 192.0, 1.0, 88.0, 15.5, 56.0, 3.5, 32.0, 0.0, 0.0, 0.0, 1.7074742333162665E9, 0.0, 2024-02-09 11:23:53.316
16.0, -18015.304865277394, -8095.265399845291, 14826.873222216753, -2988.785861585839, 45797.22682204567, 16720.155384559082, 33358.68219836738, 8211.941505901994, 28437.163345475597, 5623.318925299517, 38691.60725970355, 27765.31461063798, 39223.71288820659, 33478.50990039229, 27663.39065592178, 24400.013613702493, 0.082, 1.009, 0.229, 192.0, 0.0, 0.0, 0.0, 0.0, 0.0, 0.0, 0.0, 0.0, 0.0, 1.707474233325595E9, 0.0, 2024-02-09 11:23:53.325
18.0, -17991.7461266215, -8023.382189677023, 14880.606815887311, -3017.8431293777385, 46178.03349233073, 16796.866571529696, 33543.32995931267, 8353.003365159437, 28621.207609320594, 5665.764888020145, 38893.51056736834, 27828.190067790758, 39380.75624474958, 33599.924576273515, 27764.64405830432, 24454.97655331809, 0.082, 1.009, 0.229, 192.0, 0.0, 0.0, 0.0, 0.0, 0.0, 0.0, 0.0, 0.0, 0.0, 1.7074742333322933E9, 0.0, 2024-02-09 11:23:53.332
20.0, -18086.33870915636, -8090.102146876115, 14782.97439610653, -3015.5408996988417, 45852.10035468345, 16702.095175039194, 33351.48493665278, 8195.177697560513, 28576.861748321266, 5640.127437129908, 38951.60275120768, 27772.891852008328, 39593.50014847519, 33612.7321258464, 27783.21835794668, 24520.9365512057, 0.082, 1.009, 0.229, 192.0, 0.0, 0.0, 0.0, 0.0, 0.0, 0.0, 0.0, 0.0, 0.0, 1.7074742333403432E9, 0.0, 2024-02-09 11:23:53.340
22.0, -18072.77120027199, -7992.156802672959, 14849.694353305622, -3025.107446325713, 45988.93773423883, 16765.819998481275, 33444.19997265339, 8269.273730429857, 28368.007048130876, 5599.827241876989, 38598.69105800284, 27723.896828162295, 39080.90759288163, 33444.71406277586, 27616.183771632168, 24300.4365921541, 0.082, 1.009, 0.229, 192.0, 0.0, 0.0, 0.0, 0.0, 0.0, 0.0, 0.0, 0.0, 0.0, 1.7074742333493495E9, 0.0, 2024-02-09 11:23:53.349
24.0, -18106.410575677226, -7981.070337423127, 14810.958780164574, -3041.5136267559087, 46086.25722959724, 16751.090198885227, 33472.29611543371, 8301.2590767454, 28643.157022375708, 5571.954616541221, 39044.027214530375, 27788.582776615953, 39691.870175822994, 33688.683353505534, 27831.766346903605, 24537.499193847085, 0.084, 1.0085, 0.2275, 192.0, 1.0, 88.0, 15.5, 64.0, 3.5, 8.0, 0.0, 0.0, 0.0, 1.707474233356383E9, 0.0, 2024-02-09 11:23:53.356
26.0, -18061.394162344237, -7888.400004911424, 14801.593399237801, -3023.4087137471097, 45788.956676597205, 16711.415852477057, 33333.58118934408, 8200.609171463153, 28308.059669501745, 5400.919067969211, 38613.599671554526, 27676.377019450312, 39208.49135023253, 33455.50995534777, 27612.3169198414, 24327.303388989378, 0.084, 1.0085, 0.2275, 192.0, 0.0, 0.0, 0.0, 0.0, 0.0, 0.0, 0.0, 0.0, 0.0, 1.7074742333643827E9, 0.0, 2024-02-09 11:23:53.364
28.0, -17996.9987865685, -7775.6578058788555, 14883.870170577786, -3033.7128679410066, 46186.81772790167, 16809.025920513384, 33570.487328825875, 8401.216077949533, 28515.68502374709, 5298.704540575092, 38829.3163572927, 27778.748009055616, 39369.91564868875, 33601.15392221855, 27742.940514438214, 24407.836724261848, 0.084, 1.0085, 0.2275, 192.0, 0.0, 0.0, 0.0, 0.0, 0.0, 0.0, 0.0, 0.0, 0.0, 1.7074742333723705E9, 0.0, 2024-02-09 11:23:53.372
30.0, -18069.977232215075, -7810.124195828938, 14808.20951559657, -3030.2036440615234, 45866.11489845692, 16709.471250709445, 33378.9775823328, 8254.141599433613, 28483.386753009174, 5021.274688395821, 38900.439608149485, 27739.81127021447, 39593.5448519641, 33620.197608494476, 27770.768436285074, 24483.11739958732, 0.084, 1.0085, 0.2275, 192.0, 0.0, 0.0, 0.0, 0.0, 0.0, 0.0, 0.0, 0.0, 0.0, 1.7074742333813634E9, 0.0, 2024-02-09 11:23:53.381
32.0, -18032.51570850798, -7757.508189381146, 14883.244321733036, -3029.019001605392, 45994.123338952464, 16770.357402605703, 33462.50605136228, 8324.88487063466, 28280.812893010723, 4755.6689090334075, 38544.21985676526, 27702.685022674206, 39076.34783701275, 33448.93854247791, 27608.628882006276, 24271.401676106656, 0.084, 1.0085, 0.2275, 192.0, 0.0, 0.0, 0.0, 0.0, 0.0, 0.0, 0.0, 0.0, 0.0, 1.7074742333886106E9, 0.0, 2024-02-09 11:23:53.388
34.0, -18096.218180205607, -7853.0842486720385, 14845.6039840703, -3030.0024783614253, 46103.043389683175, 16770.357402605703, 33512.08222056415, 8403.965342517537, 28596.66539390867, 4559.062964804526, 39009.62787981366, 27815.22605600668, 39691.57960314508, 33708.86697874868, 27841.60111446394, 24528.022054198034, 0.086, 1.00925, 0.22375, 192.0, 1.0, 96.0, 15.5, 72.0, 3.0, 112.0, 0.0, 0.0, 0.0, 1.7074742333964393E9, 0.0, 2024-02-09 11:23:53.396
36.0, -18170.35891656386, -7975.2365321202915, 14822.112300647772, -3020.2347660344562, 45786.27446726256, 16716.22147753495, 33328.64145381945, 8293.4583179305, 28261.277468356788, 4090.391587065648, 38587.02344739717, 27719.225313571136, 39232.8100481999, 33476.788816069224, 27634.109870685326, 24334.880630359727, 0.086, 1.00925, 0.22375, 192.0, 0.0, 0.0, 0.0, 0.0, 0.0, 0.0, 0.0, 0.0, 0.0, 1.7074742334044132E9, 0.0, 2024-02-09 11:23:53.404
38.0, -18239.291696464028, -8058.273262771758, 14871.84493206083, -3050.253158837934, 46178.972265597855, 16798.18532445256, 33551.55540127223, 8474.730965463039, 28439.68909259905, 3775.2766937347287, 38765.39036815052, 27794.4612854077, 39377.716407503656, 33605.780733320804, 27735.385624812323, 24383.69684025012, 0.086, 1.00925, 0.22375, 192.0, 0.0, 0.0, 0.0, 0.0, 0.0, 0.0, 0.0, 0.0, 0.0, 1.7074742334123769E9, 0.0, 2024-02-09 11:23:53.412
40.0, -18285.492752253147, -8108.855260474117, 14779.64398618269, -3039.3678592881993, 45864.19264843377, 16705.224419262937, 33382.88913761248, 8338.340620796755, 28403.680432281548, 3589.958380455778, 38830.85862766011, 27752.462357576176, 39602.88788114642, 33627.43957369799, 27777.697477066216, 24471.762713404027, 0.086, 1.00925, 0.22375, 192.0, 0.0, 0.0, 0.0, 0.0, 0.0, 0.0, 0.0, 0.0, 0.0, 1.7074742334205537E9, 0.0, 2024-02-09 11:23:53.420
42.0, -18281.335327784458, -8041.174178263448, 14837.914983977675, -3053.9411966730595, 45998.124301209966, 16767.250510126414, 33459.51091760527, 8412.034322265903, 28213.064755566687, 3569.1936098567976, 38472.940143697284, 27723.136868850812, 39068.077691564285, 33454.86175475857, 27613.389803575257, 24254.012018920424, 0.086, 1.00925, 0.22375, 192.0, 0.0, 0.0, 0.0, 0.0, 0.0, 0.0, 0.0, 0.0, 0.0, 1.7074742334286084E9, 0.0, 2024-02-09 11:23:53.428
44.0, -18307.35275833044, -8000.494003354789, 14804.186201594615, -3056.399888563143, 46123.249366670774, 16768.524559560366, 33516.39610724403, 8482.419965555664, 28524.625721529213, 3585.666845520359, 38932.51436144285, 27803.759611101104, 39674.972257014786, 33696.77468499836, 27847.07729185549, 24517.29321685949, 0.088, 0.995625, 0.221875, 192.0, 1.0, 104.0, 15.0, 88.0, 3.0, 112.0, 0.0, 0.0, 0.0, 1.7074742334355142E9, 0.0, 2024-02-09 11:23:53.435
46.0, -18293.04764187904, -7924.587479184566, 14778.057012326362, -3039.3455075437437, 45819.24329033415, 16713.963951344962, 33372.31676248512, 8362.03346991938, 28203.945243828923, 3543.6902694332925, 38512.48037963872, 27700.695717417686, 39200.33296350634, 33474.17366196796, 27642.312960900425, 24328.644493656695, 0.088, 0.995625, 0.221875, 192.0, 0.0, 0.0, 0.0, 0.0, 0.0, 0.0, 0.0, 0.0, 0.0, 1.7074742334434786E9, 0.0, 2024-02-09 11:23:53.443
48.0, -18270.114752067897, -7814.2816202976255, 14842.698257291111, -3050.990766404959, 46201.43576877544, 16801.023995998385, 33587.117026700624, 8538.344030182843, 28413.96223473099, 3675.476154741783, 38712.26027158026, 27791.957890028705, 39343.69705244268, 33616.80014333727, 27747.053235417992, 24409.423698118175, 0.088, 0.995625, 0.221875, 192.0, 0.0, 0.0, 0.0, 0.0, 0.0, 0.0, 0.0, 0.0, 0.0, 1.7074742334525616E9, 0.0, 2024-02-09 11:23:53.452
50.0, -18277.356717271414, -7796.556686944567, 14766.92584358762, -3034.115199341202, 45886.52204114462, 16697.289549981302, 33428.352585834575, 8388.810859776839, 28408.933092228544, 3746.8676265320337, 38807.590461682135, 27768.332096139446, 39589.00744783967, 33638.70485290347, 27784.44770389172, 24504.95505392016, 0.088, 0.995625, 0.221875, 192.0, 0.0, 0.0, 0.0, 0.0, 0.0, 0.0, 0.0, 0.0, 0.0, 1.7074742334605303E9, 0.0, 2024-02-09 11:23:53.460
52.0, -18229.523984137057, -7684.373281523381, 14844.531100336446, -3025.889757381649, 46010.998906016226, 16769.686850272043, 33523.48161023636, 8472.898122417704, 28238.724558201382, 3894.1656224925073, 38466.32402733851, 27743.54401153851, 39065.842517118755, 33456.06874895916, 27622.755184502028, 24301.91180728815, 0.088, 0.995625, 0.221875, 192.0, 0.0, 0.0, 0.0, 0.0, 0.0, 0.0, 0.0, 0.0, 0.0, 1.707474233467527E9, 0.0, 2024-02-09 11:23:53.467
54.0, -18207.708681548676, -7602.118861927851, 14823.676922759643, -3005.7508356274175, 46128.79259929569, 16782.18147542256, 33570.50968057033, 8528.531614366962, 28583.634326891224, 4115.246726899949, 38958.91177164457, 27854.90040241485, 39675.88867853745, 33716.444220119025, 27868.736132232683, 24589.936386339235, 0.08299999999999999, 0.9918125, 0.2239375, 192.0, 1.0, 56.0, 15.0, 112.0, 3.5, 8.0, 0.0, 0.0, 0.0, 1.7074742334765966E9, 0.0, 2024-02-09 11:23:53.476
56.0, -18203.908884991277, -7537.768189641022, 14800.565218992857, -2995.983123300448, 45803.574717470976, 16709.627712920632, 33391.11457957204, 8347.437780790066, 28299.901282775558, 4220.45638805108, 38566.102214587, 27768.086226950436, 39212.29114678993, 33487.60706038559, 27659.143824475268, 24409.043718462435, 0.08299999999999999, 0.9918125, 0.2239375, 192.0, 0.0, 0.0, 0.0, 0.0, 0.0, 0.0, 0.0, 0.0, 0.0, 1.707474233485015E9, 0.0, 2024-02-09 11:23:53.485
58.0, -18173.93519567671, -7487.700282061134, 14881.545589154433, -2994.1279285106575, 46196.83130941765, 16808.243609457448, 33625.47262018593, 8545.429533175175, 28518.434288315093, 4442.722134914653, 38781.68478985844, 27853.46989076971, 39347.47449725563, 33607.680631599505, 27764.01820945957, 24479.83169315239, 0.08299999999999999, 0.9918125, 0.2239375, 192.0, 0.0, 0.0, 0.0, 0.0, 0.0, 0.0, 0.0, 0.0, 0.0, 1.707474233491557E9, 0.0, 2024-02-09 11:23:53.491
60.0, -18158.043105368986, -7643.55899614799, 14801.83926842681, -2973.8995997786046, 45880.956456775246, 16722.524669471346, 33437.717966761345, 8379.624292805707, 28548.586791585305, 4613.288296853101, 38910.296727454275, 27827.295998012545, 39591.95787810777, 33640.69415815999, 27813.080288538968, 24593.646775918816, 0.08299999999999999, 0.9918125, 0.2239375, 192.0, 0.0, 0.0, 0.0, 0.0, 0.0, 0.0, 0.0, 0.0, 0.0, 1.7074742334995463E9, 0.0, 2024-02-09 11:23:53.499
62.0, -18099.839162807366, -7773.243817477682, 14873.074278005872, -2983.153221983102, 46000.38182739995, 16776.973518964474, 33517.64780493353, 8409.486223397997, 28365.123673096143, 4819.326677242122, 38571.04195011163, 27779.105636966902, 39056.43243270307, 33460.8967257615, 27642.80469927844, 24376.656040746697, 0.08299999999999999, 0.9918125, 0.2239375, 192.0, 0.0, 0.0, 0.0, 0.0, 0.0, 0.0, 0.0, 0.0, 0.0, 1.7074742335086048E9, 0.0, 2024-02-09 11:23:53.508
64.0, -18078.9179299972, -7898.368882938491, 14850.521367850468, -2981.6109516156857, 46118.98018347981, 16779.476914343468, 33559.0208839203, 8419.343342702789, 28703.104401004843, 5059.76439234786, 39063.29441825085, 27868.04322815457, 39666.70211156632, 33711.01274621639, 27876.246318369667, 24623.77692744457, 0.08549999999999999, 0.99790625, 0.22296875, 192.0, 1.0, 96.0, 15.5, 48.0, 3.0, 120.0, 0.0, 0.0, 0.0, 1.7074742335165896E9, 0.0, 2024-02-09 11:23:53.516
66.0, -18046.999638915022, -7971.995529174273, 14822.291114603415, -2978.7722800698616, 45784.687493406236, 16708.286608253315, 33360.827965835095, 8235.656706769074, 28403.47926658145, 5145.930367223068, 38663.77933785669, 27753.691703521217, 39204.266870530475, 33478.30873469219, 27662.94362103267, 24425.98634075956, 0.08549999999999999, 0.99790625, 0.22296875, 192.0, 0.0, 0.0, 0.0, 0.0, 0.0, 0.0, 0.0, 0.0, 0.0, 1.7074742335236297E9, 0.0, 2024-02-09 11:23:53.523
68.0, -17970.64607985569, -7938.669078191409, 14900.90219985273, -2980.180439970546, 46175.261876018274, 16819.285371218368, 33577.23755565137, 8431.212119008556, 28620.358243031293, 5301.789081309925, 38861.30170360824, 27837.60015220644, 39334.59989244937, 33610.407544423055, 27752.887040720827, 24482.80447516495, 0.08549999999999999, 0.99790625, 0.22296875, 192.0, 0.0, 0.0, 0.0, 0.0, 0.0, 0.0, 0.0, 0.0, 0.0, 1.7074742335325933E9, 0.0, 2024-02-09 11:23:53.532
70.0, -17977.619824125748, -7985.428927591912, 14814.26683834396, -2975.39716665711, 45858.47060185321, 16712.801660633286, 33391.092227827576, 8258.500189602399, 28641.27947584146, 5371.168896099198, 38981.66584750007, 27822.915056099304, 39601.7479421792, 33655.17808856703, 27804.765439601593, 24578.067610033468, 0.08549999999999999, 0.99790625, 0.22296875, 192.0, 0.0, 0.0, 0.0, 0.0, 0.0, 0.0, 0.0, 0.0, 0.0, 1.7074742335406055E9, 0.0, 2024-02-09 11:23:53.540
72.0, -17909.491707025973, -7911.668170889398, 14889.748679369532, -2972.8937712781158, 45968.17296363985, 16777.778181764865, 33456.51578384826, 8307.45050995952, 28456.005866051422, 5434.670202096725, 38633.13509620847, 27787.465189393188, 39081.98047661549, 33472.474929389355, 27624.27510312499, 24337.04874957189, 0.08549999999999999, 0.99790625, 0.22296875, 192.0, 0.0, 0.0, 0.0, 0.0, 0.0, 0.0, 0.0, 0.0, 0.0, 1.7074742335480292E9, 0.0, 2024-02-09 11:23:53.548
74.0, -17887.76581141541, -7900.492298661745, 14874.057754761907, -2959.147448438102, 46106.66437228494, 16801.426327398578, 33531.08120335117, 8388.363824887732, 28785.962317700665, 5560.644633846836, 39123.01827943543, 27900.56501633704, 39704.878891095985, 33743.13220299866, 27870.032533411093, 24608.041299348035, 0.08775, 0.999953125, 0.222484375, 192.0, 1.0, 104.0, 15.5, 40.0, 3.0, 120.0, 0.0, 0.0, 0.0, 1.707474233555638E9, 0.0, 2024-02-09 11:23:53.555
76.0, -17868.655069906126, -7898.614752127499, 14857.115132464784, -2941.2884046183117, 45799.082016835455, 16747.804492450297, 33362.5266984137, 8235.701410257985, 28485.219596054507, 5571.0605467630085, 38724.50902754176, 27808.63229139236, 39269.0198742175, 33520.53117996826, 27672.085484514893, 24428.176811716177, 0.08775, 0.999953125, 0.222484375, 192.0, 0.0, 0.0, 0.0, 0.0, 0.0, 0.0, 0.0, 0.0, 0.0, 1.7074742335646915E9, 0.0, 2024-02-09 11:23:53.564
78.0, -17824.62213332917, -7854.380649850446, 14917.28602853847, -2964.4895153629204, 46188.94114362492, 16823.062816031317, 33557.63507576407, 8380.384252117188, 28678.11515070381, 5663.440306596793, 38909.112084998145, 27889.165626664835, 39390.635715798824, 33639.50951570386, 27766.096921693912, 24474.668440183217, 0.08775, 0.999953125, 0.222484375, 192.0, 0.0, 0.0, 0.0, 0.0, 0.0, 0.0, 0.0, 0.0, 0.0, 1.7074742335726626E9, 0.0, 2024-02-09 11:23:53.572
80.0, -17850.974840041978, -7896.670150359888, 14842.944126480119, -2948.887997733116, 45893.51813715913, 16729.45371025249, 33399.3847250205, 8237.668363770052, 28698.701107347144, 5677.83483002601, 39024.49178987644, 27871.41834156732, 39646.63024504545, 33669.66201897407, 27815.494276940142, 24563.181348226233, 0.08775, 0.999953125, 0.222484375, 192.0, 0.0, 0.0, 0.0, 0.0, 0.0, 0.0, 0.0, 0.0, 0.0, 1.7074742335797231E9, 0.0, 2024-02-09 11:23:53.579
82.0, -17821.112909449686, -7864.036603455139, 14902.310359753414, -2966.925855508549, 45999.5548128551, 16770.51386481689, 33458.90742050498, 8269.452544385498, 28492.30509904684, 5687.736652819712, 38654.905695307934, 27818.13178278587, 39105.338049571285, 33483.8519673171, 27639.161364932224, 24336.40054898269, 0.08775, 0.999953125, 0.222484375, 192.0, 0.0, 0.0, 0.0, 0.0, 0.0, 0.0, 0.0, 0.0, 0.0, 1.7074742335876615E9, 0.0, 2024-02-09 11:23:53.587
84.0, -17814.899124491112, -7856.1911411513265, 14874.549493139923, -2974.5701521122637, 46129.93253826291, 16773.352536362712, 33518.45246773392, 8319.83337638776, 28796.445285850205, 5734.764723153678, 39120.00079393396, 27894.105362189457, 39712.076152810594, 33722.881522522155, 27869.69725724426, 24576.771208855058, 0.08687500000000001, 1.0009765625, 0.22224218750000002, 192.0, 1.0, 88.0, 15.5, 40.0, 3.0, 120.0, 0.0, 0.0, 0.0, 1.707474233596684E9, 0.0, 2024-02-09 11:23:53.596
86.0, -17817.804851270303, -7847.675126513855, 14852.018934728972, -2953.53716057982, 45809.721447196185, 16741.702466214, 33356.69289311086, 8200.631523207609, 28494.629680470192, 5714.692856632812, 38730.543998544694, 27804.653680879317, 39265.30948463792, 33502.58272917065, 27672.19724323717, 24397.06318343439, 0.08687500000000001, 1.0009765625, 0.22224218750000002, 192.0, 0.0, 0.0, 0.0, 0.0, 0.0, 0.0, 0.0, 0.0, 0.0, 1.7074742336037009E9, 0.0, 2024-02-09 11:23:53.603
88.0, -17835.52978462336, -7822.328248301536, 14911.049891835439, -2977.4758788914537, 46189.79050991422, 16858.065647848325, 33560.36198858762, 8400.992560504981, 28670.11322618881, 5755.32832805256, 38903.300631439764, 27871.57480377851, 39382.27616337254, 33616.978957292915, 27769.561442084487, 24460.095102798357, 0.08687500000000001, 1.0009765625, 0.22224218750000002, 192.0, 0.0, 0.0, 0.0, 0.0, 0.0, 0.0, 0.0, 0.0, 0.0, 1.707474233611743E9, 0.0, 2024-02-09 11:23:53.611
90.0, -17940.918259730133, -7894.904362547918, 14821.88878320322, -2970.6362450881297, 45876.41905265082, 16783.544931834334, 33379.93870734438, 8290.127908006658, 28630.841211180832, 5690.798841810089, 38996.61916454067, 27814.35433797292, 39639.880018219956, 33657.05563510128, 27814.823724606482, 24578.04525828901, 0.08687500000000001, 1.0009765625, 0.22224218750000002, 192.0, 0.0, 0.0, 0.0, 0.0, 0.0, 0.0, 0.0, 0.0, 0.0, 1.7074742336200287E9, 0.0, 2024-02-09 11:23:53.620
92.0, -17945.79094002139, -7818.2155273217595, 14884.831295589363, -2983.3320359387444, 45979.460594589786, 16828.918973078606, 33438.16500165046, 8327.097693335736, 28393.84566472121, 5610.936058871277, 38606.13418890646, 27741.554706281986, 39096.397351789165, 33469.3009816767, 27634.713367785618, 24348.761063666472, 0.08687500000000001, 1.0009765625, 0.22224218750000002, 192.0, 0.0, 0.0, 0.0, 0.0, 0.0, 0.0, 0.0, 0.0, 0.0, 1.7074742336277964E9, 0.0, 2024-02-09 11:23:53.627
94.0, -17938.37016086223, -7783.324454227025, 14858.947975510118, -2991.4904226649314, 46119.24840441327, 16811.864592059206, 33502.51567393728, 8368.716641511517, 28688.285194430973, 5555.7943053000345, 39064.61317117372, 27819.316425242, 39699.71563812681, 33723.2615021779, 27867.46208279873, 24586.069534548467, 0.0854375, 1.00548828125, 0.22312109375, 192.0, 1.0, 80.0, 15.5, 72.0, 3.5, 0.0, 0.0, 0.0, 0.0, 1.7074742336357903E9, 0.0, 2024-02-09 11:23:53.635
96.0, -17919.773509475413, -7748.411029387836, 14824.950972193596, -2995.3796262001547, 45792.242383032135, 16719.26131478087, 33298.93598543835, 8174.390575217078, 28355.37831251363, 5284.71234854607, 38650.9717882838, 27700.449848228676, 39254.9159234662, 33476.654705602494, 27656.19339420717, 24374.733790723538, 0.0854375, 1.00548828125, 0.22312109375, 192.0, 0.0, 0.0, 0.0, 0.0, 0.0, 0.0, 0.0, 0.0, 0.0, 1.7074742336438403E9, 0.0, 2024-02-09 11:23:53.643
98.0, -17905.78131744639, -7654.444295697725, 14906.266618522004, -3014.0656845647914, 46199.40176003001, 16814.971484538495, 33539.88779066656, 8361.631138519186, 28527.30793086385, 5088.888715373125, 38817.20171179792, 27782.234881190645, 39381.91853546126, 33590.22391917991, 27746.78501448453, 24395.83383748935, 0.0854375, 1.00548828125, 0.22312109375, 192.0, 0.0, 0.0, 0.0, 0.0, 0.0, 0.0, 0.0, 0.0, 0.0, 1.7074742336528108E9, 0.0, 2024-02-09 11:23:53.652
100.0, -17994.428335956138, -7758.558721370545, 14818.647780257199, -3013.104559553213, 45908.96319257774, 16725.65391369509, 33381.726846900805, 8256.577939579242, 28504.732668963992, 4752.159685153924, 38901.333677927694, 27740.839450459418, 39648.28427413515, 33633.02750981182, 27804.92190181278, 24485.37492577731, 0.0854375, 1.00548828125, 0.22312109375, 192.0, 0.0, 0.0, 0.0, 0.0, 0.0, 0.0, 0.0, 0.0, 0.0, 1.707474233659823E9, 0.0, 2024-02-09 11:23:53.659
102.0, -17980.50319916048, -7799.060082323562, 14876.717612352088, -3027.767303915895, 46010.10483623801, 16775.99004220844, 33434.81223998216, 8326.293030535344, 28287.31725064722, 4434.027306321538, 38522.918644299345, 27708.742345421597, 39107.237947849986, 33452.35835937958, 27637.730853287085, 24261.052818423846, 0.0854375, 1.00548828125, 0.22312109375, 192.0, 0.0, 0.0, 0.0, 0.0, 0.0, 0.0, 0.0, 0.0, 0.0, 1.7074742336678505E9, 0.0, 2024-02-09 11:23:53.667
104.0, -18071.94418572714, -8036.592070650109, 14842.02770495745, -3042.8994349121376, 46149.49031466131, 16771.45263808401, 33500.32520298066, 8397.2821709254, 28598.9005683542, 3961.3773180696153, 38987.879632458644, 27813.4155647058, 39721.732106415286, 33709.62693806016, 27855.481547770687, 24494.02505088151, 0.08071875, 1.005744140625, 0.221560546875, 192.0, 1.0, 48.0, 15.5, 56.0, 3.0, 112.0, 0.0, 0.0, 0.0, 1.707474233676122E9, 0.0, 2024-02-09 11:23:53.676
106.0, -18141.100483071863, -8154.653984863042, 14802.062785871361, -3036.4397807645537, 45814.6611827208, 16720.378902003635, 33326.24981716273, 8296.900486576616, 28253.00732290832, 3424.801340675514, 38563.621170952465, 27706.797743653984, 39273.80314753093, 33471.267935188764, 27643.89993475675, 24293.328737417312, 0.08071875, 1.005744140625, 0.221560546875, 192.0, 0.0, 0.0, 0.0, 0.0, 0.0, 0.0, 0.0, 0.0, 0.0, 1.7074742336838293E9, 0.0, 2024-02-09 11:23:53.683
108.0, -18195.30346337598, -8177.899799096561, 14860.110266221795, -3048.5544262593303, 46196.78660592873, 16835.222165015002, 33528.30958703871, 8505.934000722647, 28409.33542362874, 3228.7318383135607, 38720.88804494, 27790.79559931703, 39370.83207021142, 33599.52224487332, 27736.547915524, 24353.790206168916, 0.08071875, 1.005744140625, 0.221560546875, 192.0, 0.0, 0.0, 0.0, 0.0, 0.0, 0.0, 0.0, 0.0, 0.0, 1.70747423369184E9, 0.0, 2024-02-09 11:23:53.691
110.0, -18236.22950747365, -8190.886162625095, 14785.410736252159, -3026.783827159861, 45905.141044275886, 16768.099876415716, 33382.218585278824, 8410.827328065316, 28404.663909037583, 3038.473789509987, 38833.607892228116, 27778.569195099975, 39637.51073330769, 33650.238353042405, 27805.16777100179, 24484.16793157672, 0.08071875, 1.005744140625, 0.221560546875, 192.0, 0.0, 0.0, 0.0, 0.0, 0.0, 0.0, 0.0, 0.0, 0.0, 1.7074742336998487E9, 0.0, 2024-02-09 11:23:53.699
112.0, -18275.680336437268, -8184.247694521868, 14836.059789187884, -3049.627309993185, 46003.01933324568, 16817.56428689531, 33427.1902951229, 8467.377241537242, 28187.29319420972, 2900.4294157540103, 38451.03543413108, 27738.15724112478, 39090.60824997524, 33474.46423464587, 27636.970893975606, 24275.067362197326, 0.08071875, 1.005744140625, 0.221560546875, 192.0, 0.0, 0.0, 0.0, 0.0, 0.0, 0.0, 0.0, 0.0, 0.0, 1.7074742337088723E9, 0.0, 2024-02-09 11:23:53.708
114.0, -18283.682260952268, -8157.246787219858, 14806.935466162618, -3055.1258391291904, 46149.110335005564, 16823.196926498047, 33490.33397320914, 8558.862931592814, 28484.906671632132, 2873.9873020633822, 38904.86525355164, 27811.06863153799, 39689.90322231093, 33713.87376950667, 27865.338667075477, 24530.838373999402, 0.08071875, 1.005744140625, 0.221560546875, 192.0, 0.0, 0.0, 0.0, 0.0, 0.0, 0.0, 0.0, 0.0, 0.0, 1.7074742337148986E9, 0.0, 2024-02-09 11:23:53.714
116.0, -18305.22934260718, -8118.310048378712, 14778.436991982102, -3046.118086113702, 45832.07319165149, 16747.22334709446, 33355.03886402117, 8435.414246966153, 28180.811188317683, 2802.729940739863, 38505.97602200223, 27709.72582217763, 39253.84303973235, 33481.5050341493, 27675.013563038538, 24354.77368292495, 0.076, 0.992, 0.224, 192.0, 1.0, 48.0, 15.5, 0.0, 3.5, 0.0, 0.0, 0.0, 0.0, 1.7074742337238896E9, 0.0, 2024-02-09 11:23:53.723
118.0, -18293.897008168344, -8004.629076079021, 14839.948992723108, -3070.593246292263, 46219.47362655087, 16810.3670251807, 33556.428081563485, 8591.719995942116, 28368.029399875333, 2887.443052225477, 38671.40128271595, 27785.609994603397, 39356.661064226755, 33588.45813136794, 27770.41080837379, 24401.77940151446, 0.076, 0.992, 0.224, 192.0, 0.0, 0.0, 0.0, 0.0, 0.0, 0.0, 0.0, 0.0, 0.0, 1.7074742337319121E9, 0.0, 2024-02-09 11:23:53.731
120.0, -18299.887275682366, -7950.090819608072, 14752.553671902857, -3055.3940600626543, 45912.539471690594, 16718.724872913943, 33386.89009986998, 8498.133241907744, 28387.497769295904, 2926.2009771109792, 38779.494318901816, 27756.575078555954, 39624.68083199034, 33623.41625969604, 27806.821800091482, 24498.540103261486, 0.076, 0.992, 0.224, 192.0, 0.0, 0.0, 0.0, 0.0, 0.0, 0.0, 0.0, 0.0, 0.0, 1.7074742337409244E9, 0.0, 2024-02-09 11:23:53.740
122.0, -18254.624993160367, -7817.813195921564, 14817.843117456809, -3064.267702611411, 46014.284612451156, 16766.22232988147, 33472.273763689256, 8557.41006820322, 28197.977328059358, 3066.8381532237713, 38419.02773607108, 27719.828810671428, 39080.035874847876, 33436.01923418274, 27640.61422832182, 24290.445362382576, 0.076, 0.992, 0.224, 192.0, 0.0, 0.0, 0.0, 0.0, 0.0, 0.0, 0.0, 0.0, 0.0, 1.7074742337479272E9, 0.0, 2024-02-09 11:23:53.747
124.0, -18221.209135199682, -7714.637543515867, 14786.595378708289, -3065.3629380897214, 46161.33673922262, 16765.060039169795, 33550.8177937052, 8605.37691180431, 28546.821003773333, 3347.553711837973, 38893.68938132398, 27810.532189671063, 39676.82745180457, 33677.26161208888, 27865.673943242306, 24543.176536938732, 0.076, 0.992, 0.224, 192.0, 0.0, 0.0, 0.0, 0.0, 0.0, 0.0, 0.0, 0.0, 0.0, 1.7074742337559884E9, 0.0, 2024-02-09 11:23:53.755
126.0, -18187.815628983455, -7586.204419875672, 14761.15909351815, -3044.1958360905455, 45828.74278172765, 16705.984378574416, 33401.03875411019, 8467.936035148625, 28274.97908770789, 3490.962504263223, 38508.81469354805, 27719.851162415882, 39234.21820810058, 33453.27478090224, 27667.011638523538, 24376.834854702338, 0.084, 0.98, 0.232, 192.0, 1.0, 80.0, 15.0, 80.0, 3.5, 32.0, 0.0, 0.0, 0.0, 1.7074742337639823E9, 0.0, 2024-02-09 11:23:53.763
128.0, -18142.776863906012, -7410.027970078942, 14835.009257198484, -3051.147228616146, 46211.91873692498, 16798.006510496918, 33610.049916511765, 8611.456586296152, 28486.82892165529, 3683.656893212425, 38687.15926255695, 27810.442782693244, 39325.32391850041, 33557.322151341694, 27754.675180277252, 24436.134032742266, 0.084, 0.98, 0.232, 192.0, 0.0, 0.0, 0.0, 0.0, 0.0, 0.0, 0.0, 0.0, 0.0, 1.7074742337709718E9, 0.0, 2024-02-09 11:23:53.770
130.0, -18157.573718735424, -7425.629487708747, 14752.01723003593, -3024.7498184144283, 45922.6424601844, 16721.272971781847, 33442.411833096965, 8449.071162828346, 28532.40412859966, 3850.8032382492115, 38839.486401019865, 27801.949119800225, 39591.779064152135, 33617.381288693105, 27808.45347743672, 24566.310592449976, 0.084, 0.98, 0.232, 192.0, 0.0, 0.0, 0.0, 0.0, 0.0, 0.0, 0.0, 0.0, 0.0, 1.7074742337802308E9, 0.0, 2024-02-09 11:23:53.780
132.0, -18099.950921529642, -7503.5923723688575, 14832.371751352759, -3009.2600595069002, 46029.30498472512, 16796.620702340686, 33532.802287674225, 8483.87282894526, 28336.111108793153, 4079.7521567049216, 38495.06837070804, 27752.618819787363, 39032.851342302725, 33446.97158896585, 27640.055434710437, 24364.809616185383, 0.084, 0.98, 0.232, 192.0, 0.0, 0.0, 0.0, 0.0, 0.0, 0.0, 0.0, 0.0, 0.0, 1.707474233788034E9, 0.0, 2024-02-09 11:23:53.788
134.0, -18059.829540232367, -7716.179813883283, 14830.918887963164, -3000.207603002501, 46164.82361135764, 16808.154202479625, 33587.13937844508, 8520.641448574239, 28688.06167698642, 4399.180936715715, 39014.455856616005, 27850.921791901805, 39649.98300671375, 33717.83002827526, 27890.372620865423, 24636.428014806275, 0.084, 0.98, 0.232, 192.0, 0.0, 0.0, 0.0, 0.0, 0.0, 0.0, 0.0, 0.0, 0.0, 1.7074742337959805E9, 0.0, 2024-02-09 11:23:53.795
136.0, -18027.9559526391, -7884.153173464915, 14819.31833259086, -2980.3816056706437, 45826.909938682315, 16732.895878898606, 33408.012498380245, 8325.443664246042, 28401.959347958487, 4582.867572649428, 38645.45090740334, 27743.54401153851, 39221.29889980542, 33495.83250234515, 27689.85512135686, 24451.579088160885, 0.092, 1.004, 0.226, 192.0, 1.0, 112.0, 15.5, 48.0, 3.5, 8.0, 0.0, 0.0, 0.0, 1.7074742338040237E9, 0.0, 2024-02-09 11:23:53.804
138.0, -17960.654850084167, -7887.058900244106, 14903.874981865285, -2980.7839370708393, 46204.363847299086, 16825.34269396576, 33598.98580300639, 8470.797058438904, 28607.86361788078, 4849.166256089957, 38836.69243296295, 27833.59918994894, 39313.96923231712, 33604.43962865348, 27778.345677655423, 24486.872492655813, 0.092, 1.004, 0.226, 192.0, 0.0, 0.0, 0.0, 0.0, 0.0, 0.0, 0.0, 0.0, 0.0, 1.7074742338120446E9, 0.0, 2024-02-09 11:23:53.812
140.0, -17966.578062364824, -7955.38818304398, 14823.207536126083, -2967.3281869087446, 45907.733846632706, 16740.182547591037, 33414.62861473902, 8316.771187397384, 28648.588496278346, 4994.027911904802, 38988.19255688102, 27817.595340918942, 39600.20567181178, 33643.73399540591, 27830.64875968084, 24602.29690102302, 0.092, 1.004, 0.226, 192.0, 0.0, 0.0, 0.0, 0.0, 0.0, 0.0, 0.0, 0.0, 0.0, 1.7074742338200433E9, 0.0, 2024-02-09 11:23:53.820
142.0, -17915.660788495636, -7917.211403514315, 14877.343461196837, -2983.3767394276547, 45986.56844932657, 16781.89090274464, 33451.978379723834, 8311.674989661573, 28452.228421238473, 5106.72540744846, 38618.09237219005, 27776.557538098998, 39056.79006061436, 33453.99003672481, 27641.50829810003, 24358.72994169354, 0.092, 1.004, 0.226, 192.0, 0.0, 0.0, 0.0, 0.0, 0.0, 0.0, 0.0, 0.0, 0.0, 1.707474233827184E9, 0.0, 2024-02-09 11:23:53.827
144.0, -17914.45379429505, -7944.011145116227, 14852.331859151347, -2998.374759957166, 46128.21145393985, 16778.180513165058, 33505.08612454964, 8351.237577347467, 28783.5930327884, 5231.358734531252, 39090.40708427514, 27865.85275719795, 39668.44554763383, 33695.545339053315, 27856.50972801563, 24570.95975529668, 0.092, 1.004, 0.226, 192.0, 0.0, 0.0, 0.0, 0.0, 0.0, 0.0, 0.0, 0.0, 0.0, 1.7074742338360522E9, 0.0, 2024-02-09 11:23:53.836
146.0, -17908.754099458947, -7959.880883679496, 14830.538908307422, -2985.6789691065514, 45805.54167098304, 16709.627712920632, 33357.7210733558, 8204.967761631939, 28489.153503078644, 5250.178903362621, 38710.74035295729, 27762.96767747017, 39258.17927815668, 33469.14451946551, 27667.749246090563, 24381.752238482506, 0.084, 1.002, 0.226, 192.0, 1.0, 80.0, 15.5, 40.0, 3.5, 8.0, 0.0, 0.0, 0.0, 1.7074742338440976E9, 0.0, 2024-02-09 11:23:53.844
148.0, -17848.829072574266, -7887.1259554774715, 14911.943961613651, -2991.110443009191, 46203.46977752087, 16806.969560023495, 33576.34348587316, 8382.999406218458, 28676.930508247675, 5377.427384546684, 38876.61264856013, 27848.597210478452, 39353.26359906955, 33573.482462582884, 27767.92976473925, 24429.652026850228, 0.084, 1.002, 0.226, 192.0, 0.0, 0.0, 0.0, 0.0, 0.0, 0.0, 0.0, 0.0, 0.0, 1.7074742338520925E9, 0.0, 2024-02-09 11:23:53.852
150.0, -17865.749343126936, -7904.113281263505, 14827.990809439518, -2976.4476986465097, 45914.46172171375, 16721.608247948676, 33409.33125130311, 8238.204805636979, 28719.577636668404, 5430.043390994477, 39025.45291488802, 27845.400911021345, 39649.04423344663, 33640.51534420435, 27833.46507948221, 24555.313534177963, 0.084, 1.002, 0.226, 192.0, 0.0, 0.0, 0.0, 0.0, 0.0, 0.0, 0.0, 0.0, 0.0, 1.707474233860086E9, 0.0, 2024-02-09 11:23:53.860
152.0, -17818.90008674861, -7838.712076987276, 14889.346347969336, -2982.929704538549, 45989.161251683385, 16764.165969391583, 33437.56150455016, 8247.033744696826, 28501.759886951437, 5464.956815833666, 38644.13215448048, 27799.40102093232, 39088.93186914109, 33450.726682034336, 27644.525783601497, 24321.536638919908, 0.084, 1.002, 0.226, 192.0, 0.0, 0.0, 0.0, 0.0, 0.0, 0.0, 0.0, 0.0, 0.0, 1.7074742338681495E9, 0.0, 2024-02-09 11:23:53.868
154.0, -17819.86121176019, -7837.728600231243, 14872.381373927758, -2977.92291378056, 46147.67982336043, 16784.17078067908, 33519.99473810133, 8316.346504252733, 28829.79408857752, 5552.888578520844, 39117.6315090217, 27899.738001792193, 39680.5154896397, 33710.87863574966, 27869.406684566344, 24560.029752258033, 0.084, 1.002, 0.226, 192.0, 0.0, 0.0, 0.0, 0.0, 0.0, 0.0, 0.0, 0.0, 0.0, 1.7074742338761413E9, 0.0, 2024-02-09 11:23:53.876
156.0, -17814.38503436864, -7829.681972227332, 14839.501957834002, -2963.1931141845125, 45809.27441230707, 16723.955181116486, 33337.35863415702, 8164.309938467734, 28537.343864124283, 5524.524214807059, 38736.10958291407, 27799.289262210044, 39259.85565899082, 33497.88886283503, 27681.29440323048, 24397.912549723693, 0.08, 1.014, 0.228, 192.0, 1.0, 64.0, 15.5, 88.0, 3.5, 16.0, 0.0, 0.0, 0.0, 1.7074742338831515E9, 0.0, 2024-02-09 11:23:53.883
158.0, -17761.120827331644, -7772.662672121844, 14909.485269723567, -2978.7052248364957, 46187.510631979785, 16815.23970547196, 33528.64486320554, 8339.547614997342, 28712.313319720426, 5610.757244915634, 38890.24721267787, 27881.521330061118, 39332.78940114849, 33601.668012341026, 27757.625610545354, 24429.339102427854, 0.08, 1.014, 0.228, 192.0, 0.0, 0.0, 0.0, 0.0, 0.0, 0.0, 0.0, 0.0, 0.0, 1.707474233892139E9, 0.0, 2024-02-09 11:23:53.892
160.0, -17805.399633097608, -7815.734483687221, 14833.668152531167, -2961.8073060282836, 45908.784378622106, 16744.40702729309, 33397.19425406388, 8245.670288285051, 28742.532878224003, 5613.238288550173, 39041.70263310702, 27864.42224555281, 39636.25903561819, 33666.823347428246, 27823.607960177418, 24554.084188232922, 0.08, 1.014, 0.228, 192.0, 0.0, 0.0, 0.0, 0.0, 0.0, 0.0, 0.0, 0.0, 0.0, 1.7074742339005497E9, 0.0, 2024-02-09 11:23:53.900
162.0, -17764.786513422314, -7754.244834690671, 14892.90027533773, -2968.5798845982417, 45987.66368480488, 16795.056080228816, 33461.90255426199, 8298.174536010569, 28515.573265024814, 5601.816547133511, 38656.2244482308, 27808.25231173662, 39086.115549339724, 33469.949182265904, 27653.28766742798, 24339.999179839993, 0.08, 1.014, 0.228, 192.0, 0.0, 0.0, 0.0, 0.0, 0.0, 0.0, 0.0, 0.0, 0.0, 1.707474233907219E9, 0.0, 2024-02-09 11:23:53.907
164.0, -17739.08200729871, -7722.080674419484, 14890.70980438111, -2959.080393204736, 46151.52432340674, 16802.14158322115, 33529.87420915058, 8338.944117897048, 28845.350902718415, 5690.843545299, 39148.70043381458, 27925.4425079158, 39692.07134152309, 33730.235246447955, 27885.634051040895, 24580.9509850682, 0.08, 1.014, 0.228, 192.0, 0.0, 0.0, 0.0, 0.0, 0.0, 0.0, 0.0, 0.0, 0.0, 1.707474233915213E9, 0.0, 2024-02-09 11:23:53.915
166.0, -17796.593045782214, -7737.704543793744, 14861.56312961139, -2949.089163433214, 45814.52707225407, 16741.188376091526, 33340.93491326987, 8204.252505809369, 28547.871535762733, 5634.4500940382595, 38767.334969918134, 27813.102640283425, 39286.23071744808, 33508.50594145131, 27691.73266789111, 24402.651119548216, 0.08, 1.01, 0.228, 192.0, 1.0, 64.0, 15.5, 72.0, 3.5, 16.0, 0.0, 0.0, 0.0, 1.7074742339241931E9, 0.0, 2024-02-09 11:23:53.924
168.0, -17817.558982081293, -7714.279915604582, 14931.345275800859, -2969.988044498926, 46205.07910312165, 16844.29697326386, 33568.2745061248, 8392.253028422956, 28694.7224968341, 5677.1866294368065, 38903.81472156224, 27880.04611492707, 39352.682453713714, 33607.0324310103, 27779.44091313373, 24435.664646108708, 0.08, 1.01, 0.228, 192.0, 0.0, 0.0, 0.0, 0.0, 0.0, 0.0, 0.0, 0.0, 0.0, 1.7074742339312425E9, 0.0, 2024-02-09 11:23:53.931
170.0, -17877.52871245488, -7735.469369348213, 14840.440731101124, -2964.757736296384, 45923.76004740716, 16754.51001578689, 33401.508140743754, 8251.839369754716, 28687.368772908303, 5625.241175322673, 39031.33142367976, 27840.014140607615, 39644.03744268864, 33666.823347428246, 27841.93639063077, 24555.268830689056, 0.08, 1.01, 0.228, 192.0, 0.0, 0.0, 0.0, 0.0, 0.0, 0.0, 0.0, 0.0, 0.0, 1.7074742339392724E9, 0.0, 2024-02-09 11:23:53.939
172.0, -17851.555985397816, -7653.304356730504, 14902.802098131431, -2979.1746114700572, 45996.62673433146, 16794.31847266179, 33435.61690278255, 8276.046308999814, 28460.543270175847, 5579.241285233651, 38640.91350327891, 27785.386477158845, 39086.49552899546, 33468.49631887631, 27646.09040571337, 24313.668824871642, 0.08, 1.01, 0.228, 192.0, 0.0, 0.0, 0.0, 0.0, 0.0, 0.0, 0.0, 0.0, 0.0, 1.7074742339472532E9, 0.0, 2024-02-09 11:23:53.947
174.0, -17883.653090435637, -7648.431676439247, 14869.65446110421, -3009.3271147402666, 46145.26583495925, 16786.115382446693, 33487.24943247431, 8321.241536288446, 28739.895372378276, 5474.74687990509, 39086.45082550655, 27844.41743426531, 39688.159786243414, 33719.12642945367, 27865.00339090865, 24546.95398175168, 0.08, 1.01, 0.228, 192.0, 0.0, 0.0, 0.0, 0.0, 0.0, 0.0, 0.0, 0.0, 0.0, 1.7074742339562678E9, 0.0, 2024-02-09 11:23:53.956
176.0, -17872.320755996796, -7620.290830170015, 14838.630239800244, -3007.986010072948, 45810.6602204633, 16718.83663163622, 33312.70466002281, 8177.899799096561, 28382.669792493558, 5207.285905752887, 38666.394491957966, 27711.983348367616, 39273.78079578648, 33491.02687728726, 27656.081635484894, 24353.00789511298, 0.08, 1.014, 0.224, 192.0, 1.0, 64.0, 15.5, 88.0, 3.5, 0.0, 0.0, 0.0, 0.0, 1.7074742339636328E9, 0.0, 2024-02-09 11:23:53.963
178.0, -17887.430535248583, -7567.674823722223, 14901.550400441934, -3035.6127662197073, 46197.94889664041, 16818.32424620679, 33524.688604436946, 8354.36682157121, 28547.022169473432, 5029.9695169889355, 38799.18620576694, 27781.251404434614, 39344.47936349861, 33588.18991043448, 27733.373967811345, 24371.604546499795, 0.08, 1.014, 0.224, 192.0, 0.0, 0.0, 0.0, 0.0, 0.0, 0.0, 0.0, 0.0, 0.0, 1.707474233971306E9, 0.0, 2024-02-09 11:23:53.971
180.0, -17950.618916823736, -7635.914699544275, 14810.131765619728, -3035.858635408716, 45910.77368387862, 16726.369169517657, 33353.898925053945, 8233.220366623445, 28558.71213182356, 4746.817618229105, 38927.57462591823, 27755.524546566554, 39652.53110558166, 33648.360806508164, 27794.88596855235, 24477.55181521795, 0.08, 1.014, 0.224, 192.0, 0.0, 0.0, 0.0, 0.0, 0.0, 0.0, 0.0, 0.0, 0.0, 1.7074742339803097E9, 0.0, 2024-02-09 11:23:53.980
182.0, -17988.88510333122, -7659.227569011161, 14867.776914569964, -3049.023812892892, 45993.58689708554, 16771.542045061833, 33416.886140929004, 8293.771242352872, 28316.910960306046, 4488.409100581301, 38521.57753963203, 27702.86383662985, 39095.972668644514, 33454.012388469266, 27612.294568096946, 24238.678722224086, 0.08, 1.014, 0.224, 192.0, 0.0, 0.0, 0.0, 0.0, 0.0, 0.0, 0.0, 0.0, 0.0, 1.707474233987331E9, 0.0, 2024-02-09 11:23:53.987
184.0, -18022.211554314086, -7666.961272592697, 14857.919795265174, -3040.2842808108667, 46172.17733528344, 16801.7169000765, 33503.27563324876, 8417.577554890819, 28628.717795457578, 4291.222010996582, 38994.56280405078, 27811.314500727, 39694.619440391, 33715.0584119628, 27858.56608850552, 24496.819018938426, 0.08, 1.014, 0.224, 192.0, 0.0, 0.0, 0.0, 0.0, 0.0, 0.0, 0.0, 0.0, 0.0, 1.7074742339953468E9, 0.0, 2024-02-09 11:23:53.995
186.0, -18087.5680551014, -7800.870573624441, 14815.496184289, -3039.9937081329476, 45822.81956944699, 16731.308905042282, 33296.611404015, 8283.489439903431, 28316.41922192803, 3899.977076050887, 38611.699773275825, 27723.114517106358, 39289.15879597173, 33507.94714783992, 27665.24585071157, 24327.750423878482, 0.076, 1.01, 0.224, 192.0, 1.0, 48.0, 15.5, 72.0, 3.5, 0.0, 0.0, 0.0, 0.0, 1.7074742340033643E9, 0.0, 2024-02-09 11:23:54.003
188.0, -18133.344427745873, -7831.291297828115, 14880.629167631767, -3062.568970032808, 46215.91969918248, 16834.171633025602, 33512.37279324207, 8493.908762205692, 28461.146767276143, 3585.935066453823, 38732.019213678745, 27789.54390162753, 39342.15478207526, 33593.95666050394, 27736.167935868256, 24354.25959280248, 0.076, 1.01, 0.224, 192.0, 0.0, 0.0, 0.0, 0.0, 0.0, 0.0, 0.0, 0.0, 0.0, 1.7074742340123591E9, 0.0, 2024-02-09 11:23:54.012
190.0, -18187.70387026118, -7891.842173557541, 14794.820820667843, -3059.529132786886, 45948.838704686015, 16739.89197491312, 33374.19430901937, 8388.90026675466, 28483.409104753628, 3380.164906998266, 38870.26475313482, 27776.44577937672, 39640.99760544272, 33651.579457709726, 27809.280491981568, 24481.70923968664, 0.076, 1.01, 0.224, 192.0, 0.0, 0.0, 0.0, 0.0, 0.0, 0.0, 0.0, 0.0, 0.0, 1.7074742340193508E9, 0.0, 2024-02-09 11:23:54.019
192.0, -18175.253948599573, -7791.147564786383, 14850.431960872647, -3066.525228801397, 46024.611118389505, 16789.959882493007, 33443.887048231016, 8464.538569991419, 28251.934439174467, 3339.127104178322, 38466.05580640505, 27720.387604282812, 39080.50526148144, 33448.02212095525, 27632.411138106723, 24257.320077099812, 0.076, 1.01, 0.224, 192.0, 0.0, 0.0, 0.0, 0.0, 0.0, 0.0, 0.0, 0.0, 0.0, 1.707474234027342E9, 0.0, 2024-02-09 11:23:54.027
194.0, -18167.296727573485, -7712.134148136873, 14820.011236668974, -3073.99071144947, 46180.98392259883, 16790.00458598192, 33509.84704611862, 8524.0612654759, 28599.437010221125, 3484.8381262824687, 38932.22378876493, 27825.70902415622, 39671.463033135304, 33699.56865305527, 27873.2288328682, 24519.260170371555, 0.076, 1.01, 0.224, 192.0, 0.0, 0.0, 0.0, 0.0, 0.0, 0.0, 0.0, 0.0, 0.0, 1.7074742340363867E9, 0.0, 2024-02-09 11:23:54.036
196.0, -18173.711678232157, -7658.668775399778, 14781.5885879503, -3056.2881298408665, 45838.55519754353, 16719.775404903343, 33347.70749183983, 8388.453231865553, 28309.668995102526, 3522.41140871184, 38551.1488975464, 27717.280711803523, 39262.29199913645, 33476.83351955814, 27684.624813154318, 24359.62401147175, 0.078, 0.988, 0.226, 192.0, 1.0, 56.0, 15.0, 112.0, 3.5, 8.0, 0.0, 0.0, 0.0, 1.7074742340433865E9, 0.0, 2024-02-09 11:23:54.043
198.0, -18143.268602284028, -7538.550500696958, 14852.443617873625, -3067.8663334687158, 46213.10337938111, 16805.874324545184, 33563.51358455582, 8554.616100146306, 28477.240023283965, 3747.6275858435138, 38685.21466078933, 27799.959814543705, 39310.035325292985, 33572.90131722705, 27760.441930346722, 24400.147724169223, 0.078, 0.988, 0.226, 192.0, 0.0, 0.0, 0.0, 0.0, 0.0, 0.0, 0.0, 0.0, 0.0, 1.7074742340514317E9, 0.0, 2024-02-09 11:23:54.051
200.0, -18145.21320405164, -7491.298912918439, 14768.468113955036, -3055.8634466962158, 45931.02436435514, 16717.294361268803, 33397.14955057497, 8421.37735144822, 28539.534335080905, 3922.2394135283726, 38850.34934882514, 27794.84126506344, 39619.36111680998, 33630.90409408857, 27825.038471822558, 24532.380644366818, 0.078, 0.988, 0.226, 192.0, 0.0, 0.0, 0.0, 0.0, 0.0, 0.0, 0.0, 0.0, 0.0, 1.7074742340594244E9, 0.0, 2024-02-09 11:23:54.059
202.0, -18104.175401231696, -7348.963004227043, 14835.076312431851, -3052.9577199170258, 46000.40417914441, 16762.98132693545, 33452.31365589066, 8443.796151136894, 28336.75930938236, 4071.0573281118072, 38470.772024485115, 27745.77918598404, 39051.96208381201, 33424.731603232816, 27634.959236974628, 24309.690214358594, 0.078, 0.988, 0.226, 192.0, 0.0, 0.0, 0.0, 0.0, 0.0, 0.0, 0.0, 0.0, 0.0, 1.7074742340684633E9, 0.0, 2024-02-09 11:23:54.068
204.0, -18105.315340198915, -7309.333361307784, 14815.674998244644, -3056.2210746075007, 46173.98782658432, 16769.12805666066, 33546.54861051424, 8501.620114042773, 28690.833293298878, 4259.817810036875, 38970.10999561668, 27849.93831514577, 39639.34357635303, 33669.1479288516, 27866.36684732042, 24561.929650536735, 0.078, 0.988, 0.226, 192.0, 0.0, 0.0, 0.0, 0.0, 0.0, 0.0, 0.0, 0.0, 0.0, 1.707474234075442E9, 0.0, 2024-02-09 11:23:54.075
206.0, -18083.276520165982, -7405.691731654612, 14780.739221660999, -3039.814894177305, 45831.067363151, 16702.00576806137, 33364.13602401448, 8323.208489800512, 28421.472420867973, 4330.203453326637, 38620.05932570211, 27731.362310810367, 39239.1132401363, 33465.76940605276, 27685.273013743525, 24405.601549816318, 0.08, 0.996, 0.228, 192.0, 1.0, 64.0, 15.5, 16.0, 3.5, 16.0, 0.0, 0.0, 0.0, 1.70747423408344E9, 0.0, 2024-02-09 11:23:54.083
208.0, -18024.782004926445, -7523.530128422992, 14857.718629565077, -3051.147228616146, 46205.66024847749, 16797.738289563455, 33570.755549759335, 8461.185808323122, 28584.23782399152, 4565.969653841216, 38769.45838564139, 27793.321346440476, 39277.91586851071, 33556.852764708136, 27754.20579364369, 24433.36241642981, 0.08, 0.996, 0.228, 192.0, 0.0, 0.0, 0.0, 0.0, 0.0, 0.0, 0.0, 0.0, 0.0, 1.70747423409264E9, 0.0, 2024-02-09 11:23:54.092
210.0, -18014.47785073255, -7709.004903913129, 14785.075460085329, -3030.114237083702, 45930.75614342167, 16718.054320580282, 33410.82881818162, 8317.329981008766, 28655.249316126028, 4755.825371244594, 38960.87872515663, 27793.611919118397, 39603.446674757804, 33634.32391099023, 27834.60501844943, 24567.18231048373, 0.08, 0.996, 0.228, 192.0, 0.0, 0.0, 0.0, 0.0, 0.0, 0.0, 0.0, 0.0, 0.0, 1.707474234099514E9, 0.0, 2024-02-09 11:23:54.099
212.0, -17942.54993707537, -7748.522788110112, 14860.84787378882, -3024.7051149255176, 45986.76961502667, 16763.987155435938, 33440.08725167361, 8316.681780419562, 28447.24398222494, 4916.713227833895, 38584.229479340254, 27747.500270307097, 39041.43441217356, 33438.500277817286, 27646.26921966901, 24334.880630359727, 0.08, 0.996, 0.228, 192.0, 0.0, 0.0, 0.0, 0.0, 0.0, 0.0, 0.0, 0.0, 0.0, 1.707474234107508E9, 0.0, 2024-02-09 11:23:54.107
214.0, -17917.471279796515, -7802.032864336117, 14864.625318601766, -3014.825643876272, 46162.87900959003, 16795.011376739905, 33525.22504630387, 8407.675732097117, 28796.55704457248, 5108.53589874934, 39074.73851141197, 27856.666190226817, 39639.589445542035, 33703.41315310158, 27876.492187558677, 24579.76634261207, 0.08, 0.996, 0.228, 192.0, 0.0, 0.0, 0.0, 0.0, 0.0, 0.0, 0.0, 0.0, 0.0, 1.7074742341155012E9, 0.0, 2024-02-09 11:23:54.115
216.0, -17888.101087582243, -7834.30878332958, 14842.519443335468, -2984.561381883786, 45818.237461833654, 16742.708294714488, 33358.36927394501, 8283.288274203334, 28516.132058636198, 5181.559047884828, 38725.85013220908, 27769.96377348468, 39264.303656137425, 33510.8081711302, 27710.95516812267, 24432.02131176249, 0.07200000000000001, 1.01, 0.23, 192.0, 1.0, 32.0, 15.5, 72.0, 3.5, 24.0, 0.0, 0.0, 0.0, 1.7074742341235373E9, 0.0, 2024-02-09 11:23:54.123
218.0, -17816.28493264734, -7770.405145931858, 14924.95267688664, -2997.7712628568725, 46200.87697516406, 16833.858708603228, 33568.58743054717, 8416.884650812704, 28692.509674133027, 5337.708334649603, 38867.78370950028, 27859.683675728284, 39325.32391850041, 33605.55721587625, 27787.398134159823, 24441.20787873362, 0.07200000000000001, 1.01, 0.23, 192.0, 0.0, 0.0, 0.0, 0.0, 0.0, 0.0, 0.0, 0.0, 0.0, 1.7074742341315584E9, 0.0, 2024-02-09 11:23:54.131
220.0, -17831.752339810413, -7818.260230810671, 14842.407684613192, -2993.1668034990794, 45926.866939886444, 16742.21655633647, 33404.65973671195, 8273.140582220625, 28758.469672020638, 5409.323323884407, 39059.04758680434, 27863.55052751905, 39676.80510006012, 33680.793187712814, 27866.85858569844, 24566.064723260966, 0.07200000000000001, 1.01, 0.23, 192.0, 0.0, 0.0, 0.0, 0.0, 0.0, 0.0, 0.0, 0.0, 0.0, 1.707474234139556E9, 0.0, 2024-02-09 11:23:54.139
222.0, -17785.528932276837, -7779.792878603087, 14903.964388843107, -2998.441815190532, 45990.34589413952, 16786.47301035798, 33448.849135500095, 8295.246457486923, 28530.817154743334, 5452.4845424276045, 38656.40326218644, 27807.69351812524, 39110.54600602937, 33463.62363858505, 27672.465464170633, 24329.650322157184, 0.07200000000000001, 1.01, 0.23, 192.0, 0.0, 0.0, 0.0, 0.0, 0.0, 0.0, 0.0, 0.0, 0.0, 1.7074742341485476E9, 0.0, 2024-02-09 11:23:54.148
224.0, -17785.640690999116, -7790.231143263715, 14885.412440945202, -2999.0229605463696, 46169.115146293065, 16795.771336051384, 33532.44465976294, 8360.312385596322, 28867.322667517983, 5565.29379669354, 39132.45071559557, 27911.24915018668, 39707.51639694171, 33724.44614463403, 27907.650519329374, 24582.44855194671, 0.07200000000000001, 1.01, 0.23, 192.0, 0.0, 0.0, 0.0, 0.0, 0.0, 0.0, 0.0, 0.0, 0.0, 1.7074742341545455E9, 0.0, 2024-02-09 11:23:54.154
226.0, -17772.050830370288, -7796.422576477836, 14849.739056794531, -2985.567210384275, 45816.292860066045, 16722.278800282336, 33343.3712534155, 8196.183526061002, 28568.03280926142, 5551.882750020355, 38770.419510652966, 27812.253273994123, 39321.05473530945, 33517.20077004442, 27715.425517013733, 24411.904741752714, 0.07400000000000001, 1.01, 0.227, 192.0, 1.0, 48.0, 15.5, 72.0, 3.5, 0.0, 0.0, 0.0, 0.0, 1.7074742341637487E9, 0.0, 2024-02-09 11:23:54.163
228.0, -17720.75357684536, -7739.537386839079, 14932.887546168275, -2994.0385215328365, 46198.50769025179, 16821.56524915281, 33562.75362524434, 8362.279339108389, 28727.62426467231, 5641.692059241779, 38891.29774466727, 27886.37165860792, 39355.83404968191, 33596.81768379422, 27777.250442177112, 24435.03879726396, 0.07400000000000001, 1.01, 0.227, 192.0, 0.0, 0.0, 0.0, 0.0, 0.0, 0.0, 0.0, 0.0, 0.0, 1.7074742341715877E9, 0.0, 2024-02-09 11:23:54.171
230.0, -17746.525138202327, -7783.9950065606845, 14849.515539349979, -2982.3485591827107, 45921.837797384, 16736.427454522545, 33393.57327146212, 8228.213575865457, 28784.97884094463, 5663.708527530257, 39074.78321490088, 27884.292946373578, 39692.69719036784, 33673.75238820939, 27861.628277495896, 24576.72650536615, 0.07400000000000001, 1.01, 0.227, 192.0, 0.0, 0.0, 0.0, 0.0, 0.0, 0.0, 0.0, 0.0, 0.0, 1.7074742341796174E9, 0.0, 2024-02-09 11:23:54.179
232.0, -17729.873088583125, -7758.961052770741, 14901.259827764015, -2992.608009887697, 45977.784213755636, 16775.431248597055, 33460.42733912794, 8258.455486113487, 28549.011474729956, 5657.204169893762, 38666.863878591525, 27821.953931087726, 39112.35649733025, 33465.03179848573, 27664.75411233355, 24336.847583871793, 0.07400000000000001, 1.01, 0.227, 192.0, 0.0, 0.0, 0.0, 0.0, 0.0, 0.0, 0.0, 0.0, 0.0, 1.707474234187589E9, 0.0, 2024-02-09 11:23:54.187
234.0, -17698.89357076807, -7724.405255842836, 14883.870170577786, -2985.723672595462, 46158.22984674333, 16786.584769080255, 33536.73619469836, 8321.532108966365, 28866.518004717593, 5724.885252104432, 39136.943416231086, 27922.425022414332, 39707.69521089736, 33721.45101087702, 27898.53100759161, 24582.80617985799, 0.07400000000000001, 1.01, 0.227, 192.0, 0.0, 0.0, 0.0, 0.0, 0.0, 0.0, 0.0, 0.0, 0.0, 1.7074742341956325E9, 0.0, 2024-02-09 11:23:54.195
236.0, -17717.22200122142, -7728.6744390338, 14851.907176006696, -2966.188247941524, 45806.078112849966, 16727.55381197379, 33360.49268966827, 8194.127165571113, 28587.925861826643, 5704.03107452763, 38793.3076969752, 27842.383425519878, 39327.96142434614, 33515.92672061047, 27717.3924705258, 24423.50529712502, 0.07600000000000001, 1.0110000000000001, 0.2245, 192.0, 1.0, 56.0, 15.5, 80.0, 3.0, 120.0, 0.0, 0.0, 0.0, 1.707474234203689E9, 0.0, 2024-02-09 11:23:54.203
238.0, -17717.80314657726, -7688.240133314149, 14923.14218558576, -2989.5905243862303, 46183.66613193347, 16826.99672305545, 33564.36295084512, 8357.227844861489, 28712.894465076264, 5752.333194295549, 38897.24330869238, 27899.402725625365, 39350.11200310135, 33598.91874777302, 27779.64207883383, 24440.425567677685, 0.07600000000000001, 1.0110000000000001, 0.2245, 192.0, 0.0, 0.0, 0.0, 0.0, 0.0, 0.0, 0.0, 0.0, 0.0, 1.7074742342106454E9, 0.0, 2024-02-09 11:23:54.210
240.0, -17825.873831018667, -7770.874532565419, 14838.02674269995, -2988.3164749522775, 45920.96607935025, 16750.062018640285, 33415.366222306046, 8250.520616831853, 28739.493040978083, 5709.484900174725, 39056.87946759218, 27866.120978131414, 39687.91391705441, 33678.02157140036, 27853.17931809179, 24564.544804638008, 0.07600000000000001, 1.0110000000000001, 0.2245, 192.0, 0.0, 0.0, 0.0, 0.0, 0.0, 0.0, 0.0, 0.0, 0.0, 1.7074742342197022E9, 0.0, 2024-02-09 11:23:54.219
242.0, -17824.957409496, -7698.745453208144, 14892.587350915355, -3000.855803591705, 45974.31969336506, 16795.07843197327, 33464.40594964098, 8288.2056579835, 28461.035008553867, 5650.811570979545, 38623.233273414764, 27784.850035291915, 39103.46050303704, 33468.51867062076, 27665.536423389487, 24331.05848205787, 0.07600000000000001, 1.0110000000000001, 0.2245, 192.0, 0.0, 0.0, 0.0, 0.0, 0.0, 0.0, 0.0, 0.0, 0.0, 1.7074742342276645E9, 0.0, 2024-02-09 11:23:54.227
244.0, -17868.49860769494, -7690.788232182054, 14872.157856483205, -3013.8645188646938, 46160.06268978867, 16807.885981546162, 33550.482517538374, 8357.339603583767, 28772.12658788283, 5667.418917109838, 39083.79096791637, 27873.497053801664, 39682.52714664068, 33724.89317952313, 27890.976117965714, 24567.539938395017, 0.07600000000000001, 1.0110000000000001, 0.2245, 192.0, 0.0, 0.0, 0.0, 0.0, 0.0, 0.0, 0.0, 0.0, 0.0, 1.707474234235763E9, 0.0, 2024-02-09 11:23:54.235
246.0, -17884.658918936126, -7669.688185416244, 14830.762425751976, -3015.5856031877524, 45799.73021742466, 16736.583916733733, 33357.85518382254, 8206.979418632915, 28450.10500551522, 5432.524434629016, 38706.87350116653, 27742.69464524921, 39305.45321767965, 33517.73721191135, 27703.82496164143, 24406.093288194334, 0.08000000000000002, 1.0085000000000002, 0.22525, 192.0, 1.0, 80.0, 15.5, 56.0, 3.5, 8.0, 0.0, 0.0, 0.0, 1.707474234242674E9, 0.0, 2024-02-09 11:23:54.242
248.0, -17881.64143343466, -7610.880745754332, 14909.798194145942, -3038.943176143548, 46179.57576269815, 16826.683798633076, 33566.776939246294, 8372.158810157634, 28566.289373193908, 5287.685130558626, 38788.34560970612, 27785.677049836762, 39332.74469765958, 33587.49700635636, 27752.216488387166, 24404.34985212682, 0.08000000000000002, 1.0085000000000002, 0.22525, 192.0, 0.0, 0.0, 0.0, 0.0, 0.0, 0.0, 0.0, 0.0, 0.0, 1.7074742342516775E9, 0.0, 2024-02-09 11:23:54.251
250.0, -17934.70447477156, -7601.403606105281, 14834.070483931362, -3031.5894522177523, 45916.36161999245, 16737.5003382564, 33416.08147812861, 8251.235872654423, 28606.880141124744, 5106.524241748362, 38960.11876584515, 27774.903509009306, 39680.53784138415, 33664.856393916176, 27836.013178350113, 24534.77228102354, 0.08000000000000002, 1.0085000000000002, 0.22525, 192.0, 0.0, 0.0, 0.0, 0.0, 0.0, 0.0, 0.0, 0.0, 0.0, 1.707474234259704E9, 0.0, 2024-02-09 11:23:54.259
252.0, -17931.664637525635, -7582.248161107083, 14890.106307280817, -3039.0102313769144, 45967.837687473024, 16777.778181764865, 33464.0483217297, 8300.297951733823, 28356.339437525206, 4834.302346027177, 38542.72228988675, 27712.05040360098, 39102.00763964745, 33445.988112209816, 27644.592838834866, 24280.09650469977, 0.08000000000000002, 1.0085000000000002, 0.22525, 192.0, 0.0, 0.0, 0.0, 0.0, 0.0, 0.0, 0.0, 0.0, 0.0, 1.7074742342667253E9, 0.0, 2024-02-09 11:23:54.266
254.0, -17994.540094678414, -7647.738772361133, 14860.602004599812, -3055.4834670404753, 46146.9422157934, 16785.623644068677, 33522.90046488053, 8381.904170740148, 28665.732284275568, 4568.7189184092185, 38992.70760926099, 27802.820837833984, 39681.58837337355, 33696.64057453162, 27869.65255375535, 24514.342786591387, 0.08000000000000002, 1.0085000000000002, 0.22525, 192.0, 0.0, 0.0, 0.0, 0.0, 0.0, 0.0, 0.0, 0.0, 0.0, 1.7074742342757602E9, 0.0, 2024-02-09 11:23:54.275
0.0, -18050.017124416485, -7696.554982251523, 14824.88391696023, -3033.2211295629895, 45808.20152857322, 16726.16800381756, 33384.2302422798, 8275.040480499325, 28352.18201305652, 4160.687823377589, 38616.2148256558, 27694.928967348216, 39307.9789648031, 33483.159063238985, 27682.344935219877, 24355.220717814056, 0.084, 1.00825, 0.22662500000000002, 192.0, 1.0, 96.0, 15.5, 64.0, 3.5, 16.0, 0.0, 0.0, 0.0, 1.7074742342839103E9, 0.0, 2024-02-09 11:23:54.283
2.0, -18015.103699577296, -7698.052549130029, 14910.602856946332, -3047.2133215920117, 46192.09273959312, 16810.679949603076, 33584.14424468807, 8428.596964907285, 28497.557758993837, 3946.111076606641, 38725.023117664234, 27788.94040452724, 39323.379316732804, 33575.11413992812, 27754.54106981052, 24373.258575589487, 0.084, 1.00825, 0.22662500000000002, 192.0, 0.0, 0.0, 0.0, 0.0, 0.0, 0.0, 0.0, 0.0, 0.0, 1.707474234290835E9, 0.0, 2024-02-09 11:23:54.290
4.0, -18117.139413015775, -7866.897626745418, 14818.200745368094, -3050.051993137836, 45929.57150096554, 16731.82299516475, 33424.91041718846, 8358.233673361978, 28553.146547454187, 3615.1040929679984, 38909.670878609526, 27779.68678232274, 39682.08011175157, 33644.67276867304, 27840.93056213028, 24498.249530583566, 0.084, 1.00825, 0.22662500000000002, 192.0, 0.0, 0.0, 0.0, 0.0, 0.0, 0.0, 0.0, 0.0, 0.0, 1.7074742342988012E9, 0.0, 2024-02-09 11:23:54.298
6.0, -18152.701038444167, -7868.395193623924, 14863.641841845732, -3070.660301525629, 45975.01259744318, 16762.82486472426, 33453.05126345769, 8382.530019584898, 28274.800273752247, 3356.516761364551, 38482.12671066841, 27709.77052566654, 39100.64418323567, 33430.945388191394, 27642.38001613379, 24259.108216656237, 0.084, 1.00825, 0.22662500000000002, 192.0, 0.0, 0.0, 0.0, 0.0, 0.0, 0.0, 0.0, 0.0, 0.0, 1.707474234308143E9, 0.0, 2024-02-09 11:23:54.308
8.0, -18160.188872836694, -7782.475087937723, 14852.153045195706, -3074.4824498274866, 46170.098623049096, 16780.683908544055, 33541.85474417862, 8470.662947972172, 28595.816027619367, 3370.2183807156543, 38936.13534404461, 27803.06670702299, 39679.911992539404, 33679.34032432322, 27863.662286241328, 24494.807361937448, 0.084, 1.00825, 0.22662500000000002, 192.0, 0.0, 0.0, 0.0, 0.0, 0.0, 0.0, 0.0, 0.0, 0.0, 1.707474234315826E9, 0.0, 2024-02-09 11:23:54.315
