%OpenBCI Raw EXG Data
%Number of channels = 16
%Sample Rate = 125 Hz
%Board = OpenBCI_GUI$BoardCytonSerialDaisy
Sample Index, EXG Channel 0, EXG Channel 1, EXG Channel 2, EXG Channel 3, EXG Channel 4, EXG Channel 5, EXG Channel 6, EXG Channel 7, EXG Channel 8, EXG Channel 9, EXG Channel 10, EXG Channel 11, EXG Channel 12, EXG Channel 13, EXG Channel 14, EXG Channel 15, Accel Channel 0, Accel Channel 1, Accel Channel 2, Other, Other, Other, Other, Other, Other, Other, Analog Channel 0, Analog Channel 1, Analog Channel 2, Timestamp, Other, Timestamp (Formatted)
84.0, -27969.296630537112, -31750.340074341308, 1082.0479490814148, -11224.733141032833, 36470.961448068796, 5160.481352863473, 17953.34582964728, -8055.501646459299, 6798.752462715204, -6154.821056702263, 35410.95231902031, 21274.032744649976, 31888.764427753023, 21675.76064774521, 22099.79559180684, 23452.679628453214, 0.0, 0.0, 0.0, 192.0, 0.0, 0.0, 0.0, 0.0, 0.0, 0.0, 0.0, 0.0, 0.0, 1.7074737456984744E9, 0.0, 2024-02-09 11:15:45.698
86.0, -27941.28989473461, -31751.770585986447, 1081.0421205809262, -11254.170388480472, 36826.84592328619, 5181.871972307203, 18108.48928791157, -7997.320055642135, 7064.671166499993, -6114.364399238158, 35866.32440880828, 21381.47758024664, 32306.80910430063, 21873.774751874775, 22328.744510262553, 23612.42754607529, 0.066, 1.01, 0.176, 192.0, 1.0, 8.0, 15.5, 72.0, 2.5, 64.0, 0.0, 0.0, 0.0, 1.7074737456985786E9, 0.0, 2024-02-09 11:15:45.698
0.0, -13293.789421771697, -14806.577838251334, 1488.5591254900844, -4986.718891467916, 19026.72130188004, 3715.016390683221, 10601.477098641051, -2899.2671250423346, 3497.9362485332786, -3078.282246384889, 17949.25546041196, 10662.9667476376, 16245.381980583905, 10922.246983319163, 11173.614701463546, 11850.336116592422, 0.062, 1.012, 0.158, 192.0, 0.5, 120.0, 15.5, 80.0, 2.0, 120.0, 0.0, 0.0, 0.0, 1.7074737458012035E9, 0.0, 2024-02-09 11:15:45.801
2.0, -26661.56311769046, -29653.88055490024, 2931.6771545025294, -9941.96652674276, 37693.93714594092, 7366.509123624459, 21004.20248558551, -5905.174422880938, 10177.531561557242, -4722.521272006187, 36857.11018527868, 21999.34685222469, 34015.84583709787, 23246.261268408452, 23725.415614296868, 24263.42210333611, 0.062, 1.012, 0.158, 192.0, 0.0, 0.0, 0.0, 0.0, 0.0, 0.0, 0.0, 0.0, 0.0, 1.7074737458082392E9, 0.0, 2024-02-09 11:15:45.808
4.0, -26606.46606760813, -29617.24604573799, 2977.8782102916493, -9956.964547272271, 37725.810733534185, 7396.214592005563, 21034.600858044727, -5874.865457399543, 9988.346396487523, -4746.057658917625, 36401.44752281279, 21947.73667427739, 33378.68700965488, 23044.89440261059, 23476.685401998213, 24000.051498419227, 0.062, 1.012, 0.158, 192.0, 0.0, 0.0, 0.0, 0.0, 0.0, 0.0, 0.0, 0.0, 0.0, 1.7074737458152428E9, 0.0, 2024-02-09 11:15:45.815
6.0, -26620.21239044814, -29623.593941163297, 2952.6877942905185, -9965.391154931922, 37930.865637167175, 7393.197106504096, 21110.037995581388, -5850.993794321274, 10268.592568468162, -4698.224925783268, 36938.157610673625, 22043.670361479566, 34014.25886324154, 23289.690707885115, 23756.529242578657, 24258.41531257812, 0.062, 1.012, 0.158, 192.0, 0.0, 0.0, 0.0, 0.0, 0.0, 0.0, 0.0, 0.0, 0.0, 1.7074737458232532E9, 0.0, 2024-02-09 11:15:45.823
8.0, -26657.36098973286, -29639.083700070823, 2936.4604278159654, -9944.089942466015, 37547.48851626975, 7342.995088457476, 20909.453440839465, -5965.546484654723, 9998.3599780035, -4760.318071880111, 36528.87481795249, 21934.124461904106, 33617.85067532667, 23083.071182140255, 23545.685237131744, 24109.418584039046, 0.048, 1.068, 0.152, 192.0, 0.5, 64.0, 16.5, 48.0, 2.0, 96.0, 0.0, 0.0, 0.0, 1.7074737458312395E9, 0.0, 2024-02-09 11:15:45.831
10.0, -26581.052134162444, -29596.32481292782, 2977.1406027246244, -9968.319233455568, 37950.19989612101, 7417.761673660479, 21093.296538984363, -5855.285329256693, 10151.000040888792, -4718.900289404427, 36643.20399084139, 22008.935750596018, 33600.952756518454, 23157.43543594306, 23598.703574979732, 24067.866691096628, 0.048, 1.068, 0.152, 192.0, 0.0, 0.0, 0.0, 0.0, 0.0, 0.0, 0.0, 0.0, 0.0, 1.707473745839342E9, 0.0, 2024-02-09 11:15:45.839
12.0, -26656.735140888115, -29637.18380179212, 2933.8452737146945, -9935.037485961615, 37686.65047724849, 7359.758896798957, 20965.712781633472, -5944.781714055743, 10176.749250501305, -4725.874033674483, 36864.44155746002, 21996.619939401146, 34001.741886346565, 23238.460509593548, 23722.3981287954, 24246.74770197245, 0.048, 1.068, 0.152, 192.0, 0.0, 0.0, 0.0, 0.0, 0.0, 0.0, 0.0, 0.0, 0.0, 1.7074737458472412E9, 0.0, 2024-02-09 11:15:45.847
14.0, -26593.83733199088, -29596.28010943891, 2986.6400941181296, -9936.557404584575, 37731.80100104821, 7417.8287288938445, 21010.528029266363, -5890.019940140241, 9997.845887881027, -4738.972155925293, 36413.204540396284, 21949.949496978465, 33384.27494576871, 23054.863280637655, 23486.31900385845, 23980.22550108737, 0.048, 1.068, 0.152, 192.0, 0.0, 0.0, 0.0, 0.0, 0.0, 0.0, 0.0, 0.0, 0.0, 1.7074737458553035E9, 0.0, 2024-02-09 11:15:45.855
16.0, -26600.296986138463, -29598.649394351174, 2972.5808468557416, -9937.406770873878, 37954.357320589705, 7439.465217526582, 21109.14392580318, -5842.321317472615, 10288.88795243358, -4680.142364518924, 36952.70859631403, 22058.243698864426, 34026.19469478067, 23309.069670327863, 23777.47282713328, 24241.517393769907, 0.048, 1.068, 0.152, 192.0, 0.0, 0.0, 0.0, 0.0, 0.0, 0.0, 0.0, 0.0, 0.0, 1.7074737458623085E9, 0.0, 2024-02-09 11:15:45.862
18.0, -26640.910105813757, -29617.558970160364, 2942.0707156742474, -9925.023904445638, 37569.03559792467, 7381.9094755541655, 20925.054958469267, -5986.2889035092485, 10024.533870760664, -4739.46389430331, 36551.47243159681, 21953.30225864676, 33649.88072513112, 23114.944769733524, 23570.7638944106, 24089.324365773722, 0.044, 1.068, 0.156, 192.0, 0.5, 48.0, 16.5, 48.0, 2.0, 112.0, 0.0, 0.0, 0.0, 1.7074737458712983E9, 0.0, 2024-02-09 11:15:45.871
20.0, -26565.987058399565, -29573.95071672806, 2976.8276783022498, -9954.125875726448, 37972.77515802088, 7451.848083954822, 21117.70464392956, -5887.650655227978, 10167.674442252452, -4694.648646670419, 36656.23505785884, 22021.475079235446, 33632.40166096707, 23195.03107011689, 23619.44599383426, 24035.009626747327, 0.044, 1.068, 0.156, 192.0, 0.0, 0.0, 0.0, 0.0, 0.0, 0.0, 0.0, 0.0, 0.0, 1.7074737458792937E9, 0.0, 2024-02-09 11:15:45.879
22.0, -26640.32896045792, -29617.938949816104, 2926.0668666442475, -9930.544785326098, 37715.685393295935, 7393.8229553488445, 20976.463970716475, -5976.99057781584, 10203.548992103219, -4698.001408338715, 36884.02168560287, 22011.97558784194, 34042.06443334394, 23279.721829858045, 23754.22701289976, 24221.69139643805, 0.044, 1.068, 0.156, 192.0, 0.0, 0.0, 0.0, 0.0, 0.0, 0.0, 0.0, 0.0, 0.0, 1.707473745886364E9, 0.0, 2024-02-09 11:15:45.886
24.0, -26586.26009062053, -29587.920557012625, 2967.1046694641914, -9946.369820400456, 37752.029329780264, 7417.024066093453, 21024.475517806473, -5956.069345005673, 10014.877917155973, -4721.247222572234, 36420.37945036643, 21961.72886630641, 33398.96004187585, 23075.739809958915, 23511.867047770866, 23949.73772165033, 0.044, 1.068, 0.156, 192.0, 0.0, 0.0, 0.0, 0.0, 0.0, 0.0, 0.0, 0.0, 0.0, 1.7074737458943992E9, 0.0, 2024-02-09 11:15:45.894
26.0, -26590.238701133574, -29596.86125479475, 2955.817038514261, -9952.91888152586, 37987.95199250603, 7426.188281320129, 21131.965056892044, -5912.952829951386, 10303.505993307352, -4674.8450010830165, 36960.95639001804, 22060.925908199064, 34030.3297675049, 23326.57108623637, 23793.431972674367, 24204.860532863204, 0.044, 1.068, 0.156, 192.0, 0.0, 0.0, 0.0, 0.0, 0.0, 0.0, 0.0, 0.0, 0.0, 1.7074737459035053E9, 0.0, 2024-02-09 11:15:45.903
28.0, -26635.500983655573, -29619.034185294415, 2942.6742127745406, -9935.596279572997, 37613.8284938131, 7369.325443425828, 20950.491243659406, -6022.543433015756, 10043.197577380846, -4733.495978533742, 36576.61814410903, 21961.39359013958, 33670.15375735208, 23147.28774396035, 23602.302205837037, 24068.358429474643, 0.046, 1.014, 0.156, 192.0, 0.5, 56.0, 15.5, 88.0, 2.0, 112.0, 0.0, 0.0, 0.0, 1.7074737459104352E9, 0.0, 2024-02-09 11:15:45.910
30.0, -26559.77327344099, -29576.699981296064, 2991.8033470873056, -9958.529169384143, 38036.09765006276, 7432.312659300883, 21167.817254998357, -5900.838184456609, 10184.460602338386, -4697.241449027235, 36672.88710747804, 22034.796718930807, 33643.0410913278, 23206.78808770038, 23655.700523340765, 24032.19330694596, 0.046, 1.014, 0.156, 192.0, 0.0, 0.0, 0.0, 0.0, 0.0, 0.0, 0.0, 0.0, 0.0, 1.707473745918399E9, 0.0, 2024-02-09 11:15:45.918
32.0, -26644.933419815712, -29633.227543023535, 2939.0085266838705, -9935.328058639534, 37795.302307045735, 7382.93765579911, 21060.03714323487, -5970.709737623899, 10226.325419703177, -4703.812861897095, 36909.86030219321, 22027.97943687194, 34073.80391047048, 23288.88604508472, 23793.18610348536, 24232.688454710064, 0.046, 1.014, 0.156, 192.0, 0.0, 0.0, 0.0, 0.0, 0.0, 0.0, 0.0, 0.0, 0.0, 1.707473745927416E9, 0.0, 2024-02-09 11:15:45.927
34.0, -26592.607986045838, -29609.42293517863, 2971.083279977236, -9955.466980393765, 37807.32754556269, 7397.488641439515, 21081.338355700776, -5982.578513929667, 10023.818614938094, -4739.150969880935, 36424.20159866829, 21964.098151218674, 33428.33023409012, 23077.974984404445, 23543.85239408641, 23961.673553189463, 0.046, 1.014, 0.156, 192.0, 0.0, 0.0, 0.0, 0.0, 0.0, 0.0, 0.0, 0.0, 0.0, 1.7074737459354231E9, 0.0, 2024-02-09 11:15:45.935
36.0, -26599.000584960057, -29622.096374284793, 2953.2912913908117, -9965.122933998458, 38043.87605713321, 7420.399179506205, 21189.09611571981, -5904.012132169263, 10306.2329061309, -4687.965475078282, 36954.295570170354, 22057.371980830667, 34064.90791617727, 23318.77032742147, 23809.212304259814, 24204.726422396474, 0.046, 1.014, 0.156, 192.0, 0.0, 0.0, 0.0, 0.0, 0.0, 0.0, 0.0, 0.0, 0.0, 1.7074737459424183E9, 0.0, 2024-02-09 11:15:45.942
38.0, -26650.476652440626, -29650.72895893204, 2928.525558534331, -9948.023849490148, 37638.25895050275, 7366.978510258021, 20996.379375026154, -5997.576534459178, 10036.760274977718, -4750.349193853044, 36567.72214981582, 21947.71432253293, 33708.978737470956, 23115.347101133717, 23604.58208377148, 24076.896795856574, 0.056, 0.996, 0.154, 192.0, 0.5, 96.0, 15.5, 16.0, 2.0, 104.0, 0.0, 0.0, 0.0, 1.707473745951414E9, 0.0, 2024-02-09 11:15:45.951
40.0, -26577.16293062722, -29613.178028247123, 2969.4292508875433, -9980.411527205888, 38021.85958884473, 7426.210633064585, 21188.783191297436, -5901.195812367894, 10167.853256208093, -4717.26861205919, 36646.132069365034, 22011.327387252735, 33651.020664098345, 23184.436343245074, 23637.7297207987, 24029.868725522607, 0.056, 0.996, 0.154, 192.0, 0.0, 0.0, 0.0, 0.0, 0.0, 0.0, 0.0, 0.0, 0.0, 1.707473745959447E9, 0.0, 2024-02-09 11:15:45.959
42.0, -26655.148167031788, -29658.10503460229, 2918.6237357406303, -9953.835303048529, 37764.054568297215, 7361.41292588865, 21038.244192390943, -6004.773796173787, 10209.248686939321, -4719.347324293533, 36894.795226430324, 22006.186486028015, 34074.47446280414, 23269.261213452963, 23765.98403048325, 24217.80219290283, 0.056, 0.996, 0.154, 192.0, 0.0, 0.0, 0.0, 0.0, 0.0, 0.0, 0.0, 0.0, 0.0, 1.7074737459668655E9, 0.0, 2024-02-09 11:15:45.966
44.0, -26595.223140147107, -29617.357804460265, 2966.1435444526132, -9951.68953558082, 37770.02248406679, 7409.491528212015, 21089.809666849338, -5937.763266296776, 10010.318161287089, -4738.882748947472, 36408.98006069423, 21956.96794473743, 33411.67818447092, 23066.88851915461, 23517.27616992905, 23952.01759958477, 0.056, 0.996, 0.154, 192.0, 0.0, 0.0, 0.0, 0.0, 0.0, 0.0, 0.0, 0.0, 0.0, 1.7074737459744632E9, 0.0, 2024-02-09 11:15:45.974
46.0, -26602.88978849528, -29623.23631325201, 2947.7704105103508, -9966.754611343697, 38001.29598394585, 7411.7267026575455, 21195.823990800858, -5887.136565105506, 10290.005539656346, -4688.904248345405, 36939.81163976331, 22052.834576706242, 34019.82444761091, 23306.096888315307, 23801.32213846709, 24210.627282932674, 0.056, 0.996, 0.154, 192.0, 0.0, 0.0, 0.0, 0.0, 0.0, 0.0, 0.0, 0.0, 0.0, 1.707473745983622E9, 0.0, 2024-02-09 11:15:45.983
48.0, -26647.436815194706, -29641.11770881626, 2929.732552734918, -9946.906262267383, 37588.70513304533, 7356.182617686108, 20990.210293556487, -5988.233505276859, 10033.407513309421, -4743.666022260907, 36557.3285886441, 21948.76485452233, 33658.32968453523, 23113.00016796591, 23597.183656356774, 24085.591624449688, 0.06, 0.978, 0.148, 192.0, 0.5, 112.0, 15.0, 72.0, 2.0, 80.0, 0.0, 0.0, 0.0, 1.707473745991485E9, 0.0, 2024-02-09 11:15:45.991
50.0, -26576.15710212673, -29600.884568796704, 2971.5750183552527, -9978.22105624927, 37971.94814347603, 7418.834557394333, 21191.375993654252, -5864.069564827629, 10157.079715380636, -4714.429940513366, 36613.29735676019, 22003.794849371297, 33579.51743358582, 23161.05641854482, 23615.825011232497, 24033.422652891, 0.06, 0.978, 0.148, 192.0, 0.0, 0.0, 0.0, 0.0, 0.0, 0.0, 0.0, 0.0, 0.0, 1.7074737459984772E9, 0.0, 2024-02-09 11:15:45.998
52.0, -26657.092768799397, -29646.079796085334, 2913.281668815812, -9955.01994550466, 37707.83993099212, 7360.116524710242, 21023.737910239448, -5939.394943642014, 10210.209811950901, -4722.588327239553, 36869.984790084935, 22001.380860970123, 34020.09266854438, 23264.88027153972, 23760.194928669327, 24250.055760151838, 0.06, 0.978, 0.148, 192.0, 0.0, 0.0, 0.0, 0.0, 0.0, 0.0, 0.0, 0.0, 0.0, 1.7074737460065196E9, 0.0, 2024-02-09 11:15:46.006
54.0, -26615.585579345894, -29614.899112570183, 2948.1280384216357, -9968.095716011014, 37699.30156461019, 7383.407042432671, 21055.522090854894, -5930.633059815534, 9995.655416924408, -4756.3171096226115, 36370.46800499773, 21934.34797934866, 33346.38873891696, 23054.505652726373, 23491.437553338714, 23964.579279968653, 0.06, 0.978, 0.148, 192.0, 0.0, 0.0, 0.0, 0.0, 0.0, 0.0, 0.0, 0.0, 0.0, 1.707473746015778E9, 0.0, 2024-02-09 11:15:46.015
56.0, -26620.055928236954, -29617.71543237155, 2936.1922068825015, -9971.470829423766, 37953.731471744955, 7418.096949827308, 21181.407115627186, -5837.873320326009, 10283.36707155312, -4709.64666719993, 36901.72426721147, 22035.243753819916, 33951.42810957767, 23300.866580112768, 23779.50683587871, 24217.869248136194, 0.06, 0.978, 0.148, 192.0, 0.0, 0.0, 0.0, 0.0, 0.0, 0.0, 0.0, 0.0, 0.0, 1.7074737460225456E9, 0.0, 2024-02-09 11:15:46.022
58.0, -26676.6952486867, -29647.73382517503, 2915.4274362835213, -9953.142398970414, 37546.795612191636, 7355.400306630172, 20984.3541365092, -5952.135437981539, 10020.17528059188, -4774.623188331508, 36533.70279475484, 21924.826136210697, 33622.54454166228, 23118.744566290923, 23591.774534198586, 24108.278645071823, 0.068, 0.99, 0.134, 192.0, 1.0, 16.0, 15.0, 120.0, 2.0, 24.0, 0.0, 0.0, 0.0, 1.707473746030511E9, 0.0, 2024-02-09 11:15:46.030
60.0, -26596.676003536704, -29600.258719951955, 2958.9462827380044, -9980.836210350539, 37938.24171283743, 7417.0687695823635, 21168.778380009935, -5843.863587840032, 10139.287726794211, -4746.549397295642, 36585.044751768684, 21982.29247120529, 33532.9140463965, 23160.162348766607, 23613.634540275878, 24047.86187980913, 0.068, 0.99, 0.134, 192.0, 0.0, 0.0, 0.0, 0.0, 0.0, 0.0, 0.0, 0.0, 0.0, 1.7074737460398028E9, 0.0, 2024-02-09 11:15:46.039
62.0, -26663.99945783609, -29628.667787154653, 2919.2048810964684, -9943.821721532551, 37717.361774130084, 7368.006690502965, 21052.191680931053, -5913.042236929207, 10202.185535691446, -4746.772914740195, 36862.87693534815, 21984.795866584285, 34010.704935873146, 23275.676164111635, 23762.184233925847, 24262.438626580075, 0.068, 0.99, 0.134, 192.0, 0.0, 0.0, 0.0, 0.0, 0.0, 0.0, 0.0, 0.0, 0.0, 1.7074737460475385E9, 0.0, 2024-02-09 11:15:46.047
64.0, -26618.51365786954, -29598.3364699288, 2959.5274280938424, -9954.863483293473, 37713.584329317135, 7394.493507682504, 21067.748495071948, -5895.809041954165, 9992.906152356405, -4772.119792952513, 36379.654571968866, 21931.688121758478, 33361.587925146574, 23063.356943530674, 23503.84277151141, 23982.84065518864, 0.068, 0.99, 0.134, 192.0, 0.0, 0.0, 0.0, 0.0, 0.0, 0.0, 0.0, 0.0, 0.0, 1.7074737460546024E9, 0.0, 2024-02-09 11:15:46.054
66.0, -26612.724556055615, -29587.67468782362, 2961.963768239471, -9950.795465802606, 37988.15315820613, 7415.593554448314, 21181.071839460354, -5841.829579094599, 10282.249484330356, -4717.358019037011, 36904.71940096848, 22036.853079420696, 33964.45917659511, 23306.65568192669, 23783.060763247107, 24224.217143561502, 0.068, 0.99, 0.134, 192.0, 0.0, 0.0, 0.0, 0.0, 0.0, 0.0, 0.0, 0.0, 0.0, 1.7074737460626056E9, 0.0, 2024-02-09 11:15:46.062
68.0, -26653.31532398645, -29602.829170564317, 2950.2961576338002, -9918.720712509241, 37601.4232756404, 7366.062088735353, 20982.789514397326, -5954.996461271819, 10040.381257579476, -4766.554208583142, 36551.628893807996, 21940.807633496242, 33663.604696226685, 23121.516182603384, 23603.82212446, 24108.72567996093, 0.088, 1.022, 0.124, 192.0, 1.0, 96.0, 15.5, 120.0, 1.5, 112.0, 0.0, 0.0, 0.0, 1.7074737460716271E9, 0.0, 2024-02-09 11:15:46.071
70.0, -26574.391314314762, -29557.298667108855, 2996.541916911831, -9944.782846544129, 37993.5175768754, 7438.146464603718, 21164.710362519072, -5829.714933599822, 10162.108857883079, -4727.3268970640775, 36603.68610664441, 22007.10290755068, 33590.045105224264, 23166.8678721032, 23635.516898097623, 24055.640286879574, 0.088, 1.022, 0.124, 192.0, 0.0, 0.0, 0.0, 0.0, 0.0, 0.0, 0.0, 0.0, 0.0, 1.7074737460786204E9, 0.0, 2024-02-09 11:15:46.078
72.0, -26639.591352890893, -29595.67661233862, 2953.0007187128926, -9917.424311330833, 37763.38401596356, 7383.563504643858, 21028.96821844199, -5910.31532410566, 10225.006666780313, -4729.427961042877, 36892.60475547371, 22013.584913442723, 34066.67370398923, 23282.98518454852, 23782.300803935625, 24262.952716702548, 0.088, 1.022, 0.124, 192.0, 0.0, 0.0, 0.0, 0.0, 0.0, 0.0, 0.0, 0.0, 0.0, 1.7074737460866442E9, 0.0, 2024-02-09 11:15:46.086
74.0, -26593.166779657222, -29566.172309657613, 2987.3553499406994, -9930.231860903725, 37737.54539937322, 7405.468214210059, 21030.286971364854, -5903.5203937912465, 10005.244315295735, -4761.346252125055, 36403.45917981377, 21950.128310934106, 33411.11939085953, 23060.719437684947, 23515.443326883713, 23981.074867376672, 0.088, 1.022, 0.124, 192.0, 0.0, 0.0, 0.0, 0.0, 0.0, 0.0, 0.0, 0.0, 0.0, 1.7074737460949373E9, 0.0, 2024-02-09 11:15:46.094
76.0, -26589.009355188533, -29569.74858877046, 2980.1580882260905, -9936.266831906656, 38002.3688676797, 7432.46912151207, 21144.437330298108, -5846.858721597043, 10292.397176313065, -4705.3104287756005, 36932.3685088597, 22050.062960393785, 34006.793380593466, 23304.621673181256, 23786.6146906155, 24212.974216100483, 0.088, 1.022, 0.124, 192.0, 0.0, 0.0, 0.0, 0.0, 0.0, 0.0, 0.0, 0.0, 0.0, 1.7074737461036856E9, 0.0, 2024-02-09 11:15:46.103
78.0, -26636.350349944874, -29595.05076349387, 2954.408878613577, -9910.562325783054, 37590.49327260176, 7382.825897076834, 20938.0413219978, -5951.531940881246, 10051.668888529408, -4762.575598070097, 36593.3372489616, 21949.703627789455, 33717.070068963774, 23131.641522841637, 23610.95233094124, 24107.921017160537, 0.094, 1.056, 0.124, 192.0, 1.0, 120.0, 16.5, 0.0, 1.5, 112.0, 0.0, 0.0, 0.0, 1.7074737461106665E9, 0.0, 2024-02-09 11:15:46.110
80.0, -26556.06288386141, -29549.22968736049, 3002.532184425853, -9930.276564392634, 37971.03172195336, 7461.079354414864, 21139.117615117742, -5835.749904602755, 10166.735668985328, -4723.6835627178625, 36633.05629885868, 22012.467326219958, 33608.75351533336, 23184.88337813418, 23633.81816551902, 24045.47024315241, 0.094, 1.056, 0.124, 192.0, 0.0, 0.0, 0.0, 0.0, 0.0, 0.0, 0.0, 0.0, 0.0, 1.7074737461187E9, 0.0, 2024-02-09 11:15:46.118
82.0, -26631.187096975696, -29595.184873960603, 2957.851047259694, -9906.695473992286, 37745.547323888226, 7399.187374018118, 21001.58733148424, -5931.705943549388, 10237.680105886473, -4727.192786597346, 36921.438505821054, 22013.584913442723, 34088.17608215524, 23293.401097464695, 23795.689498864354, 24256.336600343777, 0.094, 1.056, 0.124, 192.0, 0.0, 0.0, 0.0, 0.0, 0.0, 0.0, 0.0, 0.0, 0.0, 1.7074737461277156E9, 0.0, 2024-02-09 11:15:46.127
84.0, -26587.78000924349, -29568.13926316968, 2988.11530925218, -9916.306724108068, 37697.69223900941, 7419.616868450269, 20972.463008458973, -5937.092713963118, 10019.437673024855, -4751.712650264818, 36417.54077882061, 21949.614220811633, 33424.12810613252, 23082.71355422897, 23523.825231054456, 23968.736704437342, 0.094, 1.056, 0.124, 192.0, 0.0, 0.0, 0.0, 0.0, 0.0, 0.0, 0.0, 0.0, 0.0, 1.7074737461337368E9, 0.0, 2024-02-09 11:15:46.133
86.0, -26588.53996855497, -29580.410370875645, 2978.3028934363, -9935.35041038399, 37961.04049218184, 7441.90155767221, 21103.488934455985, -5858.056945569151, 10299.147403138568, -4705.26572528669, 36927.249959379435, 22046.754902214398, 34016.31522373143, 23320.98315012254, 23788.402830171923, 24197.797381615328, 0.094, 1.056, 0.124, 192.0, 0.0, 0.0, 0.0, 0.0, 0.0, 0.0, 0.0, 0.0, 0.0, 1.7074737461427133E9, 0.0, 2024-02-09 11:15:46.142
88.0, -26633.824602821423, -29604.52790314292, 2958.119268193158, -9913.57981128452, 37546.88501916946, 7383.071766265842, 20889.113353385135, -5970.106240523606, 10054.932243219882, -4757.278234634189, 36590.699743115874, 21945.769720765322, 33725.98841500145, 23143.085616002754, 23613.366319342414, 24095.158171076557, 0.09, 1.056, 0.124, 192.0, 1.0, 104.0, 16.5, 0.0, 1.5, 112.0, 0.0, 0.0, 0.0, 1.7074737461506736E9, 0.0, 2024-02-09 11:15:46.150
90.0, -26558.655686218226, -29564.831204990292, 2996.854841334205, -9950.661355335875, 37911.285509024325, 7442.572110005869, 21070.40835266213, -5888.678835472922, 10161.550064271696, -4722.968306895293, 36615.75604865027, 22004.51010519387, 33587.85463426765, 23190.53836948137, 23606.325519838992, 24014.177800914982, 0.09, 1.056, 0.124, 192.0, 0.0, 0.0, 0.0, 0.0, 0.0, 0.0, 0.0, 0.0, 0.0, 1.707473746158966E9, 0.0, 2024-02-09 11:15:46.158
92.0, -26626.515582384538, -29606.09252525479, 2947.435134343521, -9926.052084690582, 37693.46775930736, 7395.968722816554, 20944.120996489644, -5953.498894393313, 10236.003725052326, -4724.398818540432, 36910.329688826765, 22006.432355217024, 34060.99636089759, 23298.74316438951, 23758.00445771271, 24228.396919774645, 0.09, 1.056, 0.124, 192.0, 0.0, 0.0, 0.0, 0.0, 0.0, 0.0, 0.0, 0.0, 0.0, 1.7074737461668656E9, 0.0, 2024-02-09 11:15:46.166
94.0, -26585.83540747588, -29586.735914556495, 2979.375777170155, -9935.68568655082, 37643.51161044975, 7429.205766821596, 20935.895554530092, -5948.045068746218, 10016.710760201307, -4754.260749132723, 36405.00145018118, 21946.216755654426, 33397.462474997345, 23076.38801054812, 23501.27232089905, 23959.192509554927, 0.09, 1.056, 0.124, 192.0, 0.0, 0.0, 0.0, 0.0, 0.0, 0.0, 0.0, 0.0, 0.0, 1.7074737461747668E9, 0.0, 2024-02-09 11:15:46.174
96.0, -26579.599270772847, -29590.5357111139, 2973.2737509338563, -9947.196834945302, 37914.45945673698, 7455.737287490045, 21057.533747855872, -5878.329977790115, 10300.08617640569, -4704.572821208575, 36919.94093894255, 22044.765596957877, 33969.15304293073, 23324.402967024205, 23768.487425862244, 24197.17153277058, 0.09, 1.056, 0.124, 192.0, 0.0, 0.0, 0.0, 0.0, 0.0, 0.0, 0.0, 0.0, 0.0, 1.707473746182914E9, 0.0, 2024-02-09 11:15:46.182
98.0, -26622.760489316046, -29612.842752080294, 2957.448715859499, -9916.329075852524, 37514.43028622035, 7415.258278281484, 20876.395210790066, -5966.485257921846, 10058.597929310552, -4747.957557196326, 36600.53451067621, 21947.177880666004, 33705.111885680184, 23154.73087486397, 23611.980511186186, 24115.162982364058, 0.075, 1.05, 0.124, 192.0, 0.5, 112.0, 16.0, 80.0, 1.5, 112.0, 0.0, 0.0, 0.0, 1.7074737461897943E9, 0.0, 2024-02-09 11:15:46.189
100.0, -26546.518688978995, -29575.492987095477, 2991.4233674315656, -9955.757553071684, 37876.95322954097, 7474.758622021512, 21049.285954151866, -5866.550608462168, 10163.874645695048, -4712.865318401494, 36608.55878693567, 22004.197180771494, 33568.810947991726, 23188.325546780296, 23615.981473443684, 24039.412920405022, 0.075, 1.05, 0.124, 192.0, 0.0, 0.0, 0.0, 0.0, 0.0, 0.0, 0.0, 0.0, 0.0, 1.7074737461988344E9, 0.0, 2024-02-09 11:15:46.198
102.0, -26623.02871024951, -29623.43747895211, 2936.4157243270547, -9941.340677898012, 37684.638820247514, 7417.605211449291, 20941.505842388375, -5934.276394161749, 10244.944422834447, -4717.26861205919, 36916.11879064069, 22011.43914597501, 34052.994436382585, 23298.273777755952, 23778.724524822777, 24255.576641032298, 0.075, 1.05, 0.124, 192.0, 0.0, 0.0, 0.0, 0.0, 0.0, 0.0, 0.0, 0.0, 0.0, 1.7074737462067823E9, 0.0, 2024-02-09 11:15:46.206
104.0, -26576.425323060193, -29592.36855415923, 2969.898637521105, -9949.700230324297, 37638.41541271393, 7422.142615573718, 20946.11030174617, -5952.850693804109, 10015.056731111614, -4751.735002009274, 36405.6943542593, 21937.611334039135, 33391.449855738865, 23090.04492641031, 23522.305312431494, 23979.242024331335, 0.075, 1.05, 0.124, 192.0, 0.0, 0.0, 0.0, 0.0, 0.0, 0.0, 0.0, 0.0, 0.0, 1.7074737462149189E9, 0.0, 2024-02-09 11:15:46.214
106.0, -26566.523500266496, -29591.80976054785, 2964.0648322182697, -9959.378535673444, 37930.21743657797, 7451.490456043537, 21086.74747785896, -5873.5914079655895, 10308.043397431778, -4694.760405392695, 36917.72811624147, 22039.42353003306, 33958.04422593644, 23321.094908844818, 23787.57581562708, 24199.965500827493, 0.075, 1.05, 0.124, 192.0, 0.0, 0.0, 0.0, 0.0, 0.0, 0.0, 0.0, 0.0, 0.0, 1.7074737462230525E9, 0.0, 2024-02-09 11:15:46.223
108.0, -26621.21821894863, -29616.888417826704, 2942.405991841077, -9929.807177759074, 37524.689736925335, 7390.447841936093, 20877.60220499065, -5986.08773780915, 10079.295644676167, -4746.772914740195, 36605.451894456375, 21944.965057964928, 33706.587100814235, 23165.482063946973, 23634.421662619312, 24119.76744172185, 0.058499999999999996, 1.0390000000000001, 0.126, 192.0, 0.5, 40.0, 16.0, 16.0, 2.0, 0.0, 0.0, 0.0, 0.0, 1.707473746230832E9, 0.0, 2024-02-09 11:15:46.230
110.0, -26538.62852318627, -29570.955582971048, 2992.11627150968, -9953.500026881698, 37906.50223571089, 7464.7897439944445, 21088.98265230449, -5860.91796885943, 10172.301253354699, -4711.613620711997, 36610.570443936645, 22000.956177825472, 33554.77405247379, 23193.511151493927, 23631.471232351214, 24032.506231368334, 0.058499999999999996, 1.0390000000000001, 0.126, 192.0, 0.0, 0.0, 0.0, 0.0, 0.0, 0.0, 0.0, 0.0, 0.0, 1.7074737462388508E9, 0.0, 2024-02-09 11:15:46.238
112.0, -26609.70707055415, -29608.66297586715, 2947.122209921147, -9928.309610880568, 37719.887521253535, 7418.812205649878, 20978.542682950818, -5928.8225685146535, 10268.257292301332, -4713.491167246243, 36949.15466894563, 22014.72485240994, 34061.39869229778, 23311.461306984584, 23813.123859539493, 24269.926460972605, 0.058499999999999996, 1.0390000000000001, 0.126, 192.0, 0.0, 0.0, 0.0, 0.0, 0.0, 0.0, 0.0, 0.0, 0.0, 1.7074737462459111E9, 0.0, 2024-02-09 11:15:46.245
114.0, -26566.322334566397, -29579.404542375156, 2983.7343673389396, -9930.075398692537, 37679.475567278336, 7441.476874527559, 20970.563110180272, -5930.834225515631, 10041.364734335511, -4743.330746094078, 36440.63013084294, 21951.87174700162, 33408.012498380245, 23093.37533633415, 23548.255687744106, 23995.715259994897, 0.058499999999999996, 1.0390000000000001, 0.126, 192.0, 0.0, 0.0, 0.0, 0.0, 0.0, 0.0, 0.0, 0.0, 0.0, 1.7074737462549205E9, 0.0, 2024-02-09 11:15:46.254
116.0, -26553.514784993506, -29578.823397019318, 2982.952056283004, -9937.786750529618, 37989.740132062456, 7475.049194699431, 21118.12932707421, -5844.891768084975, 10338.486473379908, -4684.836230854539, 36954.720253315005, 22060.814149476784, 33976.46206336762, 23342.15025212172, 23817.080118308084, 24220.484402237464, 0.058499999999999996, 1.0390000000000001, 0.126, 192.0, 0.0, 0.0, 0.0, 0.0, 0.0, 0.0, 0.0, 0.0, 0.0, 1.707473746262902E9, 0.0, 2024-02-09 11:15:46.262
118.0, -26610.779954288002, -29611.30048171288, 2951.1008204341915, -9921.469977077244, 37579.071531185094, 7394.113528026764, 20898.299920356265, -5996.883630381064, 10106.967104311838, -4738.458065802821, 36646.73556646533, 21963.11467446264, 33739.13124074117, 23181.575319954794, 23662.83072982201, 24132.150308150092, 0.04625, 1.0265, 0.132, 192.0, 0.5, 8.0, 15.5, 88.0, 2.0, 40.0, 0.0, 0.0, 0.0, 1.7074737462699215E9, 0.0, 2024-02-09 11:15:46.269
120.0, -26535.767499895992, -29569.32390562581, 3000.3193617247775, -9952.717715825764, 37953.53030604486, 7464.298005616428, 21100.180876276598, -5879.916951646442, 10186.092279683624, -4716.374542280977, 36623.646214443, 22003.057241804272, 33568.878003225094, 23196.84156141777, 23636.276857409106, 24021.397414374045, 0.04625, 1.0265, 0.132, 192.0, 0.0, 0.0, 0.0, 0.0, 0.0, 0.0, 0.0, 0.0, 0.0, 1.7074737462789254E9, 0.0, 2024-02-09 11:15:46.278
122.0, -26614.959730501145, -29613.468600925044, 2948.7762390108396, -9930.321267881545, 37779.54432720475, 7413.201917791595, 21007.91287516509, -5931.013039471274, 10280.08136511819, -4713.960553879804, 36962.36454991872, 22020.02221584585, 34092.6464310463, 23317.6527401987, 23822.355129999534, 24255.353123587745, 0.04625, 1.0265, 0.132, 192.0, 0.0, 0.0, 0.0, 0.0, 0.0, 0.0, 0.0, 0.0, 0.0, 1.707473746286962E9, 0.0, 2024-02-09 11:15:46.286
124.0, -26577.140578882765, -29585.23834767799, 2973.3631579116773, -9934.322230139045, 37712.89142523902, 7426.523557486958, 20990.947901123513, -5955.957586283396, 10039.04015291216, -4756.250054389245, 36437.54559010811, 21938.795976495265, 33430.11837364655, 23075.85156868119, 23550.20028951172, 23978.236195830847, 0.04625, 1.0265, 0.132, 192.0, 0.0, 0.0, 0.0, 0.0, 0.0, 0.0, 0.0, 0.0, 0.0, 1.7074737462951455E9, 0.0, 2024-02-09 11:15:46.295
126.0, -26565.696485721648, -29582.75730404345, 2973.3184544227665, -9936.78092202913, 38019.60206265475, 7463.336880604849, 21136.122481360733, -5858.660442669445, 10331.825653532225, -4696.101510060013, 36946.24894216644, 22049.28064933785, 33988.64376409576, 23340.585630009846, 23809.5699321711, 24194.914006580595, 0.04625, 1.0265, 0.132, 192.0, 0.0, 0.0, 0.0, 0.0, 0.0, 0.0, 0.0, 0.0, 0.0, 1.7074737463019657E9, 0.0, 2024-02-09 11:15:46.301
128.0, -26619.497134625573, -29607.94772004458, 2948.396259355099, -9907.030750159116, 37604.1278367195, 7399.299132740394, 20933.593324851194, -5963.333661953648, 10101.110947264546, -4753.053754932136, 36655.2515811028, 21956.25268891486, 33764.85809860922, 23181.44120948806, 23666.049381023575, 24127.657607514575, 0.043125, 1.01825, 0.14300000000000002, 192.0, 0.5, 32.0, 15.5, 72.0, 2.0, 104.0, 0.0, 0.0, 0.0, 1.7074737463109906E9, 0.0, 2024-02-09 11:15:46.310
130.0, -26535.141651051243, -29560.874946221706, 3002.2416117479343, -9935.3951138729, 37964.68382652805, 7469.081278929863, 21121.102109086765, -5851.172608276917, 10180.280826125245, -4720.777835938673, 36628.00480461178, 22011.08151806373, 33576.38818936207, 23195.723974195003, 23649.754959315655, 24030.047539478248, 0.043125, 1.01825, 0.14300000000000002, 192.0, 0.0, 0.0, 0.0, 0.0, 0.0, 0.0, 0.0, 0.0, 0.0, 1.7074737463189907E9, 0.0, 2024-02-09 11:15:46.318
132.0, -26610.75760254355, -29606.919539799637, 2947.658651788074, -9918.027808431127, 37778.672609170986, 7415.37003700376, 21017.63588400315, -5923.860481245575, 10281.757745952338, -4719.503786504721, 36969.69592210006, 22023.017349602862, 34106.39275388631, 23320.04437685542, 23823.986807344772, 24257.23067012199, 0.043125, 1.01825, 0.14300000000000002, 192.0, 0.0, 0.0, 0.0, 0.0, 0.0, 0.0, 0.0, 0.0, 0.0, 1.7074737463270297E9, 0.0, 2024-02-09 11:15:46.327
134.0, -26572.49141603606, -29585.305402911355, 2977.2076579579902, -9920.53120381012, 37701.73790475582, 7439.264051826483, 20999.754488438903, -5904.772091480743, 10037.475530800288, -4759.155781168435, 36447.246247201714, 21943.467491086423, 33422.94346367639, 23081.797132706302, 23552.27900174606, 23976.381001041056, 0.043125, 1.01825, 0.14300000000000002, 192.0, 0.0, 0.0, 0.0, 0.0, 0.0, 0.0, 0.0, 0.0, 0.0, 1.7074737463340561E9, 0.0, 2024-02-09 11:15:46.334
136.0, -26552.57601172638, -29579.04691446387, 2986.6177423736744, -9927.080264935526, 38012.78478059587, 7472.590502809347, 21162.31872586235, -5809.218383934305, 10330.886880265103, -4697.956704849805, 36957.00013124945, 22054.086274395737, 33979.591307591356, 23330.639103727237, 23821.997502088252, 24209.50969570991, 0.043125, 1.01825, 0.14300000000000002, 192.0, 0.0, 0.0, 0.0, 0.0, 0.0, 0.0, 0.0, 0.0, 0.0, 1.707473746343045E9, 0.0, 2024-02-09 11:15:46.343
138.0, -26616.300835168462, -29612.015737535447, 2953.3583466241776, -9908.684779248808, 37582.938382975866, 7401.936638586121, 20936.208478952467, -5942.993574499318, 10103.81550834364, -4756.94295846736, 36665.91336320798, 21955.470377858925, 33752.40817694762, 23167.225500014487, 23665.758808345654, 24131.591514538708, 0.0455625, 1.014125, 0.15050000000000002, 192.0, 0.5, 64.0, 15.5, 72.0, 2.0, 120.0, 0.0, 0.0, 0.0, 1.707473746351073E9, 0.0, 2024-02-09 11:15:46.351
140.0, -26538.807337141912, -29570.285030637388, 3000.5205274248756, -9940.87129126445, 37937.34764305921, 7465.303834116917, 21119.023396852423, -5840.443770938369, 10172.25654986579, -4730.880824432472, 36626.1943133109, 21998.92216908004, 33548.82848844868, 23167.53842443686, 23632.521764340614, 24014.93776022646, 0.0455625, 1.014125, 0.15050000000000002, 192.0, 0.0, 0.0, 0.0, 0.0, 0.0, 0.0, 0.0, 0.0, 0.0, 1.7074737463581407E9, 0.0, 2024-02-09 11:15:46.358
142.0, -26611.15993394374, -29612.373365446732, 2950.4302681005324, -9919.771244498641, 37761.551172918225, 7413.626600936246, 21015.713633979994, -5911.3882078395145, 10283.903513420048, -4725.762274952206, 36982.03408503939, 22019.396367001103, 34098.010849715574, 23317.13865007623, 23816.744842141252, 24255.107254398736, 0.0455625, 1.014125, 0.15050000000000002, 192.0, 0.0, 0.0, 0.0, 0.0, 0.0, 0.0, 0.0, 0.0, 0.0, 1.7074737463662703E9, 0.0, 2024-02-09 11:15:46.366
144.0, -26578.70520099464, -29592.256795436955, 2978.995797514415, -9923.503985822677, 37671.76421544125, 7428.915194143677, 21005.29772106382, -5916.819681742154, 10030.367676063499, -4764.676662048896, 36450.06256700308, 21934.459738070935, 33422.65289099847, 23078.936109416023, 23536.923353305265, 23977.543291752732, 0.0455625, 1.014125, 0.15050000000000002, 192.0, 0.0, 0.0, 0.0, 0.0, 0.0, 0.0, 0.0, 0.0, 0.0, 1.7074737463750975E9, 0.0, 2024-02-09 11:15:46.375
146.0, -26561.49435776405, -29581.14797844267, 2973.8995997786046, -9935.05983770607, 37975.21149816651, 7454.66440375619, 21141.285734329907, -5848.043364053174, 10317.028798702813, -4703.768158408184, 36945.37722413269, 22045.302038824804, 33955.49612706854, 23320.402004766704, 23795.55538839762, 24192.25414899041, 0.0455625, 1.014125, 0.15050000000000002, 192.0, 0.0, 0.0, 0.0, 0.0, 0.0, 0.0, 0.0, 0.0, 0.0, 1.7074737463821151E9, 0.0, 2024-02-09 11:15:46.382
148.0, -26621.66525383774, -29612.820400335837, 2944.2388348864124, -9912.953962439771, 37550.10367037102, 7390.313731469361, 20922.10452820117, -5970.195647501427, 10092.550229138164, -4757.501752078742, 36664.28168586274, 21947.759026021842, 33729.98937725894, 23172.7687326394, 23638.892011510376, 24118.851020199185, 0.046781249999999996, 1.0180625, 0.15325, 192.0, 0.5, 64.0, 15.5, 120.0, 2.0, 112.0, 0.0, 0.0, 0.0, 1.707473746390128E9, 0.0, 2024-02-09 11:15:46.390
150.0, -26541.131918565265, -29566.08290267979, 2997.2571727344007, -9939.77605578614, 37916.538168971325, 7469.595369052336, 21125.684216700105, -5848.825675109109, 10160.00779390428, -4729.360905809511, 36616.44895272839, 21998.273968490837, 33516.59727294413, 23172.455808217026, 23609.745336740656, 24010.60152180213, 0.046781249999999996, 1.0180625, 0.15325, 192.0, 0.0, 0.0, 0.0, 0.0, 0.0, 0.0, 0.0, 0.0, 0.0, 1.7074737463991153E9, 0.0, 2024-02-09 11:15:46.399
152.0, -26608.83535252039, -29605.600786876774, 2957.091087948214, -9910.092939149492, 37758.73485311685, 7428.825787165855, 21031.337503354254, -5880.743966191289, 10275.633367971584, -4719.369676037989, 36984.783349607394, 22032.919172396563, 34076.73198899412, 23330.773214193967, 23813.257970006227, 24262.61744053572, 0.046781249999999996, 1.0180625, 0.15325, 192.0, 0.0, 0.0, 0.0, 0.0, 0.0, 0.0, 0.0, 0.0, 0.0, 1.7074737464061215E9, 0.0, 2024-02-09 11:15:46.406
154.0, -26574.1230933813, -29587.272356423422, 2982.281503949345, -9918.765415998152, 37663.42701475943, 7442.572110005869, 21003.82250592977, -5892.21041109686, 10021.382274792466, -4755.266577633211, 36454.26469496068, 21951.134139434595, 33407.23018732431, 23093.777667734346, 23536.6551323718, 23982.617137744088, 0.046781249999999996, 1.0180625, 0.15325, 192.0, 0.0, 0.0, 0.0, 0.0, 0.0, 0.0, 0.0, 0.0, 0.0, 1.7074737464141207E9, 0.0, 2024-02-09 11:15:46.414
156.0, -26561.807282186426, -29588.70286806856, 2981.499192893409, -9941.027753475637, 37993.651687342135, 7458.173627635673, 21150.00291466748, -5849.96561407633, 10310.65855153305, -4702.7846816521505, 36947.29947415584, 22055.44973080751, 33950.75755724401, 23313.60707445229, 23793.32021395209, 24186.97913729896, 0.046781249999999996, 1.0180625, 0.15325, 192.0, 0.0, 0.0, 0.0, 0.0, 0.0, 0.0, 0.0, 0.0, 0.0, 1.7074737464223013E9, 0.0, 2024-02-09 11:15:46.422
158.0, -26620.435907892694, -29622.81163010736, 2953.179532668535, -9910.316456594046, 37583.45247309834, 7401.780176374934, 20951.027685526336, -5961.456115419402, 10095.388900683987, -4747.666984518407, 36681.53723258224, 21962.7346948069, 33769.68607541157, 23173.171064039598, 23664.8870903119, 24126.025930169337, 0.049390625, 1.01903125, 0.154625, 192.0, 0.5, 80.0, 15.5, 112.0, 2.0, 112.0, 0.0, 0.0, 0.0, 1.7074737464312134E9, 0.0, 2024-02-09 11:15:46.431
160.0, -26536.214534785096, -29577.862272007736, 3004.655600149107, -9930.924764981839, 37943.53907627334, 7489.756642551022, 21150.00291466748, -5802.892840253454, 10155.470389779854, -4722.990658639748, 36616.27013877274, 22010.433317474522, 33547.39797680354, 23184.92808162309, 23626.15151717085, 24019.81044051772, 0.049390625, 1.01903125, 0.154625, 192.0, 0.0, 0.0, 0.0, 0.0, 0.0, 0.0, 0.0, 0.0, 0.0, 1.707473746438169E9, 0.0, 2024-02-09 11:15:46.438
162.0, -26598.55355007095, -29616.799010848885, 2954.855913502683, -9914.272715362635, 37797.24690881335, 7440.247528582518, 21055.745608299447, -5870.775088164221, 10284.37290005361, -4701.041245584637, 36997.61325092474, 22042.84334693472, 34108.225596931654, 23346.419435312684, 23829.038301591674, 24281.90699600065, 0.049390625, 1.01903125, 0.154625, 192.0, 0.0, 0.0, 0.0, 0.0, 0.0, 0.0, 0.0, 0.0, 0.0, 1.7074737464462242E9, 0.0, 2024-02-09 11:15:46.446
164.0, -26558.633334473772, -29593.32967917081, 2984.047291761314, -9921.805253244072, 37687.07516039314, 7441.387467549738, 21005.09655536372, -5906.202603125883, 10034.145120876447, -4741.1179233930025, 36459.94203805233, 21963.71817156293, 33438.768498750745, 23104.238284139432, 23543.651228386312, 23993.50243729382, 0.049390625, 1.01903125, 0.154625, 192.0, 0.0, 0.0, 0.0, 0.0, 0.0, 0.0, 0.0, 0.0, 0.0, 1.7074737464542148E9, 0.0, 2024-02-09 11:15:46.454
166.0, -26540.953104609624, -29590.312193669346, 2990.2163732309787, -9935.909203995372, 38021.323146977804, 7475.809154010911, 21174.589833568316, -5828.418532421414, 10323.689618550494, -4683.629236653953, 36949.132317201176, 22079.008469463406, 33956.323141613386, 23334.081272373354, 23794.035469774662, 24193.79641935783, 0.049390625, 1.01903125, 0.154625, 192.0, 0.0, 0.0, 0.0, 0.0, 0.0, 0.0, 0.0, 0.0, 0.0, 1.7074737464622545E9, 0.0, 2024-02-09 11:15:46.462
168.0, -26603.046250706466, -29627.796069120894, 2957.15814318158, -9908.550668782076, 37600.03746748417, 7418.7675021609675, 20959.364886208165, -5925.916841735464, 10114.05260730417, -4727.662173230908, 36693.11543621009, 21995.25648298937, 33789.98145937699, 23209.671462735114, 23674.67715438332, 24158.54771835181, 0.049695312500000005, 1.018515625, 0.15531250000000002, 192.0, 0.5, 72.0, 15.5, 104.0, 2.0, 112.0, 0.0, 0.0, 0.0, 1.707473746470242E9, 0.0, 2024-02-09 11:15:46.470
170.0, -26518.780174109957, -29577.281126651902, 3007.851899606216, -9931.617669059953, 37955.09492815673, 7493.422328641693, 21154.80853972537, -5813.845195036554, 10161.527712527242, -4697.889649616439, 36609.5422636917, 22033.7014834525, 33540.82656393368, 23197.936796896076, 23622.664645035824, 24028.70643481093, 0.049695312500000005, 1.018515625, 0.15531250000000002, 192.0, 0.0, 0.0, 0.0, 0.0, 0.0, 0.0, 0.0, 0.0, 0.0, 1.7074737464783812E9, 0.0, 2024-02-09 11:15:46.478
172.0, -26592.138599412276, -29622.3422434738, 2958.767468782362, -9922.766378255652, 37797.71629544691, 7427.395275520716, 21049.822396018793, -5888.768242450744, 10287.680958232995, -4686.065576799581, 36997.34502999127, 22063.4069518336, 34123.55889362799, 23337.322275319373, 23833.15102257145, 24284.231577424, 0.049695312500000005, 1.018515625, 0.15531250000000002, 192.0, 0.0, 0.0, 0.0, 0.0, 0.0, 0.0, 0.0, 0.0, 0.0, 1.7074737464872684E9, 0.0, 2024-02-09 11:15:46.487
174.0, -26551.614886714804, -29597.24123445049, 3000.6546378916073, -9915.166785140847, 37681.12959636803, 7442.370944305771, 21027.73887249695, -5894.400882053481, 10029.808882452116, -4718.788530682151, 36462.423081686866, 21985.756991595867, 33451.75486227928, 23089.28496709883, 23553.731865135655, 23994.038879160747, 0.049695312500000005, 1.018515625, 0.15531250000000002, 192.0, 0.0, 0.0, 0.0, 0.0, 0.0, 0.0, 0.0, 0.0, 0.0, 1.707473746494311E9, 0.0, 2024-02-09 11:15:46.494
176.0, -26539.67905517567, -29596.771847816926, 2993.8150040882833, -9940.223090675247, 38015.0199550414, 7469.148334163229, 21184.357545895284, -5812.571145602602, 10318.90634523706, -4668.072422513059, 36947.590046833764, 22089.93847250205, 33960.45821433762, 23335.221211340573, 23810.598112416043, 24205.776954385874, 0.049695312500000005, 1.018515625, 0.15531250000000002, 192.0, 0.0, 0.0, 0.0, 0.0, 0.0, 0.0, 0.0, 0.0, 0.0, 1.7074737465022695E9, 0.0, 2024-02-09 11:15:46.502
178.0, -26601.369869872316, -29623.705699885573, 2957.761640281873, -9909.556497282565, 37588.83924351207, 7404.216516520562, 20956.77208385135, -5943.641775088522, 10104.70957812185, -4717.000391125726, 36695.663535078, 22001.64908190359, 33799.54800600386, 23198.093259107263, 23684.35545973247, 24165.54381436632, 0.050847656250000005, 1.0162578125000001, 0.15465625, 192.0, 0.5, 80.0, 15.5, 88.0, 2.0, 104.0, 0.0, 0.0, 0.0, 1.707473746510286E9, 0.0, 2024-02-09 11:15:46.510
180.0, -26526.357415480306, -29582.824359276816, 3000.431120447054, -9949.20849194628, 37924.562445230775, 7469.058927185408, 21140.52577501843, -5838.946204059864, 10153.168160100957, -4692.838155369539, 36602.47911244382, 22031.935695640528, 33536.89265690955, 23189.6219479587, 23621.278836879592, 24024.683120808975, 0.050847656250000005, 1.0162578125000001, 0.15465625, 192.0, 0.0, 0.0, 0.0, 0.0, 0.0, 0.0, 0.0, 0.0, 0.0, 1.707473746518336E9, 0.0, 2024-02-09 11:15:46.518
182.0, -26594.194959902165, -29624.2421417525, 2953.626567557641, -9928.734294025218, 37782.025370839285, 7417.962839360576, 21049.956506485523, -5909.935344449919, 10277.041527872268, -4692.2793617581565, 36981.51999491692, 22051.471120294467, 34108.359707398384, 23338.61867649778, 23826.87018237951, 24275.737914530982, 0.050847656250000005, 1.0162578125000001, 0.15465625, 192.0, 0.0, 0.0, 0.0, 0.0, 0.0, 0.0, 0.0, 0.0, 0.0, 1.7074737465273633E9, 0.0, 2024-02-09 11:15:46.527
184.0, -26564.06480837641, -29597.934138528602, 2978.951094025504, -9927.683762035818, 37662.26472404775, 7423.863699896777, 21008.494020520928, -5933.471731361357, 10022.119882359491, -4727.930394164371, 36451.06839550357, 21974.983450768406, 33437.20387663888, 23096.504580557896, 23541.885440574344, 23992.22838785987, 0.050847656250000005, 1.0162578125000001, 0.15465625, 192.0, 0.0, 0.0, 0.0, 0.0, 0.0, 0.0, 0.0, 0.0, 0.0, 1.7074737465344152E9, 0.0, 2024-02-09 11:15:46.534
186.0, -26537.60034294133, -29586.28887966739, 2984.0919952502245, -9939.798407530596, 37997.80911181082, 7467.04727018443, 21170.074781188345, -5829.267898710716, 10314.257182390355, -4667.245407968212, 36935.07306993879, 22082.025954964873, 33958.64772303674, 23323.24067631253, 23798.148190754437, 24197.618567659687, 0.050847656250000005, 1.0162578125000001, 0.15465625, 192.0, 0.0, 0.0, 0.0, 0.0, 0.0, 0.0, 0.0, 0.0, 0.0, 1.7074737465423913E9, 0.0, 2024-02-09 11:15:46.542
188.0, -26602.867436750825, -29621.492877184497, 2947.3904308546107, -9916.306724108068, 37564.900525200435, 7391.341911714306, 20937.86250804216, -5962.41724043098, 10117.67358990593, -4714.005257368714, 36699.59744210213, 21999.905645836076, 33814.90365444466, 23205.49168652197, 23676.912328828854, 24153.719741549463, 0.052423828125, 1.01612890625, 0.15532812499999998, 192.0, 0.5, 88.0, 15.5, 96.0, 2.0, 112.0, 0.0, 0.0, 0.0, 1.7074737465504289E9, 0.0, 2024-02-09 11:15:46.550
190.0, -26520.97064506658, -29575.202414417556, 2995.692550622529, -9946.325116911545, 37909.45266597899, 7458.754772991511, 21130.802766180368, -5848.356288475548, 10154.084581623625, -4693.776928636662, 36594.477187928824, 22030.862811906674, 33534.79159293075, 23170.131226793674, 23610.751165241145, 24004.588902543655, 0.052423828125, 1.01612890625, 0.15532812499999998, 192.0, 0.0, 0.0, 0.0, 0.0, 0.0, 0.0, 0.0, 0.0, 0.0, 1.7074737465584152E9, 0.0, 2024-02-09 11:15:46.558
192.0, -26584.62841327529, -29608.595920633787, 2951.3243378787447, -9916.798462486084, 37786.38396100807, 7426.545909231414, 21057.399637389142, -5876.430079511414, 10295.951103681458, -4674.174448749358, 37001.927137604616, 22073.062905438295, 34124.81059131749, 23341.502051532516, 23825.32791201209, 24277.526054087408, 0.052423828125, 1.01612890625, 0.15532812499999998, 192.0, 0.0, 0.0, 0.0, 0.0, 0.0, 0.0, 0.0, 0.0, 0.0, 1.707473746566553E9, 0.0, 2024-02-09 11:15:46.566
194.0, -26560.332067052375, -29591.206263447555, 2977.051195746803, -9919.480671820722, 37652.65347393197, 7424.04251385242, 20995.77587792586, -5909.309495605171, 10029.250088840734, -4713.737036435251, 36461.05962527509, 21992.35075621018, 33445.831649998625, 23100.729060259946, 23535.872821315865, 24000.677347263976, 0.052423828125, 1.01612890625, 0.15532812499999998, 192.0, 0.0, 0.0, 0.0, 0.0, 0.0, 0.0, 0.0, 0.0, 0.0, 1.7074737465744238E9, 0.0, 2024-02-09 11:15:46.574
196.0, -26537.44388073014, -29581.885586009692, 2978.884038792138, -9942.838244776518, 37997.987925766465, 7449.456447298104, 21148.460644300063, -5845.2940994851715, 10317.22996440291, -4656.6506810963965, 36934.13429667167, 22098.65565283962, 33936.34068207034, 23325.76642343598, 23781.85376904652, 24186.73326810995, 0.052423828125, 1.01612890625, 0.15532812499999998, 192.0, 0.0, 0.0, 0.0, 0.0, 0.0, 0.0, 0.0, 0.0, 0.0, 1.7074737465825157E9, 0.0, 2024-02-09 11:15:46.582
198.0, -26606.108439696844, -29617.46956318254, 2937.3992010830884, -9923.369875355946, 37572.790690993155, 7378.847286563789, 20932.587496350705, -5987.607656432111, 10118.09827305058, -4709.601963711019, 36703.48664563736, 22003.68309064902, 33805.33710781778, 23186.246834545953, 23659.67913385381, 24142.677979788543, 0.052423828125, 1.01612890625, 0.15532812499999998, 192.0, 0.0, 0.0, 0.0, 0.0, 0.0, 0.0, 0.0, 0.0, 0.0, 1.707473746589423E9, 0.0, 2024-02-09 11:15:46.589
200.0, -26514.868618830278, -29558.215088631525, 2996.541916911831, -9935.193948172802, 37919.42154400606, 7465.639110283746, 21140.302257573876, -5855.978233334808, 10155.604500246585, -4687.049053555615, 36592.666696627944, 22035.534326497833, 33512.57395894217, 23173.126360550687, 23597.451877290237, 24003.404260087522, 0.062, 1.02, 0.154, 192.0, 0.5, 120.0, 15.5, 112.0, 2.0, 104.0, 0.0, 0.0, 0.0, 1.7074737465984492E9, 0.0, 2024-02-09 11:15:46.598
202.0, -26589.41168658873, -29605.824304321326, 2944.015317441859, -9924.219241645247, 37796.643411713056, 7414.006580591987, 21047.721332039993, -5911.298800861693, 10299.862658961138, -4676.16375400588, 36999.31198350334, 22072.906443227108, 34107.44328587571, 23348.09581614683, 23815.984882829773, 24270.284088883887, 0.062, 1.02, 0.154, 192.0, 0.0, 0.0, 0.0, 0.0, 0.0, 0.0, 0.0, 0.0, 0.0, 1.7074737466065333E9, 0.0, 2024-02-09 11:15:46.606
204.0, -26562.231965331077, -29578.66693480813, 2971.9102945220825, -9914.898564207384, 37654.53102046622, 7434.23490932404, 21002.526104751363, -5909.734178749822, 10027.908984173417, -4716.218080069791, 36448.18502046884, 21986.87457881863, 33438.142649905996, 23110.943807476022, 23527.334454933938, 23989.79204771424, 0.062, 1.02, 0.154, 192.0, 0.0, 0.0, 0.0, 0.0, 0.0, 0.0, 0.0, 0.0, 0.0, 1.7074737466144445E9, 0.0, 2024-02-09 11:15:46.614
206.0, -26546.697502934636, -29577.906975496648, 2967.864628775672, -9943.486445365721, 38006.59334738176, 7460.319395103383, 21175.550958579894, -5819.321372428104, 10319.129862681611, -4660.651643353897, 36924.29952911133, 22094.766449304396, 33928.271702321974, 23343.37959806676, 23775.572928854577, 24190.778933856363, 0.062, 1.02, 0.154, 192.0, 0.0, 0.0, 0.0, 0.0, 0.0, 0.0, 0.0, 0.0, 0.0, 1.7074737466224668E9, 0.0, 2024-02-09 11:15:46.622
208.0, -26610.198808932164, -29609.24412122299, 2935.365192337655, -9914.228011873724, 37578.468034084806, 7390.783118102922, 20956.280345473333, -5955.868179305575, 10120.825185874128, -4721.64955397243, 36712.80732307522, 21999.436259202514, 33823.24085512648, 23209.40324180165, 23662.227232721714, 24155.5525845948, 0.062, 1.02, 0.154, 192.0, 0.0, 0.0, 0.0, 0.0, 0.0, 0.0, 0.0, 0.0, 0.0, 1.7074737466304595E9, 0.0, 2024-02-09 11:15:46.630
210.0, -26520.814182855393, -29552.783614728884, 2994.239687232934, -9938.434951118821, 37918.706288183486, 7460.8558369703105, 21137.865917428247, -5852.133733288495, 10154.978651401836, -4697.26380077169, 36595.90769957396, 22033.746186941407, 33525.314453281695, 23181.68707867707, 23584.53256899507, 23998.2633588628, 0.074, 1.014, 0.16, 192.0, 1.0, 40.0, 15.5, 88.0, 2.5, 0.0, 0.0, 0.0, 0.0, 1.7074737466385276E9, 0.0, 2024-02-09 11:15:46.638
212.0, -26589.188169144174, -29599.56581587384, 2942.763619752362, -9925.4932910792, 37810.903824675544, 7405.378807232239, 21059.21012869002, -5903.162765879962, 10309.22803988791, -4686.043225055126, 37019.42855351312, 22072.012373448895, 34130.80085883151, 23349.638086514246, 23811.961568827817, 24269.211205150033, 0.074, 1.014, 0.16, 192.0, 0.0, 0.0, 0.0, 0.0, 0.0, 0.0, 0.0, 0.0, 0.0, 1.707473746647523E9, 0.0, 2024-02-09 11:15:46.647
214.0, -26566.612907244315, -29583.56196684384, 2969.9433410100155, -9922.788730000108, 37648.76427039674, 7415.37003700376, 21000.91677915058, -5917.98197245383, 10038.973097678792, -4731.3725628104885, 36464.18886949884, 21974.67052634603, 33459.600324583094, 23090.871940955156, 23516.51621061757, 23982.952413910916, 0.074, 1.014, 0.16, 192.0, 0.0, 0.0, 0.0, 0.0, 0.0, 0.0, 0.0, 0.0, 0.0, 1.7074737466545308E9, 0.0, 2024-02-09 11:15:46.654
216.0, -26545.758729667516, -29575.71650454003, 2971.2844456773337, -9945.609861088975, 37994.076370486786, 7452.965671177587, 21166.386743353218, -5829.983154533285, 10325.343647640188, -4671.603998136998, 36927.33936635726, 22084.484646854955, 33940.721623983576, 23328.739205448535, 23763.36887638198, 24180.74300059593, 0.074, 1.014, 0.16, 192.0, 0.0, 0.0, 0.0, 0.0, 0.0, 0.0, 0.0, 0.0, 0.0, 1.7074737466627104E9, 0.0, 2024-02-09 11:15:46.662
218.0, -26612.568093844427, -29605.131400243212, 2935.4322475710214, -9916.843165974995, 37560.25136235373, 7384.010539532965, 20939.13655747611, -5956.2928624502265, 10125.094369065091, -4723.951783651327, 36714.68486960946, 21992.417811443545, 33835.37785236572, 23202.384794042682, 23651.34193317198, 24151.77513978185, 0.074, 1.014, 0.16, 192.0, 0.0, 0.0, 0.0, 0.0, 0.0, 0.0, 0.0, 0.0, 0.0, 1.707473746669518E9, 0.0, 2024-02-09 11:15:46.669
220.0, -26522.803488111913, -29553.722387996007, 2997.9277250680598, -9932.399980115888, 37894.566404171754, 7464.745040505534, 21138.022379639435, -5828.597346377057, 10154.375154301542, -4696.034454826648, 36582.943687789884, 22022.704425180487, 33522.83340964716, 23176.50147396344, 23580.106923592917, 23997.592806529145, 0.08600000000000001, 1.018, 0.158, 192.0, 1.0, 88.0, 15.5, 104.0, 2.0, 120.0, 0.0, 0.0, 0.0, 1.7074737466775336E9, 0.0, 2024-02-09 11:15:46.677
222.0, -26585.321317353406, -29588.680516324108, 2952.598387312697, -9917.044331675093, 37794.117664589605, 7427.618792965269, 21077.94089054357, -5869.724556174821, 10319.688656292994, -4670.240541725224, 37016.79104766739, 22075.18632116155, 34124.67648085076, 23366.62541230028, 23815.917827596408, 24276.408466864643, 0.08600000000000001, 1.018, 0.158, 192.0, 0.0, 0.0, 0.0, 0.0, 0.0, 0.0, 0.0, 0.0, 0.0, 1.707473746686544E9, 0.0, 2024-02-09 11:15:46.686
224.0, -26573.340782325362, -29586.490045367485, 2961.2485124169007, -9934.322230139045, 37624.15499975145, 7421.270897539962, 21020.005168915413, -5903.632152513523, 10039.688353501362, -4726.097551119036, 36463.83124158755, 21975.49754089088, 33446.3457401211, 23103.634787039136, 23521.344187419916, 23990.64141400354, 0.08600000000000001, 1.018, 0.158, 192.0, 0.0, 0.0, 0.0, 0.0, 0.0, 0.0, 0.0, 0.0, 0.0, 1.7074737466948009E9, 0.0, 2024-02-09 11:15:46.694
226.0, -26536.750976652027, -29564.540632312375, 2979.3534254256997, -9931.01417195966, 37992.26587918591, 7469.975348708075, 21198.617958857772, -5809.061921723119, 10325.27659240682, -4671.492239414721, 36918.95746218651, 22085.736344544453, 33911.083210835845, 23330.214420582586, 23760.46314960279, 24179.73717209544, 0.08600000000000001, 1.018, 0.158, 192.0, 0.0, 0.0, 0.0, 0.0, 0.0, 0.0, 0.0, 0.0, 0.0, 1.70747374670156E9, 0.0, 2024-02-09 11:15:46.701
228.0, -26611.36109964384, -29602.24802520848, 2943.814151741761, -9900.951075667272, 37564.49819380024, 7411.011446834976, 20973.87116835966, -5919.658353287978, 10150.195378088401, -4708.976114866271, 36740.523486199796, 22013.651968676088, 33821.4303638256, 23223.082509408297, 23672.419628193336, 24174.998602270916, 0.08600000000000001, 1.018, 0.158, 192.0, 0.0, 0.0, 0.0, 0.0, 0.0, 0.0, 0.0, 0.0, 0.0, 1.7074737467105596E9, 0.0, 2024-02-09 11:15:46.710
230.0, -26528.816107370392, -29554.348236840757, 2993.0326930323477, -9938.703172052285, 37880.194232486996, 7464.230950383062, 21140.011684895955, -5841.293137227672, 10156.207997346879, -4699.163699050391, 36588.732789603804, 22028.404120016592, 33493.77614185526, 23178.11079956422, 23575.65892644631, 24004.454792076922, 0.082, 1.016, 0.162, 192.0, 1.0, 72.0, 15.5, 96.0, 2.5, 8.0, 0.0, 0.0, 0.0, 1.7074737467195976E9, 0.0, 2024-02-09 11:15:46.719
232.0, -26593.50205582405, -29591.966222759038, 2943.411820341566, -9924.286296878612, 37795.50347274583, 7430.166891833173, 21081.830094078792, -5873.658463198956, 10323.667266806038, -4674.040338282626, 37023.00483262597, 22071.6100420487, 34103.75524804059, 23357.90823196271, 23806.95477806983, 24272.94394647407, 0.082, 1.016, 0.162, 192.0, 0.0, 0.0, 0.0, 0.0, 0.0, 0.0, 0.0, 0.0, 0.0, 1.707473746726592E9, 0.0, 2024-02-09 11:15:46.726
234.0, -26572.0220294025, -29575.224766162013, 2971.887942777627, -9918.787767742608, 37634.41445045644, 7439.420514037671, 21023.424985817073, -5898.893582688997, 10046.952670449338, -4723.013010384204, 36470.89439283543, 21977.643308358587, 33432.10767890307, 23107.792211507825, 23521.03126299754, 24003.247797876335, 0.082, 1.016, 0.162, 192.0, 0.0, 0.0, 0.0, 0.0, 0.0, 0.0, 0.0, 0.0, 0.0, 1.707473746733628E9, 0.0, 2024-02-09 11:15:46.733
236.0, -26538.33795050835, -29562.23840263348, 2986.662445862585, -9937.965564485261, 38002.95001303554, 7470.310624874905, 21199.37791816925, -5823.67996259689, 10334.32904891122, -4661.076326498548, 36925.215950633996, 22088.485609112457, 33890.452550703594, 23335.042397384932, 23758.384437368448, 24178.910157550596, 0.082, 1.016, 0.162, 192.0, 0.0, 0.0, 0.0, 0.0, 0.0, 0.0, 0.0, 0.0, 0.0, 1.7074737467426083E9, 0.0, 2024-02-09 11:15:46.742
238.0, -26604.387355373783, -29594.179045460114, 2948.664480288563, -9907.991875170694, 37582.89367948695, 7410.184432290129, 20993.25013080241, -5927.8837952475305, 10146.10500885308, -4708.037341599148, 36736.27665475329, 22005.06889880525, 33826.07952667231, 23215.035881404387, 23665.155311245362, 24168.091913234224, 0.082, 1.016, 0.162, 192.0, 0.0, 0.0, 0.0, 0.0, 0.0, 0.0, 0.0, 0.0, 0.0, 1.7074737467499137E9, 0.0, 2024-02-09 11:15:46.749
240.0, -26522.445860200627, -29548.22385886, 2999.112367524191, -9935.506872595177, 37896.26513675036, 7483.1628779367065, 21168.33134512083, -5815.812148548621, 10157.258529336277, -4683.606884909497, 36575.120577230526, 22039.088253866226, 33490.73630460934, 23175.9203286076, 23581.559786982514, 24007.919312467493, 0.068, 1.016, 0.162, 192.0, 1.0, 16.0, 15.5, 96.0, 2.5, 8.0, 0.0, 0.0, 0.0, 1.7074737467576709E9, 0.0, 2024-02-09 11:15:46.757
242.0, -26583.376715585797, -29590.312193669346, 2960.153276938591, -9921.827604988528, 37812.69196423197, 7443.041496639431, 21099.42091696512, -5861.521465959724, 10323.846080761681, -4664.362032933478, 37016.67928894512, 22083.344707887736, 34117.99330925862, 23372.079237947375, 23825.462022478823, 24288.90309201516, 0.068, 1.016, 0.162, 192.0, 0.0, 0.0, 0.0, 0.0, 0.0, 0.0, 0.0, 0.0, 0.0, 1.7074737467666976E9, 0.0, 2024-02-09 11:15:46.766
244.0, -26567.462273533616, -29575.023600461915, 2986.8412598182276, -9917.290200864101, 37632.33573822209, 7435.6207174802685, 21020.429852060064, -5902.626324013034, 10044.650440770441, -4717.000391125726, 36461.46195667529, 21981.44310491599, 33459.80149028319, 23106.898141729613, 23529.23435321264, 23999.64916701903, 0.068, 1.016, 0.162, 192.0, 0.0, 0.0, 0.0, 0.0, 0.0, 0.0, 0.0, 0.0, 0.0, 1.7074737467746997E9, 0.0, 2024-02-09 11:15:46.774
246.0, -26529.374900981773, -29553.834146718284, 3003.2250885039675, -9928.399017858388, 38009.63318462767, 7483.654616314723, 21209.927941552156, -5797.215497161806, 10326.036551718302, -4653.521436872654, 36911.223758604974, 22089.60319633522, 33909.6526991907, 23327.420452525672, 23759.479672846755, 24173.702201092507, 0.068, 1.016, 0.162, 192.0, 0.0, 0.0, 0.0, 0.0, 0.0, 0.0, 0.0, 0.0, 0.0, 1.7074737467817156E9, 0.0, 2024-02-09 11:15:46.781
248.0, -26605.41553561873, -29597.420048406133, 2958.5215995933536, -9907.589543770498, 37582.75956902022, 7418.745150416512, 20983.14714230861, -5928.889623748019, 10156.520921769254, -4698.31433276109, 36739.115326299114, 22013.584913442723, 33849.05711997236, 23225.74236699848, 23682.768485876142, 24179.49130290643, 0.068, 1.016, 0.162, 192.0, 0.0, 0.0, 0.0, 0.0, 0.0, 0.0, 0.0, 0.0, 0.0, 1.7074737467900968E9, 0.0, 2024-02-09 11:15:46.790
250.0, -26521.39532821123, -29545.340483825268, 3017.060818321803, -9924.666276534352, 37898.79088387381, 7495.121061220296, 21164.397438096697, -5819.567241617113, 10142.52872974023, -4685.484431443743, 36560.994274734774, 22029.99109387292, 33487.562356896684, 23178.11079956422, 23583.303223050025, 24001.303196108725, 0.062, 1.016, 0.158, 192.0, 0.5, 120.0, 15.5, 96.0, 2.0, 120.0, 0.0, 0.0, 0.0, 1.707473746798974E9, 0.0, 2024-02-09 11:15:46.798
252.0, -26585.187206886676, -29587.339411656787, 2971.01622474387, -9911.00936067216, 37830.17102839601, 7455.2231973675725, 21112.049652582366, -5860.426230481414, 10329.389313386597, -4652.314442672067, 37030.023280384936, 22089.73730680195, 34141.28382698105, 23372.302755391927, 23846.360903544537, 24299.676632842617, 0.062, 1.016, 0.158, 192.0, 0.0, 0.0, 0.0, 0.0, 0.0, 0.0, 0.0, 0.0, 0.0, 1.7074737468057473E9, 0.0, 2024-02-09 11:15:46.805
254.0, -26577.140578882765, -29584.14311219968, 2980.895695793116, -9921.782901499619, 37636.44845920187, 7428.602269721302, 21026.755395740915, -5916.104425919584, 10040.60477502403, -4718.497958004232, 36466.11111952199, 21975.45283740197, 33473.167833467465, 23104.797077750813, 23538.264457972582, 24002.957225198417, 0.062, 1.016, 0.158, 192.0, 0.0, 0.0, 0.0, 0.0, 0.0, 0.0, 0.0, 0.0, 0.0, 1.7074737468138027E9, 0.0, 2024-02-09 11:15:46.813
0.0, -26539.053206330922, -29562.70778926704, 3002.8004053593168, -9935.43981736181, 38017.9256818206, 7489.533125106469, 21219.583895156848, -5784.09502316654, 10325.410702873553, -4661.456306154288, 36907.55807251431, 22086.205731178015, 33902.45543747609, 23319.887914644234, 23769.13562645145, 24167.846044045218, 0.062, 1.016, 0.158, 192.0, 0.0, 0.0, 0.0, 0.0, 0.0, 0.0, 0.0, 0.0, 0.0, 1.7074737468217843E9, 0.0, 2024-02-09 11:15:46.821
2.0, -26611.450506621662, -29600.728106585517, 2953.313643135267, -9908.01422691515, 37589.219223167805, 7412.6654759246685, 20990.34440402322, -5920.88769923302, 10157.191474102912, -4704.438710741843, 36750.246495037856, 22012.042643075307, 33855.18149795312, 23239.64515204968, 23692.938529603307, 24179.424247673065, 0.062, 1.016, 0.158, 192.0, 0.0, 0.0, 0.0, 0.0, 0.0, 0.0, 0.0, 0.0, 0.0, 1.7074737468308847E9, 0.0, 2024-02-09 11:15:46.830
4.0, -26522.892895089735, -29546.92745768159, 3013.9092223536045, -9925.292125379101, 37895.52752918333, 7491.522430362992, 21168.33134512083, -5819.254317194738, 10151.894110667004, -4682.891629086927, 36568.52681261621, 22034.64025671962, 33483.784912083735, 23179.876587376188, 23586.454819018225, 23995.715259994897, 0.05, 1.016, 0.164, 192.0, 0.5, 72.0, 15.5, 96.0, 2.5, 16.0, 0.0, 0.0, 0.0, 1.70747374683802E9, 0.0, 2024-02-09 11:15:46.838
6.0, -26583.108494652333, -29581.840882520784, 2971.887942777627, -9909.645904260386, 37832.47325807491, 7451.870435699277, 21119.00104510797, -5840.354363960549, 10330.506900609364, -4663.713832344274, 37031.65495773017, 22083.74703928793, 34115.37815515735, 23388.44071488866, 23840.504746497245, 24287.561987347843, 0.05, 1.016, 0.164, 192.0, 0.0, 0.0, 0.0, 0.0, 0.0, 0.0, 0.0, 0.0, 0.0, 1.7074737468457568E9, 0.0, 2024-02-09 11:15:46.845
8.0, -26572.044381146956, -29568.027504447404, 2990.1716697420684, -9911.836375217006, 37635.46498244584, 7443.108551872797, 21029.079977164267, -5890.466975029347, 10047.13148440498, -4706.78564390965, 36482.51729995219, 21985.377011940123, 33463.601286840596, 23131.015673996888, 23546.400492954315, 24010.37800435758, 0.05, 1.016, 0.164, 192.0, 0.0, 0.0, 0.0, 0.0, 0.0, 0.0, 0.0, 0.0, 0.0, 1.7074737468547761E9, 0.0, 2024-02-09 11:15:46.854
10.0, -26536.035720829455, -29549.006169915938, 3009.0365420623475, -9933.651677805386, 38017.076315531296, 7486.9179710051985, 21216.745223611026, -5796.81316576161, 10320.694484793483, -4655.600149106997, 36905.27819457986, 22092.598330092234, 33877.1979662416, 23344.67599924517, 23765.268774660683, 24167.868395789672, 0.05, 1.016, 0.164, 192.0, 0.0, 0.0, 0.0, 0.0, 0.0, 0.0, 0.0, 0.0, 0.0, 1.7074737468617997E9, 0.0, 2024-02-09 11:15:46.861
12.0, -26609.952939743154, -29591.161559958648, 2958.9462827380044, -9904.773223969129, 37600.886833773475, 7413.157214302685, 20997.809886671293, -5928.219071414361, 10162.15356137199, -4700.88478337345, 36759.254248053345, 22015.954198354986, 33857.08139623182, 23261.37104766024, 23697.140657560907, 24176.49616914942, 0.05, 1.016, 0.164, 192.0, 0.0, 0.0, 0.0, 0.0, 0.0, 0.0, 0.0, 0.0, 0.0, 1.7074737468698428E9, 0.0, 2024-02-09 11:15:46.869
14.0, -26529.844287615335, -29544.71463498052, 3013.1939665310347, -9934.903375494883, 37896.041619305804, 7474.445697599137, 21159.636516527717, -5837.336878459082, 10150.15067459949, -4693.26283851419, 36557.88738225548, 22029.611114217176, 33480.499205648804, 23191.566549726314, 23582.543263738546, 23988.294480835735, 0.052000000000000005, 1.016, 0.168, 192.0, 0.5, 80.0, 15.5, 96.0, 2.5, 32.0, 0.0, 0.0, 0.0, 1.7074737468778307E9, 0.0, 2024-02-09 11:15:46.877
16.0, -26576.537081782473, -29569.39096085918, 2972.402032900099, -9917.513718308654, 37852.72393855142, 7437.699429714612, 21110.97676884851, -5868.316396274137, 10341.503958881374, -4666.619559123464, 37027.87751291723, 22078.65084155212, 34135.09239376693, 23383.90331076423, 23836.570839473112, 24276.98961222048, 0.052000000000000005, 1.016, 0.168, 192.0, 0.0, 0.0, 0.0, 0.0, 0.0, 0.0, 0.0, 0.0, 0.0, 1.7074737468868303E9, 0.0, 2024-02-09 11:15:46.886
18.0, -26567.01523864451, -29563.333638111788, 2985.6566173620963, -9917.4913665642, 37639.10831679205, 7422.477891740548, 21013.076128134267, -5930.253080159793, 10057.122714176503, -4719.101455104525, 36482.45024471882, 21980.01259327085, 33474.1513102235, 23110.697938287012, 23539.42674868426, 23991.84840820413, 0.052000000000000005, 1.016, 0.168, 192.0, 0.0, 0.0, 0.0, 0.0, 0.0, 0.0, 0.0, 0.0, 0.0, 1.7074737468938603E9, 0.0, 2024-02-09 11:15:46.893
20.0, -26530.514839948995, -29541.18305935658, 3006.622553661174, -9925.58269805702, 38025.033536557385, 7487.7673372945, 21215.24765673252, -5797.416662861903, 10334.798435544782, -4656.829495052039, 36907.82629344777, 22093.42534463708, 33871.38651268322, 23336.294095074427, 23772.019001486184, 24160.24645093041, 0.052000000000000005, 1.016, 0.168, 192.0, 0.0, 0.0, 0.0, 0.0, 0.0, 0.0, 0.0, 0.0, 0.0, 1.7074737469018643E9, 0.0, 2024-02-09 11:15:46.901
22.0, -26611.40580313275, -29586.400638389667, 2959.0356897158254, -9900.52639252262, 37598.27167967221, 7410.7879293904225, 20976.888653861126, -5944.759362311288, 10171.608349276585, -4705.958629364804, 36771.92768715951, 22014.16605879856, 33852.85691652977, 23245.858937008255, 23699.800515151088, 24175.02095401537, 0.052000000000000005, 1.016, 0.168, 192.0, 0.0, 0.0, 0.0, 0.0, 0.0, 0.0, 0.0, 0.0, 0.0, 1.7074737469102294E9, 0.0, 2024-02-09 11:15:46.910
24.0, -26525.0610143019, -29532.063547618814, 3016.457321221509, -9917.24549737519, 37888.084398279716, 7492.6176658413015, 21143.297391330885, -5824.506977141736, 10154.621023490552, -4689.999483823715, 36566.35869340404, 22032.382730529636, 33453.69946404689, 23179.451904231537, 23579.235205559162, 23989.568530269687, 0.06, 1.018, 0.166, 192.0, 0.5, 112.0, 15.5, 104.0, 2.5, 24.0, 0.0, 0.0, 0.0, 1.7074737469179156E9, 0.0, 2024-02-09 11:15:46.917
26.0, -26581.633279518283, -29567.491062580477, 2977.3864719136327, -9907.76835772614, 37850.399357128066, 7449.612909509291, 21102.17018153312, -5858.191056035884, 10348.52240664034, -4659.377593919944, 37037.37700431073, 22082.875321254174, 34100.0001549721, 23379.656479317724, 23836.995522617763, 24277.347240131767, 0.06, 1.018, 0.166, 192.0, 0.0, 0.0, 0.0, 0.0, 0.0, 0.0, 0.0, 0.0, 0.0, 1.707473746925926E9, 0.0, 2024-02-09 11:15:46.925
28.0, -26577.744075983057, -29562.17134740011, 2989.7469865974176, -9903.320360579535, 37642.05874706015, 7442.28153732795, 21027.91768645259, -5898.513603033257, 10055.669850786908, -4716.2851353031565, 36482.71846565229, 21976.369258924635, 33449.51968783375, 23119.77274653587, 23544.99233305363, 24006.89113222255, 0.06, 1.018, 0.166, 192.0, 0.0, 0.0, 0.0, 0.0, 0.0, 0.0, 0.0, 0.0, 0.0, 1.7074737469339373E9, 0.0, 2024-02-09 11:15:46.933
30.0, -26537.48858421905, -29542.971198913005, 3014.490367709442, -9916.194965385792, 38038.82456288631, 7499.814927555911, 21228.323427238873, -5778.462383563803, 10323.264935405843, -4663.132686988436, 36896.762179942394, 22086.27278641138, 33845.25732341496, 23333.678940973157, 23769.739123551743, 24163.97919225445, 0.06, 1.018, 0.166, 192.0, 0.0, 0.0, 0.0, 0.0, 0.0, 0.0, 0.0, 0.0, 0.0, 1.7074737469429564E9, 0.0, 2024-02-09 11:15:46.942
32.0, -26606.331957141396, -29579.80687377535, 2978.593466114219, -9887.629435971909, 37626.278415474706, 7425.115397586274, 21013.791383956835, -5901.30757109017, 10175.519904556264, -4701.868260129483, 36786.456321055455, 22018.479945478433, 33858.60131485478, 23257.75006505848, 23719.98414039423, 24195.249282747423, 0.06, 1.018, 0.166, 192.0, 0.0, 0.0, 0.0, 0.0, 0.0, 0.0, 0.0, 0.0, 0.0, 1.7074737469500396E9, 0.0, 2024-02-09 11:15:46.950
34.0, -26521.73060437806, -29531.50475400743, 3037.177388331579, -9912.350465339478, 37907.68687816702, 7490.226029184584, 21175.32744113534, -5805.887974010465, 10160.901863682493, -4688.211344267291, 36567.72214981582, 22030.281666550836, 33455.08527220312, 23179.943642609556, 23596.468400534202, 23992.586015771154, 0.066, 1.016, 0.168, 192.0, 1.0, 8.0, 15.5, 96.0, 2.5, 32.0, 0.0, 0.0, 0.0, 1.7074737469579964E9, 0.0, 2024-02-09 11:15:46.957
36.0, -26577.140578882765, -29565.792330001874, 2990.149317997613, -9904.952037924772, 37861.61993284463, 7452.518636288481, 21129.37225453523, -5836.040477280674, 10356.90431081108, -4663.669128855363, 37046.07183290384, 22085.46812361099, 34108.47146612066, 23383.880959019778, 23855.234546093292, 24277.011963964935, 0.066, 1.016, 0.168, 192.0, 0.0, 0.0, 0.0, 0.0, 0.0, 0.0, 0.0, 0.0, 0.0, 1.7074737469660285E9, 0.0, 2024-02-09 11:15:46.966
38.0, -26576.514730038016, -29565.881736979693, 3000.6099344026966, -9907.544840281587, 37637.00725281325, 7436.112455858285, 21029.30349460882, -5894.512640775757, 10063.649423557452, -4722.677734217374, 36484.864233119995, 21975.005802512864, 33457.655722815485, 23108.775688263857, 23551.966077323686, 23997.79397222924, 0.066, 1.016, 0.168, 192.0, 0.0, 0.0, 0.0, 0.0, 0.0, 0.0, 0.0, 0.0, 0.0, 1.707473746973984E9, 0.0, 2024-02-09 11:15:46.973
40.0, -26546.00459885652, -29555.219954874512, 3015.78676888785, -9931.796483015596, 38030.263844759924, 7482.022938969486, 21219.561543412394, -5792.745148270745, 10328.204670930467, -4673.392137693422, 36888.939069383036, 22073.219367649483, 33836.65190179967, 23322.838344912332, 23768.28626016215, 24151.886898504126, 0.066, 1.016, 0.168, 192.0, 0.0, 0.0, 0.0, 0.0, 0.0, 0.0, 0.0, 0.0, 0.0, 1.7074737469821036E9, 0.0, 2024-02-09 11:15:46.982
42.0, -26608.27655890901, -29580.365667386734, 2986.3048179513003, -9884.522543492621, 37627.239540486284, 7425.808301664389, 21004.11307860769, -5913.198699140394, 10186.896942484014, -4708.3055625326115, 36786.52337628882, 22009.472192462945, 33861.21646895605, 23250.955134744065, 23717.950131648795, 24188.45435243301, 0.066, 1.016, 0.168, 192.0, 0.0, 0.0, 0.0, 0.0, 0.0, 0.0, 0.0, 0.0, 0.0, 1.7074737469900115E9, 0.0, 2024-02-09 11:15:46.990
44.0, -26542.048340087935, -29545.31813208081, 3025.241556792445, -9923.146357911392, 37888.844357591195, 7482.089994202852, 21152.640420513206, -5820.684828839878, 10149.3460117991, -4704.326952019567, 36549.21490540682, 22014.836611132218, 33443.23884764181, 23170.98059308298, 23592.221569087695, 23992.116629137592, 0.063, 1.0150000000000001, 0.17, 192.0, 0.5, 112.0, 15.5, 88.0, 2.5, 48.0, 0.0, 0.0, 0.0, 1.7074737469993503E9, 0.0, 2024-02-09 11:15:46.999
46.0, -26584.2260818751, -29568.27337363641, 3001.124024525169, -9897.978293654716, 37873.622819617136, 7468.09780217383, 21133.842603426292, -5825.244584708761, 10352.366906686653, -4672.252198726202, 37039.20984735606, 22074.98515546145, 34106.07982946394, 23383.657441575222, 23860.57661301811, 24282.28697565639, 0.063, 1.0150000000000001, 0.17, 192.0, 0.0, 0.0, 0.0, 0.0, 0.0, 0.0, 0.0, 0.0, 0.0, 1.7074737470060232E9, 0.0, 2024-02-09 11:15:47.006
48.0, -26578.07935214989, -29560.80789098834, 3014.780940387361, -9894.022034886126, 37641.231732515305, 7451.736325232545, 21024.07318640628, -5884.633169726511, 10069.729098049296, -4724.354115051522, 36494.38607625796, 21975.475189146422, 33468.58572585413, 23129.227534440462, 23570.7638944106, 24010.04272819075, 0.063, 1.0150000000000001, 0.17, 192.0, 0.0, 0.0, 0.0, 0.0, 0.0, 0.0, 0.0, 0.0, 0.0, 1.707473747014035E9, 0.0, 2024-02-09 11:15:47.014
50.0, -26536.661569674205, -29534.812812186818, 3030.136588828157, -9914.071549662536, 38037.9304931081, 7502.743006079556, 21217.39342420023, -5788.520668568692, 10336.407761145563, -4662.059803254581, 36890.79426417283, 22079.343745630234, 33841.50223034647, 23331.957856650097, 23780.04327774564, 24151.3504566372, 0.063, 1.0150000000000001, 0.17, 192.0, 0.0, 0.0, 0.0, 0.0, 0.0, 0.0, 0.0, 0.0, 0.0, 1.707473747022064E9, 0.0, 2024-02-09 11:15:47.022
52.0, -26612.299872910964, -29570.530899826397, 2983.801422572306, -9885.81894467103, 37621.27162471672, 7429.317525543872, 21007.331729809255, -5907.700170004388, 10200.039768223736, -4703.566992708086, 36794.12296940362, 22013.584913442723, 33883.32234422235, 23266.623707607236, 23734.244553356715, 24193.841122846738, 0.063, 1.0150000000000001, 0.17, 192.0, 0.0, 0.0, 0.0, 0.0, 0.0, 0.0, 0.0, 0.0, 0.0, 1.7074737470290787E9, 0.0, 2024-02-09 11:15:47.029
54.0, -26525.351586979818, -29513.623358443187, 3042.5418070008527, -9903.119194879437, 37891.571270414745, 7502.564192123913, 21158.362467093764, -5803.205764675828, 10157.616157247563, -4696.16856529338, 36552.14298393047, 22019.284608278824, 33449.676150044936, 23173.126360550687, 23599.53058952458, 23988.115666880094, 0.0575, 1.0165000000000002, 0.169, 192.0, 0.5, 80.0, 15.5, 104.0, 2.5, 32.0, 0.0, 0.0, 0.0, 1.7074737470382361E9, 0.0, 2024-02-09 11:15:47.038
56.0, -26572.714933480613, -29542.3229983238, 3004.990876315937, -9885.260151059647, 37873.891040550596, 7468.656595785213, 21116.788222406893, -5838.320355215115, 10367.767258616359, -4657.477695641243, 37055.750138252995, 22088.50796085691, 34112.22655918915, 23384.48445612007, 23870.612546278542, 24288.925443759614, 0.0575, 1.0165000000000002, 0.169, 192.0, 0.0, 0.0, 0.0, 0.0, 0.0, 0.0, 0.0, 0.0, 0.0, 1.7074737470460887E9, 0.0, 2024-02-09 11:15:47.046
58.0, -26570.45740729063, -29538.031463388383, 3017.396094488632, -9882.466183002733, 37630.07821203211, 7458.62066252478, 21018.39584331463, -5884.968445893342, 10080.703804576851, -4709.356094522011, 36507.573605486585, 21985.846398573685, 33485.66245861798, 23147.466557915996, 23573.80373165652, 24013.998986959337, 0.0575, 1.0165000000000002, 0.169, 192.0, 0.0, 0.0, 0.0, 0.0, 0.0, 0.0, 0.0, 0.0, 0.0, 1.7074737470531366E9, 0.0, 2024-02-09 11:15:47.053
60.0, -26521.35062472232, -29511.768163653396, 3035.0986760972355, -9905.15320362487, 38046.915894379126, 7521.160843510729, 21237.934677354657, -5754.56836874108, 10339.022915246835, -4654.951948517793, 36899.93612765505, 22091.03370798036, 33849.10182346128, 23345.52536553447, 23786.972318526783, 24158.279497418345, 0.0575, 1.0165000000000002, 0.169, 192.0, 0.0, 0.0, 0.0, 0.0, 0.0, 0.0, 0.0, 0.0, 0.0, 1.70747374706111E9, 0.0, 2024-02-09 11:15:47.061
62.0, -26609.662367065237, -29562.19369914457, 2978.861687047683, -9888.568209239033, 37625.13847650748, 7437.297098314417, 21001.45322101751, -5896.814870454654, 10203.839564781138, -4706.003332853715, 36807.556367821264, 22012.40027098659, 33903.01423108747, 23274.469169911048, 23741.106538904496, 24195.22693100297, 0.0575, 1.0165000000000002, 0.169, 192.0, 0.0, 0.0, 0.0, 0.0, 0.0, 0.0, 0.0, 0.0, 0.0, 1.7074737470701492E9, 0.0, 2024-02-09 11:15:47.070
64.0, -26535.946313851633, -29515.478553232977, 3028.661373694107, -9917.826642731028, 37898.142683284605, 7502.7206543351, 21162.586946795815, -5806.29030541066, 10152.989346145314, -4696.325027504567, 36543.716376270815, 22015.998901843894, 33448.71502503336, 23180.68125017658, 23598.72592672419, 23979.398486542523, 0.05775, 1.01425, 0.1705, 192.0, 0.5, 104.0, 15.5, 80.0, 2.5, 48.0, 0.0, 0.0, 0.0, 1.7074737470781932E9, 0.0, 2024-02-09 11:15:47.078
66.0, -26585.70129700915, -29544.2228966025, 2983.756719083395, -9907.991875170694, 37890.029000047325, 7468.0754504293745, 21147.119539632742, -5841.829579094599, 10355.943185799502, -4670.195838236313, 37033.912483920154, 22070.961841459495, 34116.69690808021, 23389.535950366968, 23868.19855787737, 24272.67572554061, 0.05775, 1.01425, 0.1705, 192.0, 0.0, 0.0, 0.0, 0.0, 0.0, 0.0, 0.0, 0.0, 0.0, 1.7074737470851967E9, 0.0, 2024-02-09 11:15:47.085
68.0, -26574.21250035912, -29532.488230763465, 2999.559402413297, -9896.72659596522, 37641.76817438223, 7456.273729356973, 21037.17130865709, -5895.496117531791, 10063.224740412801, -4721.537795250153, 36492.50852972371, 21967.763837309343, 33484.43311267294, 23126.701787317015, 23570.71919092169, 24009.50628632382, 0.05775, 1.01425, 0.1705, 192.0, 0.0, 0.0, 0.0, 0.0, 0.0, 0.0, 0.0, 0.0, 0.0, 1.70747374709428E9, 0.0, 2024-02-09 11:15:47.094
70.0, -26527.58676142535, -29510.270596774888, 3021.3523532572217, -9917.893697964395, 38053.15203108216, 7517.96454405362, 21245.53427046946, -5773.321482339083, 10326.371827885132, -4659.198779964302, 36872.24231627492, 22078.717896785485, 33838.50709658946, 23331.354359549805, 23780.244443445736, 24154.92673575005, 0.05775, 1.01425, 0.1705, 192.0, 0.0, 0.0, 0.0, 0.0, 0.0, 0.0, 0.0, 0.0, 0.0, 1.7074737471024013E9, 0.0, 2024-02-09 11:15:47.102
72.0, -26605.013204218532, -29549.4755565495, 2974.056061989792, -9886.154220837858, 37635.64379640148, 7446.99775540802, 21023.045006161334, -5900.748777478788, 10190.2050006634, -4704.014027597193, 36795.70994325995, 22011.617959930656, 33904.780018899444, 23265.70728608457, 23742.849974972007, 24203.40766947361, 0.05775, 1.01425, 0.1705, 192.0, 0.0, 0.0, 0.0, 0.0, 0.0, 0.0, 0.0, 0.0, 0.0, 1.7074737471092203E9, 0.0, 2024-02-09 11:15:47.109
74.0, -26524.25635150151, -29500.346422236733, 3029.5777952167746, -9907.3883780704, 37892.0406570483, 7512.309552706427, 21172.57817656734, -5798.355436129026, 10136.471406992843, -4694.536887948142, 36529.43361156388, 22014.92601811004, 33444.4458418424, 23153.88150857467, 23594.7696679556, 23984.002945900316, 0.056875, 1.010125, 0.17025, 192.0, 0.5, 96.0, 15.5, 56.0, 2.5, 40.0, 0.0, 0.0, 0.0, 1.7074737471172638E9, 0.0, 2024-02-09 11:15:47.117
76.0, -26580.828616717892, -29538.92553316659, 2983.1308702386464, -9907.969523426238, 37890.45368319198, 7471.562322564402, 21151.23226061252, -5823.3446864300595, 10352.165740986555, -4666.060765512081, 37032.727841464024, 22074.89574848363, 34118.574454614456, 23380.8187700294, 23862.521214785724, 24284.14217044618, 0.056875, 1.010125, 0.17025, 192.0, 0.0, 0.0, 0.0, 0.0, 0.0, 0.0, 0.0, 0.0, 0.0, 1.7074737471262171E9, 0.0, 2024-02-09 11:15:47.126
78.0, -26578.45933180563, -29529.738966195462, 2998.6429808906296, -9901.733386723208, 37639.10831679205, 7453.010374666497, 21031.002227187422, -5884.342597048592, 10057.23447289878, -4729.584423254064, 36478.80691037261, 21960.72303780592, 33495.83250234515, 23127.282932672853, 23566.42765598627, 24016.770603271798, 0.056875, 1.010125, 0.17025, 192.0, 0.0, 0.0, 0.0, 0.0, 0.0, 0.0, 0.0, 0.0, 0.0, 1.7074737471342587E9, 0.0, 2024-02-09 11:15:47.134
80.0, -26539.410834242208, -29510.56116945281, 3021.0617805793026, -9925.985029457215, 38038.22106578601, 7506.811023570422, 21232.63731391875, -5773.679110250368, 10316.782929513804, -4670.374652191956, 36847.63304562963, 22069.620736792178, 33833.79087850939, 23316.825725653856, 23767.481597361755, 24147.01421821287, 0.056875, 1.010125, 0.17025, 192.0, 0.0, 0.0, 0.0, 0.0, 0.0, 0.0, 0.0, 0.0, 0.0, 1.7074737471412804E9, 0.0, 2024-02-09 11:15:47.141
82.0, -26609.908236254247, -29548.04504490436, 2980.3592539261886, -9887.182401082802, 37636.627273157515, 7441.923909416665, 21024.96725618449, -5892.568039008145, 10196.083509455146, -4703.969324108282, 36789.07147515672, 22004.040718560307, 33909.116257323774, 23260.879309282223, 23741.777091238153, 24207.721556153483, 0.056875, 1.010125, 0.17025, 192.0, 0.0, 0.0, 0.0, 0.0, 0.0, 0.0, 0.0, 0.0, 0.0, 1.7074737471492417E9, 0.0, 2024-02-09 11:15:47.149
84.0, -26529.687825404148, -29498.334765235755, 3030.136588828157, -9905.756700725164, 37876.685008607514, 7501.893639790254, 21164.509196818974, -5804.636276320967, 10146.216767575355, -4693.2181350252795, 36507.2159775753, 22001.336157481215, 33444.73641452032, 23161.190529011554, 23587.080667862974, 23981.924233665974, 0.0564375, 1.0100625, 0.17012500000000003, 192.0, 0.5, 96.0, 15.5, 72.0, 2.5, 40.0, 0.0, 0.0, 0.0, 1.7074737471582825E9, 0.0, 2024-02-09 11:15:47.158
86.0, -26579.86749170631, -29533.963445897516, 2986.9753702849594, -9903.633285001908, 37896.041619305804, 7473.216351654095, 21157.580156037828, -5818.717875327811, 10362.961633558469, -4662.395079421411, 37018.0874488458, 22074.247547894425, 34113.545312112015, 23394.095706235854, 23863.19176711938, 24282.488141356487, 0.0564375, 1.0100625, 0.17012500000000003, 192.0, 0.0, 0.0, 0.0, 0.0, 0.0, 0.0, 0.0, 0.0, 0.0, 1.7074737471655076E9, 0.0, 2024-02-09 11:15:47.165
88.0, -26579.666326006216, -29525.73800393796, 2995.178460500057, -9897.91123842135, 37628.53594166469, 7449.478799042559, 21036.858384234714, -5881.123945847028, 10067.18099918139, -4723.616507484497, 36480.84091911804, 21962.801750040264, 33500.19109251393, 23140.403406668116, 23572.6637926893, 24025.286617909267, 0.0564375, 1.0100625, 0.17012500000000003, 192.0, 0.0, 0.0, 0.0, 0.0, 0.0, 0.0, 0.0, 0.0, 0.0, 1.707473747173574E9, 0.0, 2024-02-09 11:15:47.173
90.0, -26532.19122078314, -29501.37460248168, 3020.1677108010904, -9923.503985822677, 38048.90519963565, 7503.502965391036, 21245.377808258272, -5770.169886370884, 10322.28145864981, -4663.333852688534, 36841.70983334897, 22065.060980923296, 33829.007605195955, 23322.27955130095, 23760.64196355843, 24140.196936154003, 0.0564375, 1.0100625, 0.17012500000000003, 192.0, 0.0, 0.0, 0.0, 0.0, 0.0, 0.0, 0.0, 0.0, 0.0, 1.7074737471823604E9, 0.0, 2024-02-09 11:15:47.182
92.0, -26614.82562003441, -29549.967294927515, 2962.5449135953086, -9900.302875078069, 37637.11901153553, 7428.736380188034, 21028.387073086153, -5898.379492566525, 10199.905657757005, -4708.819652655084, 36790.21141412394, 21994.63063414462, 33919.06278360639, 23259.337038914808, 23743.252306372204, 24205.396974730134, 0.0564375, 1.0100625, 0.17012500000000003, 192.0, 0.0, 0.0, 0.0, 0.0, 0.0, 0.0, 0.0, 0.0, 0.0, 1.7074737471903524E9, 0.0, 2024-02-09 11:15:47.190
94.0, -26522.91524683419, -29487.98590755295, 3022.2911265243447, -9913.378645584422, 37874.42748241752, 7499.39024441126, 21168.53251082093, -5801.015293719208, 10133.319811024645, -4705.846870642527, 36505.897224652435, 21992.39545969909, 33443.887048231016, 23152.20512774052, 23585.29252830655, 23972.22357657237, 0.05821875, 1.0120312500000002, 0.1680625, 192.0, 0.5, 112.0, 15.5, 88.0, 2.5, 24.0, 0.0, 0.0, 0.0, 1.707473747197398E9, 0.0, 2024-02-09 11:15:47.197
96.0, -26565.383561299273, -29513.802172398828, 2992.943286054526, -9900.928723922816, 37901.94247984201, 7479.608950568313, 21157.222528126542, -5815.38746540397, 10375.322148242254, -4653.812009550573, 37035.03007114292, 22082.338879387247, 34125.65995760679, 23384.395049142247, 23867.326839843612, 24282.08580995629, 0.05821875, 1.0120312500000002, 0.1680625, 192.0, 0.0, 0.0, 0.0, 0.0, 0.0, 0.0, 0.0, 0.0, 0.0, 1.7074737472054403E9, 0.0, 2024-02-09 11:15:47.205
98.0, -26564.623601987794, -29505.062640316803, 3014.110388053702, -9886.087165604493, 37636.11318303504, 7460.051174169919, 21034.377340600175, -5881.436870269403, 10080.167362709924, -4712.284173045656, 36492.910861123906, 21972.748276322876, 33506.516636194785, 23138.0117700114, 23571.412094999803, 24018.692853294953, 0.05821875, 1.0120312500000002, 0.1680625, 192.0, 0.0, 0.0, 0.0, 0.0, 0.0, 0.0, 0.0, 0.0, 0.0, 1.7074737472144804E9, 0.0, 2024-02-09 11:15:47.214
100.0, -26518.400194454218, -29485.862491829696, 3038.6973069545397, -9910.808194972062, 38048.70403393555, 7523.306610978439, 21253.82676766238, -5745.381801769949, 10333.747903555382, -4652.582663605531, 36848.169487496554, 22080.349574130723, 33815.77537247841, 23318.61386521028, 23771.169635196882, 24145.315485634266, 0.05821875, 1.0120312500000002, 0.1680625, 192.0, 0.0, 0.0, 0.0, 0.0, 0.0, 0.0, 0.0, 0.0, 0.0, 1.707473747221417E9, 0.0, 2024-02-09 11:15:47.221
102.0, -26594.21731164662, -29526.497963249443, 2988.6070476301966, -9875.358328265946, 37640.36001448155, 7446.66247924119, 21032.186869643556, -5871.803268409165, 10223.665562112996, -4691.07236755757, 36809.25510039987, 22015.12718381014, 33924.69542320912, 23277.21843447905, 23755.411655355892, 24216.528143468877, 0.05821875, 1.0120312500000002, 0.1680625, 192.0, 0.0, 0.0, 0.0, 0.0, 0.0, 0.0, 0.0, 0.0, 0.0, 1.7074737472293994E9, 0.0, 2024-02-09 11:15:47.229
104.0, -26511.91818856218, -29476.206538225, 3041.4242197780873, -9895.743119209184, 37868.01253175885, 7518.657448131735, 21176.71324929157, -5778.350624841527, 10159.180779359434, -4678.3542249625, 36518.8165329476, 22022.21268680247, 33426.966777678346, 23172.679325661582, 23595.462572033714, 23989.009736658307, 0.056109375, 1.014015625, 0.16803125000000002, 192.0, 0.5, 88.0, 15.5, 96.0, 2.5, 32.0, 0.0, 0.0, 0.0, 1.7074737472374003E9, 0.0, 2024-02-09 11:15:47.237
106.0, -26549.938505880655, -29500.726401892472, 3010.0423705628364, -9885.058985359548, 37905.429351977036, 7493.019997241498, 21172.33230737833, -5796.075558194585, 10391.616569950173, -4642.636137322919, 37039.67923398963, 22103.12600173068, 34097.385000870825, 23400.8235813169, 23868.422075321923, 24285.930310002605, 0.056109375, 1.014015625, 0.16803125000000002, 192.0, 0.0, 0.0, 0.0, 0.0, 0.0, 0.0, 0.0, 0.0, 0.0, 1.707473747246405E9, 0.0, 2024-02-09 11:15:47.246
108.0, -26558.58863098486, -29510.449410730533, 3014.2892020093445, -9886.444793515777, 37625.361993952036, 7456.6313572682575, 21040.658180792117, -5881.459222013858, 10105.693054877884, -4697.062635071592, 36510.90401541043, 22004.26423600486, 33503.990889071334, 23144.180851481065, 23590.47813302018, 24040.03876924977, 0.056109375, 1.014015625, 0.16803125000000002, 192.0, 0.0, 0.0, 0.0, 0.0, 0.0, 0.0, 0.0, 0.0, 0.0, 1.707473747253414E9, 0.0, 2024-02-09 11:15:47.253
110.0, -26508.453668171605, -29489.349363964724, 3035.433952264065, -9908.461261804256, 38042.66906293262, 7511.348427694849, 21253.62560196228, -5768.292339836638, 10343.180339715522, -4649.945157759805, 36841.35220543769, 22094.98996674895, 33804.84536943977, 23307.348586004806, 23763.301821148616, 24137.917058219562, 0.056109375, 1.014015625, 0.16803125000000002, 192.0, 0.0, 0.0, 0.0, 0.0, 0.0, 0.0, 0.0, 0.0, 0.0, 1.7074737472616715E9, 0.0, 2024-02-09 11:15:47.261
112.0, -26587.332974354384, -29534.79046044236, 2985.0084167728924, -9883.159087080847, 37648.69721516338, 7435.151330846707, 21039.048855191333, -5889.97523665133, 10243.491559444852, -4680.20941975229, 36824.61074884066, 22036.249582320404, 33942.35330132882, 23277.151379245686, 23755.769283267175, 24211.677814922074, 0.056109375, 1.014015625, 0.16803125000000002, 192.0, 0.0, 0.0, 0.0, 0.0, 0.0, 0.0, 0.0, 0.0, 0.0, 1.7074737472704215E9, 0.0, 2024-02-09 11:15:47.270
114.0, -26511.53820890644, -29496.010183812403, 3027.9461178715374, -9917.804290986573, 37867.34197942519, 7494.204639697628, 21163.1457404072, -5811.453558379836, 10162.712354983372, -4690.871201857472, 36513.22859683378, 22022.771480413852, 33427.70438524537, 23150.215822484, 23572.61908920039, 23964.60163171311, 0.056054687500000006, 1.0120078125, 0.168015625, 192.0, 0.5, 96.0, 15.5, 72.0, 2.5, 32.0, 0.0, 0.0, 0.0, 1.7074737472774527E9, 0.0, 2024-02-09 11:15:47.277
116.0, -26552.486604748563, -29530.90125690714, 2993.7479488549175, -9914.272715362635, 37916.35935501568, 7460.408802081204, 21156.775493237437, -5830.631355122489, 10399.305570042798, -4653.744954317207, 37040.79682121239, 22096.465181883003, 34108.98555624313, 23373.353287381327, 23855.793339704676, 24265.45611208154, 0.056054687500000006, 1.0120078125, 0.168015625, 192.0, 0.0, 0.0, 0.0, 0.0, 0.0, 0.0, 0.0, 0.0, 0.0, 1.7074737472854793E9, 0.0, 2024-02-09 11:15:47.285
118.0, -26562.20961358662, -29537.450318032545, 2999.9617338134926, -9905.980218169716, 37625.8313805856, 7444.986098407042, 21023.02265441688, -5890.221105840338, 10104.083729277103, -4712.798263168128, 36508.065343864604, 21987.813352085752, 33512.953938597915, 23127.305284417307, 23570.205100799216, 24012.79199275875, 0.056054687500000006, 1.0120078125, 0.168015625, 192.0, 0.0, 0.0, 0.0, 0.0, 0.0, 0.0, 0.0, 0.0, 0.0, 1.7074737472934809E9, 0.0, 2024-02-09 11:15:47.293
120.0, -26507.403136182205, -29509.55534095232, 3033.0646673518027, -9929.941288225806, 38049.86632464723, 7504.10646249133, 21252.329200783875, -5761.2962438221275, 10337.10066522368, -4657.768268319162, 36831.83036229973, 22082.629452065165, 33794.25064256795, 23309.51670521697, 23752.729446021254, 24123.231962112422, 0.056054687500000006, 1.0120078125, 0.168015625, 192.0, 0.0, 0.0, 0.0, 0.0, 0.0, 0.0, 0.0, 0.0, 0.0, 1.7074737473014755E9, 0.0, 2024-02-09 11:15:47.301
122.0, -26586.21538713162, -29556.4269490751, 2979.2640184478782, -9901.040482645092, 37657.101471078575, 7427.216461565074, 21042.93805872656, -5886.197791838383, 10239.378838465076, -4694.268667014679, 36821.52620810583, 22027.778271171843, 33951.405757833214, 23277.03962052341, 23759.345562380026, 24212.16955330009, 0.056054687500000006, 1.0120078125, 0.168015625, 192.0, 0.0, 0.0, 0.0, 0.0, 0.0, 0.0, 0.0, 0.0, 0.0, 1.7074737473095183E9, 0.0, 2024-02-09 11:15:47.309
124.0, -26500.96583377908, -29503.11803854919, 3037.691478454051, -9914.272715362635, 37861.865802033644, 7495.568096109402, 21153.75800773597, -5805.038607721163, 10159.001965403791, -4684.791527365628, 36510.68049796588, 22026.101890337693, 33442.054205185676, 23157.860119087713, 23579.861054403907, 23976.828035930164, 0.054027343750000005, 1.01300390625, 0.17000781250000002, 192.0, 0.5, 80.0, 15.5, 88.0, 2.5, 48.0, 0.0, 0.0, 0.0, 1.7074737473175116E9, 0.0, 2024-02-09 11:15:47.317
126.0, -26539.366130753297, -29528.733137694973, 3013.9092223536045, -9898.827659944018, 37929.23395982194, 7476.837334255855, 21183.23995867252, -5798.087215195563, 10400.065529354279, -4639.350430887989, 37043.81430671386, 22110.52442914539, 34118.932082525745, 23394.58744461387, 23862.163586874438, 24277.86133025424, 0.054027343750000005, 1.01300390625, 0.17000781250000002, 192.0, 0.0, 0.0, 0.0, 0.0, 0.0, 0.0, 0.0, 0.0, 0.0, 1.707473747325493E9, 0.0, 2024-02-09 11:15:47.325
128.0, -26555.168814083198, -29534.41048078662, 3012.9704490864815, -9899.229991344213, 37629.16179050944, 7435.106627357796, 21035.852555734225, -5887.270675572237, 10109.559906668652, -4696.906172860405, 36522.23634984927, 22003.727794137933, 33536.02093887579, 23143.666761358592, 23587.77357194109, 24035.434309891978, 0.054027343750000005, 1.01300390625, 0.17000781250000002, 192.0, 0.0, 0.0, 0.0, 0.0, 0.0, 0.0, 0.0, 0.0, 0.0, 1.7074737473325014E9, 0.0, 2024-02-09 11:15:47.332
130.0, -26496.093153487822, -29502.26867225989, 3039.591376732752, -9920.397093343388, 38047.00530135695, 7504.240572958061, 21251.479834494574, -5767.554732269613, 10342.308621681765, -4639.797465777096, 36848.30359796329, 22100.868475540698, 33805.91825317362, 23323.24067631253, 23751.23187914275, 24119.25335159938, 0.054027343750000005, 1.01300390625, 0.17000781250000002, 192.0, 0.0, 0.0, 0.0, 0.0, 0.0, 0.0, 0.0, 0.0, 0.0, 1.7074737473418498E9, 0.0, 2024-02-09 11:15:47.341
132.0, -26588.383506343784, -29556.672818264105, 2981.7003585935067, -9897.464203532243, 37649.70304366387, 7430.546871488914, 21030.286971364854, -5890.869306429542, 10245.972603079392, -4671.156963247891, 36854.15975501058, 22046.576088258756, 33964.146252172744, 23307.885027871733, 23758.138568179438, 24214.829410890274, 0.054027343750000005, 1.01300390625, 0.17000781250000002, 192.0, 0.0, 0.0, 0.0, 0.0, 0.0, 0.0, 0.0, 0.0, 0.0, 1.7074737473497825E9, 0.0, 2024-02-09 11:15:47.349
134.0, -26506.73258384855, -29499.27353850288, 3042.184179089568, -9903.566229768543, 37853.81917402973, 7496.86449728781, 21161.51406306196, -5803.585744331568, 10150.77652344424, -4680.231771496746, 36520.582320759575, 22028.761747927874, 33446.85983024357, 23170.31004074932, 23568.975754854175, 23967.820282914672, 0.057013671875000005, 1.010501953125, 0.17200390625, 192.0, 0.5, 112.0, 15.5, 64.0, 2.5, 56.0, 0.0, 0.0, 0.0, 1.7074737473575497E9, 0.0, 2024-02-09 11:15:47.357
136.0, -26556.91225015071, -29536.13156510968, 2995.02199828887, -9914.764453740652, 37917.40988700508, 7467.583712051358, 21168.95719396558, -5821.713009084822, 10397.763299675382, -4634.030715707626, 37051.7938794844, 22108.177495977583, 34127.716318096675, 23406.97031104211, 23861.314220585136, 24276.475522098008, 0.057013671875000005, 1.010501953125, 0.17200390625, 192.0, 0.0, 0.0, 0.0, 0.0, 0.0, 0.0, 0.0, 0.0, 0.0, 1.7074737473655317E9, 0.0, 2024-02-09 11:15:47.365
138.0, -26570.815035201915, -29539.864306433716, 2990.4845941644426, -9911.523450794632, 37612.085057745586, 7436.581842491847, 21022.888543950146, -5899.027693155729, 10088.862191303038, -4703.991675852737, 36513.742686956255, 21979.945538037486, 33533.986930130355, 23131.418005397085, 23572.75319966712, 24023.386719630565, 0.057013671875000005, 1.010501953125, 0.17200390625, 192.0, 0.0, 0.0, 0.0, 0.0, 0.0, 0.0, 0.0, 0.0, 0.0, 1.7074737473735604E9, 0.0, 2024-02-09 11:15:47.373
140.0, -26513.28164497395, -29510.628224686174, 3016.8820043661603, -9935.328058639534, 38042.04321408787, 7493.757604808522, 21251.233965305564, -5762.726755467267, 10327.109435452156, -4653.901416528394, 36824.38723139611, 22074.60517580571, 33783.52180522941, 23304.532266203438, 23739.51956504817, 24116.526438775833, 0.057013671875000005, 1.010501953125, 0.17200390625, 192.0, 0.0, 0.0, 0.0, 0.0, 0.0, 0.0, 0.0, 0.0, 0.0, 1.7074737473815615E9, 0.0, 2024-02-09 11:15:47.381
142.0, -26595.55841631394, -29559.84676597676, 2966.8140967862723, -9905.019093158138, 37656.40856700046, 7426.076522597853, 21044.860308749714, -5894.847916942587, 10246.598451924141, -4683.718643631773, 36841.24044671541, 22026.63833220462, 33960.54762131544, 23285.533283416426, 23750.538975064635, 24214.98587310146, 0.057013671875000005, 1.010501953125, 0.17200390625, 192.0, 0.0, 0.0, 0.0, 0.0, 0.0, 0.0, 0.0, 0.0, 0.0, 1.7074737473889096E9, 0.0, 2024-02-09 11:15:47.388
144.0, -26516.902627575713, -29511.924625864584, 3019.720675911984, -9924.688628278807, 37843.24679890237, 7479.273674401484, 21147.208946610564, -5827.926794043397, 10150.53065425523, -4690.02183556817, 36496.08480883656, 22014.814259387764, 33428.8890277015, 23141.52099389088, 23559.588022182947, 23962.36645726758, 0.057013671875000005, 1.010501953125, 0.17200390625, 192.0, 0.0, 0.0, 0.0, 0.0, 0.0, 0.0, 0.0, 0.0, 0.0, 1.7074737473975894E9, 0.0, 2024-02-09 11:15:47.397
146.0, -26550.519651236493, -29531.54945749634, 2995.759605855895, -9908.01422691515, 37927.021137120864, 7469.282444629961, 21188.447915130608, -5820.595421862057, 10399.260866553888, -4646.123009457947, 37031.87847517472, 22097.538065616856, 34119.42382090376, 23385.512636365016, 23850.607734991045, 24265.23259463699, 0.058, 1.006, 0.18, 192.0, 0.5, 104.0, 15.5, 56.0, 2.5, 80.0, 0.0, 0.0, 0.0, 1.7074737474056287E9, 0.0, 2024-02-09 11:15:47.405
148.0, -26564.93652641017, -29537.31620756581, 2999.2688297353784, -9897.374796554423, 37630.12291552102, 7445.924871674165, 21053.085750709266, -5879.447565012881, 10101.937961809394, -4703.343475263533, 36512.80391368913, 21993.848323088685, 33539.88779066656, 23149.679380617068, 23578.89992939233, 24035.322551169702, 0.058, 1.006, 0.18, 192.0, 0.0, 0.0, 0.0, 0.0, 0.0, 0.0, 0.0, 0.0, 0.0, 1.707473747413626E9, 0.0, 2024-02-09 11:15:47.413
150.0, -26508.498371660517, -29506.47080021749, 3029.6448504501404, -9919.905354965373, 38060.79632768587, 7509.448529416148, 21273.183378360674, -5751.819104173077, 10332.742075054894, -4647.151189702891, 36817.502894103876, 22096.018146993894, 33767.16032828812, 23310.72369941756, 23744.21343138378, 24123.120203390146, 0.058, 1.006, 0.18, 192.0, 0.0, 0.0, 0.0, 0.0, 0.0, 0.0, 0.0, 0.0, 0.0, 1.7074737474216197E9, 0.0, 2024-02-09 11:15:47.421
152.0, -26584.851930719848, -29548.693245493563, 2986.6847976070403, -9889.19405808378, 37676.36867479905, 7437.90059541471, 21062.115855469212, -5873.300835287671, 10248.07366705819, -4673.705062115796, 36849.15296425259, 22048.453634793, 33961.35228411583, 23300.643062668212, 23764.97820198276, 24231.459108765022, 0.058, 1.006, 0.18, 192.0, 0.0, 0.0, 0.0, 0.0, 0.0, 0.0, 0.0, 0.0, 0.0, 1.707473747429912E9, 0.0, 2024-02-09 11:15:47.429
154.0, -26511.00176703951, -29503.22979727147, 3039.189045332557, -9909.221221115735, 37856.32256940872, 7492.6176658413015, 21178.76960978146, -5800.724721041289, 10148.139017598513, -4680.343530219023, 36500.59986121653, 22029.097024094706, 33420.79769620868, 23168.92423259309, 23574.18371131226, 23983.667669733488, 0.058, 1.006, 0.18, 192.0, 0.0, 0.0, 0.0, 0.0, 0.0, 0.0, 0.0, 0.0, 0.0, 1.707473747437677E9, 0.0, 2024-02-09 11:15:47.437
156.0, -26547.859793646312, -29522.586407969764, 3006.376684472166, -9901.599276256477, 37941.05803263879, 7479.8771715017765, 21205.85992406129, -5804.189241431862, 10398.836183409237, -4638.858692509973, 37033.0407658864, 22108.110440744214, 34100.76011428358, 23401.516485395015, 23863.43763630839, 24283.89630125717, 0.062, 1.014, 0.178, 192.0, 0.5, 120.0, 15.5, 88.0, 2.5, 72.0, 0.0, 0.0, 0.0, 1.7074737474446747E9, 0.0, 2024-02-09 11:15:47.444
158.0, -26563.818939187404, -29527.88377140567, 3006.9354780835483, -9894.513773264143, 37628.46888643133, 7453.591520022335, 21058.56192810082, -5875.513657988747, 10107.10121477857, -4695.83328912655, 36521.40933530442, 22000.73266038092, 33540.20071508893, 23154.842633586246, 23588.555882997025, 24056.579060146698, 0.062, 1.014, 0.178, 192.0, 0.0, 0.0, 0.0, 0.0, 0.0, 0.0, 0.0, 0.0, 0.0, 1.7074737474536972E9, 0.0, 2024-02-09 11:15:47.453
160.0, -26509.079517016355, -29499.586462925254, 3037.1997400760342, -9922.788730000108, 38049.79926941387, 7505.984009025576, 21266.34374455735, -5766.303034580116, 10329.210499430956, -4652.180332205336, 36807.71283003245, 22088.03857422335, 33760.3206944848, 23306.36510924877, 23733.70811148979, 24125.802412724785, 0.062, 1.014, 0.178, 192.0, 0.0, 0.0, 0.0, 0.0, 0.0, 0.0, 0.0, 0.0, 0.0, 1.7074737474616892E9, 0.0, 2024-02-09 11:15:47.461
162.0, -26585.187206886676, -29540.691320978563, 2988.4505854190097, -9889.10465110596, 37671.361884041056, 7440.985136149542, 21058.0701897228, -5898.290085588705, 10265.083344588678, -4671.603998136998, 36850.02468228635, 22047.805434203798, 33973.62339182179, 23293.065821297863, 23758.630306557454, 24228.396919774645, 0.062, 1.014, 0.178, 192.0, 0.0, 0.0, 0.0, 0.0, 0.0, 0.0, 0.0, 0.0, 0.0, 1.7074737474687152E9, 0.0, 2024-02-09 11:15:47.468
164.0, -26509.839476327834, -29493.395029711133, 3036.685649953562, -9904.72852048022, 37850.28759840579, 7511.326075950394, 21178.836665014824, -5785.771404000689, 10157.258529336277, -4676.990768550726, 36492.37441925698, 22028.02414036085, 33420.19419910839, 23153.613287641205, 23561.018533828086, 23978.37030629758, 0.062, 1.014, 0.178, 192.0, 0.0, 0.0, 0.0, 0.0, 0.0, 0.0, 0.0, 0.0, 0.0, 1.7074737474767144E9, 0.0, 2024-02-09 11:15:47.476
166.0, -26547.01042735701, -29522.27348354739, 2995.536088411342, -9909.86942170494, 37932.22909357895, 7479.519543590492, 21190.325461664852, -5797.14844192844, 10405.25113406791, -4634.835378508017, 37030.53737050741, 22105.785859320862, 34100.22367241665, 23398.47664814909, 23848.86429892353, 24279.60476632175, 0.06, 1.016, 0.17200000000000001, 192.0, 0.5, 112.0, 15.5, 96.0, 2.5, 48.0, 0.0, 0.0, 0.0, 1.7074737474858463E9, 0.0, 2024-02-09 11:15:47.485
168.0, -26560.555584496928, -29523.726346936983, 2997.9277250680598, -9891.071604618026, 37601.646793084954, 7445.299022829417, 21027.984741685956, -5884.454355770869, 10110.945714824882, -4698.202574038813, 36521.342280071054, 21994.720041122444, 33536.95971214291, 23141.878621802167, 23574.966022368197, 24046.56547863072, 0.06, 1.016, 0.17200000000000001, 192.0, 0.0, 0.0, 0.0, 0.0, 0.0, 0.0, 0.0, 0.0, 0.0, 1.7074737474937406E9, 0.0, 2024-02-09 11:15:47.493
170.0, -26495.06497324288, -29483.82848308426, 3042.474751767487, -9902.783918712606, 38032.722536650006, 7519.6185731433125, 21260.509939254516, -5751.595586728524, 10335.178415200522, -4642.859654767472, 36809.94800447798, 22094.364117904202, 33744.763880343904, 23311.774231406955, 23723.158088106884, 24120.706214988975, 0.06, 1.016, 0.17200000000000001, 192.0, 0.0, 0.0, 0.0, 0.0, 0.0, 0.0, 0.0, 0.0, 0.0, 1.7074737475007372E9, 0.0, 2024-02-09 11:15:47.500
172.0, -26575.84417770436, -29528.867248161707, 2998.9335535685486, -9874.039575343082, 37678.425035288936, 7453.770333977978, 21074.766942830916, -5857.878131613509, 10282.204780841445, -4661.232788709734, 36876.690313421524, 22056.232041863448, 33981.8711855258, 23314.970530864066, 23769.068571218082, 24254.771978231907, 0.06, 1.016, 0.17200000000000001, 192.0, 0.0, 0.0, 0.0, 0.0, 0.0, 0.0, 0.0, 0.0, 0.0, 1.7074737475087621E9, 0.0, 2024-02-09 11:15:47.508
174.0, -26501.614034368282, -29484.543738906832, 3040.530149999875, -9902.314532079046, 37834.39550809807, 7502.877116546288, 21161.8940427177, -5810.760654301722, 10156.34210781361, -4677.907190073394, 36495.72718092527, 22023.866715892163, 33416.61791999554, 23153.970915552487, 23561.197347783727, 23989.948509925427, 0.06, 1.016, 0.17200000000000001, 192.0, 0.0, 0.0, 0.0, 0.0, 0.0, 0.0, 0.0, 0.0, 0.0, 1.7074737475177746E9, 0.0, 2024-02-09 11:15:47.517
176.0, -26534.04641557293, -29503.520369949387, 3009.1035972957134, -9899.654674488864, 37942.15326811711, 7495.165764709207, 21210.173810741166, -5793.90743898242, 10419.086863885745, -4629.046276694093, 37036.795858954894, 22107.953978533027, 34103.21880617366, 23412.15591575574, 23851.568860002622, 24281.974051234014, 0.058, 1.018, 0.17, 192.0, 0.5, 104.0, 15.5, 104.0, 2.5, 40.0, 0.0, 0.0, 0.0, 1.7074737475247943E9, 0.0, 2024-02-09 11:15:47.524
178.0, -26552.17368032619, -29509.287120018857, 3006.019056560881, -9883.650825458864, 37616.376592681, 7461.079354414864, 21062.0711519803, -5881.012187124752, 10124.267354520245, -4686.624370410964, 36538.620178535006, 21998.028099301828, 33563.08890141117, 23166.376133725185, 23587.505351007625, 24061.272926482314, 0.058, 1.018, 0.17, 192.0, 0.0, 0.0, 0.0, 0.0, 0.0, 0.0, 0.0, 0.0, 0.0, 1.7074737475329213E9, 0.0, 2024-02-09 11:15:47.532
180.0, -26490.639327840727, -29476.161834736093, 3043.0335453788693, -9903.454471046267, 38044.41249900014, 7522.39018945577, 21286.572073289404, -5756.825894931066, 10343.828540304727, -4633.561329074065, 36813.189007424, 22096.37577490518, 33756.00680780492, 23315.48462098654, 23725.862649185976, 24119.208648110467, 0.058, 1.018, 0.17, 192.0, 0.0, 0.0, 0.0, 0.0, 0.0, 0.0, 0.0, 0.0, 0.0, 1.707473747541836E9, 0.0, 2024-02-09 11:15:47.541
182.0, -26580.31452659542, -29528.375509783687, 2982.9744080274595, -9883.650825458864, 37686.2928493372, 7434.27961281295, 21075.79512307586, -5893.618570997545, 10283.188257597478, -4664.54084688912, 36874.946877354014, 22049.235945848937, 33988.53200537348, 23307.817972638368, 23765.335829894047, 24239.595143746752, 0.058, 1.018, 0.17, 192.0, 0.0, 0.0, 0.0, 0.0, 0.0, 0.0, 0.0, 0.0, 0.0, 1.7074737475488417E9, 0.0, 2024-02-09 11:15:47.548
184.0, -26508.073688515866, -29483.87318657317, 3036.7974086758386, -9902.58275301251, 37847.71714779343, 7493.310569919417, 21169.784208510424, -5818.941392772364, 10157.52675026974, -4684.16567852088, 36490.5639279561, 22015.440108232513, 33417.444934540385, 23145.47725265947, 23552.36840872388, 23970.234271315847, 0.058, 1.018, 0.17, 192.0, 0.0, 0.0, 0.0, 0.0, 0.0, 0.0, 0.0, 0.0, 0.0, 1.7074737475568516E9, 0.0, 2024-02-09 11:15:47.556
186.0, -26528.52553469247, -29493.216215755492, 3013.21631827549, -9888.81407842804, 37962.71687301599, 7485.934494249165, 21201.747203081515, -5817.287363682672, 10421.903183687113, -4631.013230206159, 37038.695757233596, 22112.781955335377, 34100.33543113893, 23405.092764507863, 23850.85360418005, 24271.491083084475, 0.06, 1.016, 0.17, 192.0, 0.5, 112.0, 15.5, 96.0, 2.5, 40.0, 0.0, 0.0, 0.0, 1.7074737475648324E9, 0.0, 2024-02-09 11:15:47.564
188.0, -26544.30586627792, -29497.820675113282, 3016.814949132794, -9867.512865962133, 37631.19579925487, 7465.661462028202, 21054.82918677678, -5877.145335333984, 10136.225537803834, -4682.332835475545, 36553.19351591987, 22014.702500665488, 33563.51358455582, 23164.945622080046, 23588.041792874552, 24053.494519411866, 0.06, 1.016, 0.17, 192.0, 0.0, 0.0, 0.0, 0.0, 0.0, 0.0, 0.0, 0.0, 0.0, 1.7074737475738535E9, 0.0, 2024-02-09 11:15:47.573
190.0, -26493.99208950902, -29476.363000436188, 3044.397001790643, -9906.382549569911, 38050.425118258616, 7507.168651481707, 21244.0143518465, -5790.331159869571, 10347.248357206388, -4638.456361109777, 36818.15109469308, 22105.94232153205, 33733.90093253862, 23303.437030725127, 23722.01814913966, 24111.139668362102, 0.06, 1.016, 0.17, 192.0, 0.0, 0.0, 0.0, 0.0, 0.0, 0.0, 0.0, 0.0, 0.0, 1.707473747581134E9, 0.0, 2024-02-09 11:15:47.581
192.0, -26572.44671254715, -29518.60779745672, 3002.3533704702104, -9862.260206015135, 37711.17034091596, 7471.405860353215, 21090.189646505078, -5844.757657618244, 10287.815068699727, -4672.565123148575, 36886.43567400404, 22056.90259419711, 33979.81482503591, 23307.32623426035, 23760.574908325067, 24240.399806547142, 0.06, 1.016, 0.17, 192.0, 0.0, 0.0, 0.0, 0.0, 0.0, 0.0, 0.0, 0.0, 0.0, 1.707473747589161E9, 0.0, 2024-02-09 11:15:47.589
194.0, -26504.586816380837, -29478.59817488172, 3038.473789509987, -9892.81504068554, 37855.47320311942, 7513.829471329388, 21198.081516990846, -5787.33602611256, 10166.065116651669, -4678.711852873785, 36499.392867015944, 22030.259314806382, 33419.1883706079, 23162.889261590157, 23568.215795542696, 23992.921291937982, 0.06, 1.016, 0.17, 192.0, 0.0, 0.0, 0.0, 0.0, 0.0, 0.0, 0.0, 0.0, 0.0, 1.7074737475980413E9, 0.0, 2024-02-09 11:15:47.598
196.0, -26533.666435917192, -29495.920776834584, 2998.508870423898, -9900.39228205589, 37967.209573651504, 7500.753700823034, 21236.280648264965, -5789.794718002644, 10422.998419165424, -4638.590471576509, 37037.0417281439, 22109.362138433713, 34100.58130032793, 23406.769145342012, 23858.184976361394, 24280.118856444224, 0.066, 0.992, 0.17200000000000001, 192.0, 1.0, 8.0, 15.5, 0.0, 2.5, 48.0, 0.0, 0.0, 0.0, 1.7074737476049123E9, 0.0, 2024-02-09 11:15:47.604
198.0, -26556.82284317289, -29500.726401892472, 2991.02103603137, -9890.870438917927, 37626.479581174804, 7459.872360214277, 21071.101256740243, -5877.838239412098, 10128.134206311013, -4692.4581757137985, 36540.20715239133, 21999.637424902612, 33569.302686369745, 23164.878566846677, 23588.600586485933, 24058.635420636587, 0.066, 0.992, 0.17200000000000001, 192.0, 0.0, 0.0, 0.0, 0.0, 0.0, 0.0, 0.0, 0.0, 0.0, 1.707473747612903E9, 0.0, 2024-02-09 11:15:47.612
200.0, -26499.1553424782, -29474.59721262422, 3023.274603280378, -9922.006418944171, 38054.56019098285, 7518.143358009263, 21299.31256762893, -5742.274909290661, 10337.234775690411, -4644.536035601621, 36794.99468743738, 22093.47004812599, 33730.19054295904, 23302.833533624835, 23719.201829338293, 24110.782040450817, 0.066, 0.992, 0.17200000000000001, 192.0, 0.0, 0.0, 0.0, 0.0, 0.0, 0.0, 0.0, 0.0, 0.0, 1.7074737476210063E9, 0.0, 2024-02-09 11:15:47.621
202.0, -26581.029782417987, -29522.45229750303, 2974.63720734563, -9880.76745042413, 37699.07804716564, 7446.8859966857435, 21110.261513025944, -5855.128867045506, 10288.37386231111, -4673.861524326983, 36885.206328059, 22058.7577889869, 33991.616546108315, 23311.9530453626, 23766.878100261463, 24244.110196126723, 0.066, 0.992, 0.17200000000000001, 192.0, 0.0, 0.0, 0.0, 0.0, 0.0, 0.0, 0.0, 0.0, 0.0, 1.7074737476301808E9, 0.0, 2024-02-09 11:15:47.630
204.0, -26517.86375258729, -29485.12488426267, 3024.1910248030454, -9891.652749973864, 37835.96013020994, 7499.032616499975, 21207.82687757336, -5793.6392180489565, 10152.922290911949, -4690.2230012682685, 36482.74081739674, 22026.236000804427, 33406.93961464639, 23149.455863172516, 23556.101150047918, 23981.901881921516, 0.066, 0.992, 0.17200000000000001, 192.0, 0.0, 0.0, 0.0, 0.0, 0.0, 0.0, 0.0, 0.0, 0.0, 1.7074737476369412E9, 0.0, 2024-02-09 11:15:47.636
206.0, -26550.765520425502, -29513.243378787447, 3001.660466392096, -9893.709110463753, 37965.01910269488, 7488.6837588171675, 21253.133863584266, -5777.836534719055, 10414.951791161513, -4646.68180306933, 37020.166161080146, 22103.863609297707, 34076.329657593924, 23393.626319602292, 23852.932316414397, 24281.75053378946, 0.058, 1.01, 0.168, 192.0, 0.5, 104.0, 15.5, 72.0, 2.5, 32.0, 0.0, 0.0, 0.0, 1.7074737476449676E9, 0.0, 2024-02-09 11:15:47.644
208.0, -26568.021067145, -29518.78661141236, 3006.890774594638, -9883.539066736588, 37623.97618579581, 7450.551682776414, 21087.08275402579, -5868.450506740869, 10127.53070921072, -4704.125786319469, 36534.30629185514, 21989.802657342276, 33576.54465157326, 23163.939793579557, 23595.104944122428, 24077.589699934688, 0.058, 1.01, 0.168, 192.0, 0.0, 0.0, 0.0, 0.0, 0.0, 0.0, 0.0, 0.0, 0.0, 1.70747374765298E9, 0.0, 2024-02-09 11:15:47.652
210.0, -26493.63446159774, -29476.608869625197, 3055.371708318199, -9907.76835772614, 38048.458164746546, 7522.524299922503, 21301.413631607727, -5737.156359810396, 10330.193976186989, -4653.521436872654, 36775.43691103899, 22081.75773403141, 33725.07199347878, 23297.536170188927, 23719.06771887156, 24115.364148064156, 0.058, 1.01, 0.168, 192.0, 0.0, 0.0, 0.0, 0.0, 0.0, 0.0, 0.0, 0.0, 0.0, 1.707473747661012E9, 0.0, 2024-02-09 11:15:47.661
212.0, -26572.49141603606, -29521.22295155799, 3006.3096292388, -9879.739270179185, 37703.19076814542, 7456.877226457265, 21100.739669887982, -5856.760544390744, 10304.400063085564, -4664.943178289316, 36884.3569617697, 22054.242736606924, 34010.23554923959, 23325.498202502517, 23780.333850423558, 24255.576641032298, 0.058, 1.01, 0.168, 192.0, 0.0, 0.0, 0.0, 0.0, 0.0, 0.0, 0.0, 0.0, 0.0, 1.7074737476689973E9, 0.0, 2024-02-09 11:15:47.668
214.0, -26514.48863917454, -29491.83040759926, 3041.044240122347, -9910.472918805233, 37824.20311262645, 7498.585581610869, 21167.504330575983, -5816.236831693272, 10156.81149444717, -4685.082100043547, 36471.162613768895, 22013.137878553614, 33412.907530415956, 23152.227479484973, 23561.46556871719, 23977.163312096993, 0.058, 1.01, 0.168, 192.0, 0.0, 0.0, 0.0, 0.0, 0.0, 0.0, 0.0, 0.0, 0.0, 1.7074737476772628E9, 0.0, 2024-02-09 11:15:47.677
216.0, -26536.68392141866, -29508.08012581827, 3016.9714113439813, -9904.236782102202, 37962.739224760444, 7492.7294245635785, 21213.77244159847, -5795.7179302833, 10418.863346441192, -4646.055954224581, 37019.20503606857, 22089.75965854641, 34084.666858275756, 23400.018918516507, 23852.373522803013, 24270.485254583986, 0.052000000000000005, 1.02, 0.166, 192.0, 0.5, 80.0, 15.5, 112.0, 2.5, 24.0, 0.0, 0.0, 0.0, 1.707473747686034E9, 0.0, 2024-02-09 11:15:47.686
218.0, -26556.06288386141, -29512.50577122042, 3013.015152575392, -9878.644034700876, 37617.11420024803, 7471.785840008955, 21050.98468673047, -5857.20757927985, 10134.48210173632, -4687.138460533436, 36542.28586462568, 21990.584968398212, 33586.53588134478, 23174.0204303289, 23597.67539473479, 24066.123255029113, 0.052000000000000005, 1.02, 0.166, 192.0, 0.0, 0.0, 0.0, 0.0, 0.0, 0.0, 0.0, 0.0, 0.0, 1.707473747693019E9, 0.0, 2024-02-09 11:15:47.693
220.0, -26479.977545735546, -29468.048151498813, 3062.636025266174, -9896.368968053934, 38041.81969664332, 7541.813855387432, 21259.481759009574, -5731.881348118943, 10338.95586001347, -4630.4097331058665, 36776.95682966195, 22089.156161446117, 33717.89708350862, 23326.369920536272, 23717.614855481967, 24107.496334015887, 0.052000000000000005, 1.02, 0.166, 192.0, 0.0, 0.0, 0.0, 0.0, 0.0, 0.0, 0.0, 0.0, 0.0, 1.7074737477010715E9, 0.0, 2024-02-09 11:15:47.701
222.0, -26568.64691598975, -29517.42315500059, 3013.4845392089537, -9866.90936886184, 37703.99543094581, 7476.05502319992, 21079.3266986998, -5831.301907456149, 10302.32135085122, -4657.075364241047, 36898.9079474101, 22050.33118132725, 34017.07518304291, 23355.069560416887, 23784.42421965888, 24258.169443389113, 0.052000000000000005, 1.02, 0.166, 192.0, 0.0, 0.0, 0.0, 0.0, 0.0, 0.0, 0.0, 0.0, 0.0, 1.7074737477090604E9, 0.0, 2024-02-09 11:15:47.709
224.0, -26503.133952991244, -29475.983020780448, 3055.170542618101, -9882.421479513821, 37823.51020854834, 7513.293029462461, 21158.943612449602, -5795.6955785388445, 10154.15163685699, -4670.575817892053, 36484.32779125307, 22021.609189702176, 33413.44397228288, 23163.984497068464, 23563.231356529162, 23981.253681332313, 0.052000000000000005, 1.02, 0.166, 192.0, 0.0, 0.0, 0.0, 0.0, 0.0, 0.0, 0.0, 0.0, 0.0, 1.7074737477170804E9, 0.0, 2024-02-09 11:15:47.717
226.0, -26531.028930071465, -29493.953823322514, 3029.8013126613278, -9886.400090026867, 37976.41849236709, 7497.110366476819, 21220.321502723873, -5782.820973732588, 10421.858480198203, -4631.192044161802, 37031.74436470799, 22107.48459189947, 34086.81262574346, 23433.25596252155, 23860.82248220712, 24271.826359251307, 0.058, 1.024, 0.164, 192.0, 0.5, 104.0, 16.0, 0.0, 2.5, 16.0, 0.0, 0.0, 0.0, 1.7074737477250888E9, 0.0, 2024-02-09 11:15:47.725
228.0, -26555.50409025003, -29506.336689750755, 3013.819815375783, -9879.04636610107, 37624.53497940719, 7449.255281598006, 21042.423968604086, -5884.3873005375035, 10141.72406693984, -4690.893553601927, 36563.56472534713, 21998.095154535193, 33595.74480006037, 23190.06898284781, 23608.180714628783, 24063.552804416755, 0.058, 1.024, 0.164, 192.0, 0.0, 0.0, 0.0, 0.0, 0.0, 0.0, 0.0, 0.0, 0.0, 1.7074737477332072E9, 0.0, 2024-02-09 11:15:47.733
230.0, -26476.53537708943, -29461.901421773604, 3058.6127112642184, -9903.67798849082, 38053.77787992691, 7525.497081935058, 21274.9715179171, -5741.649060445912, 10331.557432598762, -4645.564215846564, 36774.40873079404, 22084.37288813268, 33710.31984213828, 23306.499219715504, 23719.11242236047, 24087.04448783928, 0.058, 1.024, 0.164, 192.0, 0.0, 0.0, 0.0, 0.0, 0.0, 0.0, 0.0, 0.0, 0.0, 1.707473747741094E9, 0.0, 2024-02-09 11:15:47.741
232.0, -26557.985133884566, -29505.442619972542, 3009.4165217180876, -9878.5322759786, 37719.77576253125, 7460.185284636651, 21089.809666849338, -5850.747925132266, 10321.297981893777, -4655.890721784916, 36912.63191850566, 22066.335030357248, 34028.653386670754, 23350.062769658896, 23802.28326347867, 24246.434777550076, 0.058, 1.024, 0.164, 192.0, 0.0, 0.0, 0.0, 0.0, 0.0, 0.0, 0.0, 0.0, 0.0, 1.7074737477484095E9, 0.0, 2024-02-09 11:15:47.748
234.0, -26492.76274356398, -29465.16477646408, 3050.789600704861, -9897.710072721253, 37821.09622014716, 7494.7857850534665, 21146.583097765815, -5819.142558472462, 10165.506323040287, -4673.9062278158935, 36491.74857041223, 22027.64416070511, 33431.25831261377, 23170.377095982683, 23564.259536774105, 23968.133207337047, 0.058, 1.024, 0.164, 192.0, 0.0, 0.0, 0.0, 0.0, 0.0, 0.0, 0.0, 0.0, 0.0, 1.7074737477571328E9, 0.0, 2024-02-09 11:15:47.757
236.0, -26513.661624629694, -29478.195843481524, 3035.7468766864395, -9880.163953323836, 37993.04819024184, 7507.995666026553, 21233.330217996863, -5784.296188866639, 10437.39294259464, -4625.20177664778, 37046.720033493046, 22121.23091473948, 34097.876739248844, 23437.54749745697, 23857.44736879437, 24263.533862058386, 0.06, 1.014, 0.166, 192.0, 0.5, 112.0, 15.5, 88.0, 2.5, 24.0, 0.0, 0.0, 0.0, 1.70747374776519E9, 0.0, 2024-02-09 11:15:47.765
238.0, -26541.377787754274, -29492.411552955098, 3023.0957893247355, -9864.473028716211, 37635.04029930119, 7471.00352895302, 21071.414181162618, -5874.8207539106315, 10148.362535043065, -4684.009216309692, 36581.28965870019, 22015.283646021326, 33620.331718961206, 23209.626759246203, 23622.038796191075, 24080.026040080316, 0.06, 1.014, 0.166, 192.0, 0.0, 0.0, 0.0, 0.0, 0.0, 0.0, 0.0, 0.0, 0.0, 1.7074737477723274E9, 0.0, 2024-02-09 11:15:47.772
240.0, -26477.652964312194, -29461.4543868845, 3052.823609450294, -9905.15320362487, 38057.06358636184, 7527.06170404693, 21289.50015181305, -5750.545054739125, 10337.52534836833, -4641.786771033618, 36780.10842563015, 22092.79949579233, 33712.264443905886, 23324.872353657767, 23724.678006729842, 24103.160095591556, 0.06, 1.014, 0.166, 192.0, 0.0, 0.0, 0.0, 0.0, 0.0, 0.0, 0.0, 0.0, 0.0, 1.707473747781185E9, 0.0, 2024-02-09 11:15:47.781
242.0, -26558.476872262585, -29507.141352551145, 3005.370855971677, -9875.827714899508, 37721.832123021144, 7446.483665285548, 21093.07302153981, -5876.4077277669585, 10310.390330599586, -4667.647739368408, 36927.58523554626, 22059.830672720753, 34028.16164829274, 23337.791661952935, 23800.5174756667, 24258.66118176713, 0.06, 1.014, 0.166, 192.0, 0.0, 0.0, 0.0, 0.0, 0.0, 0.0, 0.0, 0.0, 0.0, 1.7074737477891765E9, 0.0, 2024-02-09 11:15:47.789
244.0, -26487.085400472333, -29456.224078681957, 3063.6418537666627, -9874.62072069892, 37825.38775508258, 7517.003419042042, 21178.590795825818, -5792.901610481931, 10159.158427614979, -4674.129745260447, 36509.36174504301, 22031.30984679578, 33422.272911342734, 23156.943697565046, 23574.38487701236, 23985.32169882318, 0.06, 1.014, 0.166, 192.0, 0.0, 0.0, 0.0, 0.0, 0.0, 0.0, 0.0, 0.0, 0.0, 1.7074737477972374E9, 0.0, 2024-02-09 11:15:47.797
246.0, -26508.498371660517, -29473.77019807937, 3040.2619290664115, -9870.530351463598, 37993.96461176451, 7519.529166165491, 21247.724741426082, -5753.674298962867, 10437.59410829474, -4622.407808590867, 37065.83077500234, 22127.154127020138, 34085.94090770971, 23440.78850040299, 23868.19855787737, 24283.046934967868, 0.059, 1.012, 0.169, 192.0, 0.5, 104.0, 15.5, 72.0, 2.5, 48.0, 0.0, 0.0, 0.0, 1.7074737478052027E9, 0.0, 2024-02-09 11:15:47.805
248.0, -26544.59643895584, -29493.93147157806, 3025.3533155147215, -9860.561473436532, 37623.97618579581, 7469.103630674319, 21056.706733311028, -5867.668195684933, 10146.172064086446, -4686.713777388785, 36597.44996994138, 22012.154401797583, 33613.42502992452, 23209.179724357098, 23626.44208984877, 24100.790810679297, 0.059, 1.012, 0.169, 192.0, 0.0, 0.0, 0.0, 0.0, 0.0, 0.0, 0.0, 0.0, 0.0, 1.7074737478132205E9, 0.0, 2024-02-09 11:15:47.813
250.0, -26469.606336308283, -29448.088043700227, 3069.3415486027657, -9894.446718030777, 38040.25507453145, 7537.835244874388, 21275.038573150465, -5735.614089442979, 10329.389313386597, -4641.2726809111455, 36782.07537914221, 22091.480742869466, 33695.32182160876, 23311.9530453626, 23715.737308947722, 24106.15522934857, 0.059, 1.012, 0.169, 192.0, 0.0, 0.0, 0.0, 0.0, 0.0, 0.0, 0.0, 0.0, 0.0, 1.7074737478213596E9, 0.0, 2024-02-09 11:15:47.821
252.0, -26544.708197678116, -29488.36588720869, 3018.3572195002102, -9867.132886306392, 37723.9555387444, 7470.444735341637, 21092.64833839516, -5851.530236188202, 10330.95393549847, -4648.82757053704, 36950.13814570167, 22072.6605740381, 34029.8827326158, 23356.276554617474, 23804.585493157567, 24269.14414991667, 0.059, 1.012, 0.169, 192.0, 0.0, 0.0, 0.0, 0.0, 0.0, 0.0, 0.0, 0.0, 0.0, 1.7074737478282704E9, 0.0, 2024-02-09 11:15:47.828
254.0, -26483.33030740384, -29452.44663386901, 3057.115144385713, -9888.232933072202, 37807.03697288477, 7513.24832597355, 21154.540318791907, -5811.654724079934, 10165.931006184937, -4672.587474893031, 36504.82434091858, 22024.82784090374, 33412.75106820477, 23163.425703457084, 23564.348943751927, 23986.483989534856, 0.059, 1.012, 0.169, 192.0, 0.0, 0.0, 0.0, 0.0, 0.0, 0.0, 0.0, 0.0, 0.0, 1.7074737478373163E9, 0.0, 2024-02-09 11:15:47.837
0.0, -26506.33025244835, -29466.662343342585, 3034.852806908227, -9887.227104571713, 37985.69446631604, 7526.100579035352, 21238.716988410593, -5745.381801769949, 10441.438608341052, -4623.3689336024445, 37054.11846090775, 22117.27465597089, 34074.04977965949, 23425.522258940015, 23860.889537440486, 24273.86036799674, 0.0595, 1.01, 0.1705, 192.0, 0.5, 112.0, 15.5, 64.0, 2.5, 48.0, 0.0, 0.0, 0.0, 1.7074737478453784E9, 0.0, 2024-02-09 11:15:47.845
2.0, -26534.359339995306, -29479.224023726467, 3024.4815974809644, -9869.770392152119, 37614.789618824674, 7469.930645219165, 21052.102273953235, -5861.365003748537, 10158.934910170427, -4684.5903616655305, 36600.37804846502, 22003.370166226647, 33624.802067852266, 23196.863913162222, 23630.465403850725, 24100.030851367814, 0.0595, 1.01, 0.1705, 192.0, 0.0, 0.0, 0.0, 0.0, 0.0, 0.0, 0.0, 0.0, 0.0, 1.7074737478534212E9, 0.0, 2024-02-09 11:15:47.853
4.0, -26461.33619085982, -29437.739186017418, 3069.5427143028637, -9894.089090119493, 38037.729327408, 7543.467884477125, 21269.987078903567, -5726.539281194125, 10336.787740801305, -4631.795541262096, 36776.88977442858, 22088.776181790374, 33678.423902800554, 23310.500181973002, 23715.938474647817, 24093.660604198052, 0.0595, 1.01, 0.1705, 192.0, 0.0, 0.0, 0.0, 0.0, 0.0, 0.0, 0.0, 0.0, 0.0, 1.7074737478603816E9, 0.0, 2024-02-09 11:15:47.860
6.0, -26550.050264602934, -29491.22691049897, 3017.686667166551, -9868.85397062945, 37726.861265523585, 7469.505962074514, 21094.011794806935, -5831.368962689515, 10334.843139033692, -4647.8440937810055, 36946.7183288, 22067.69848676902, 34016.44933419816, 23373.353287381327, 23808.273530992694, 24269.591184805773, 0.0595, 1.01, 0.1705, 192.0, 0.0, 0.0, 0.0, 0.0, 0.0, 0.0, 0.0, 0.0, 0.0, 1.707473747869384E9, 0.0, 2024-02-09 11:15:47.869
